  # energy grid [eV]     epsi_x  epsi_y  epsi_z
       0.000000            NaN            NaN            NaN
       0.010000       0.017904       0.030318       0.001000
       0.020000       0.035981       0.061037       0.002004
       0.030000       0.054391       0.092564       0.003019
       0.040000       0.073262       0.125317       0.004050
       0.050000       0.092669       0.159726       0.005102
       0.060000       0.112607       0.196231       0.006181
       0.070000       0.132958       0.235281       0.007293
       0.080000       0.153458       0.277315       0.008445
       0.090000       0.173675       0.322736       0.009644
       0.100000       0.193019       0.371861       0.010899
       0.110000       0.210801       0.424848       0.012217
       0.120000       0.226330       0.481595       0.013610
       0.130000       0.239058       0.541595       0.015087
       0.140000       0.248689       0.603786       0.016661
       0.150000       0.255226       0.666402       0.018347
       0.160000       0.258914       0.726917       0.020159
       0.170000       0.260131       0.782155       0.022117
       0.180000       0.259269       0.828661       0.024239
       0.190000       0.256682       0.863314       0.026551
       0.200000       0.252683       0.884064       0.029078
       0.210000       0.247594       0.890504       0.031850
       0.220000       0.241778       0.884037       0.034902
       0.230000       0.235635       0.867537       0.038270
       0.240000       0.229574       0.844678       0.041997
       0.250000       0.223963       0.819191       0.046126
       0.260000       0.219097       0.794295       0.050704
       0.270000       0.215185       0.772372       0.055773
       0.280000       0.212353       0.754857       0.061371
       0.290000       0.210664       0.742253       0.067521
       0.300000       0.210132       0.734191       0.074221
       0.310000       0.210744       0.729515       0.081434
       0.320000       0.212471       0.726407       0.089066
       0.330000       0.215283       0.722598       0.096963
       0.340000       0.219149       0.715712       0.104896
       0.350000       0.224045       0.703703       0.112581
       0.360000       0.229953       0.685293       0.119698
       0.370000       0.236862       0.660247       0.125946
       0.380000       0.244762       0.629361       0.131088
       0.390000       0.253643       0.594179       0.135000
       0.400000       0.263487       0.556573       0.137687
       0.410000       0.274256       0.518347       0.139275
       0.420000       0.285892       0.480981       0.139971
       0.430000       0.298303       0.445521       0.140016
       0.440000       0.311370       0.412594       0.139628
       0.450000       0.324958       0.382483       0.138967
       0.460000       0.338943       0.355225       0.138123
       0.470000       0.353252       0.330707       0.137133
       0.480000       0.367903       0.308738       0.136013
       0.490000       0.383019       0.289101       0.134790
       0.500000       0.398833       0.271588       0.133508
       0.510000       0.415656       0.256005       0.132226
       0.520000       0.433843       0.242180       0.130997
       0.530000       0.453763       0.229955       0.129852
       0.540000       0.475776       0.219187       0.128798
       0.550000       0.500237       0.209742       0.127808
       0.560000       0.527492       0.201496       0.126825
       0.570000       0.557898       0.194339       0.125769
       0.580000       0.591824       0.188167       0.124542
       0.590000       0.629663       0.182891       0.123051
       0.600000       0.671833       0.178432       0.121228
       0.610000       0.718767       0.174719       0.119051
       0.620000       0.770891       0.171693       0.116555
       0.630000       0.828597       0.169304       0.113822
       0.640000       0.892180       0.167506       0.110961
       0.650000       0.961761       0.166263       0.108080
       0.660000       1.037183       0.165542       0.105274
       0.670000       1.117884       0.165315       0.102611
       0.680000       1.202774       0.165556       0.100147
       0.690000       1.290125       0.166239       0.097933
       0.700000       1.377533       0.167337       0.096015
       0.710000       1.461993       0.168824       0.094439
       0.720000       1.540144       0.170671       0.093241
       0.730000       1.608729       0.172854       0.092435
       0.740000       1.665236       0.175355       0.092016
       0.750000       1.708577       0.178169       0.091947
       0.760000       1.739536       0.181308       0.092161
       0.770000       1.760790       0.184800       0.092562
       0.780000       1.776454       0.188690       0.093024
       0.790000       1.791357       0.193030       0.093408
       0.800000       1.810324       0.197882       0.093566
       0.810000       1.837689       0.203307       0.093375
       0.820000       1.877089       0.209369       0.092750
       0.830000       1.931472       0.216136       0.091663
       0.840000       2.003235       0.223676       0.090147
       0.850000       2.094382       0.232064       0.088286
       0.860000       2.206643       0.241381       0.086201
       0.870000       2.341524       0.251712       0.084025
       0.880000       2.500256       0.263148       0.081889
       0.890000       2.683638       0.275777       0.079901
       0.900000       2.891752       0.289681       0.078149
       0.910000       3.123566       0.304925       0.076693
       0.920000       3.376438       0.321536       0.075573
       0.930000       3.645610       0.339491       0.074811
       0.940000       3.923813       0.358691       0.074423
       0.950000       4.201192       0.378945       0.074421
       0.960000       4.465768       0.399969       0.074820
       0.970000       4.704590       0.421408       0.075646
       0.980000       4.905450       0.442879       0.076925
       0.990000       5.058709       0.464046       0.078684
       1.000000       5.158513       0.484671       0.080938
       1.010000       5.202887       0.504657       0.083676
       1.020000       5.192767       0.524041       0.086849
       1.030000       5.130701       0.542974       0.090357
       1.040000       5.020040       0.561712       0.094040
       1.050000       4.864983       0.580629       0.097677
       1.060000       4.671081       0.600234       0.100995
       1.070000       4.445521       0.621161       0.103701
       1.080000       4.196780       0.644120       0.105521
       1.090000       3.933798       0.669811       0.106261
       1.100000       3.665105       0.698818       0.105847
       1.110000       3.398219       0.731513       0.104345
       1.120000       3.139352       0.767965       0.101941
       1.130000       2.893319       0.807872       0.098891
       1.140000       2.663542       0.850514       0.095470
       1.150000       2.452129       0.894778       0.091930
       1.160000       2.260038       0.939271       0.088476
       1.170000       2.087299       0.982565       0.085262
       1.180000       1.933262       1.023551       0.082397
       1.190000       1.796831       1.061790       0.079951
       1.200000       1.676645       1.097744       0.077958
       1.210000       1.571210       1.132754       0.076428
       1.220000       1.478979       1.168782       0.075344
       1.230000       1.398390       1.207995       0.074678
       1.240000       1.327883       1.252346       0.074390
       1.250000       1.265920       1.303216       0.074450
       1.260000       1.211025       1.361155       0.074837
       1.270000       1.161844       1.425695       0.075557
       1.280000       1.117241       1.495234       0.076638
       1.290000       1.076377       1.567015       0.078125
       1.300000       1.038743       1.637295       0.080076
       1.310000       1.004143       1.701760       0.082545
       1.320000       0.972616       1.756205       0.085575
       1.330000       0.944341       1.797381       0.089185
       1.340000       0.919562       1.823741       0.093363
       1.350000       0.898524       1.835847       0.098050
       1.360000       0.881448       1.836269       0.103129
       1.370000       0.868516       1.829014       0.108417
       1.380000       0.859866       1.818719       0.113655
       1.390000       0.855591       1.809838       0.118529
       1.400000       0.855738       1.806026       0.122694
       1.410000       0.860298       1.809749       0.125836
       1.420000       0.869180       1.822105       0.127730
       1.430000       0.882185       1.842791       0.128299
       1.440000       0.898961       1.870223       0.127628
       1.450000       0.918971       1.901844       0.125947
       1.460000       0.941489       1.934635       0.123575
       1.470000       0.965645       1.965801       0.120866
       1.480000       0.990542       1.993441       0.118152
       1.490000       1.015439       2.016955       0.115717
       1.500000       1.039933       2.036973       0.113777
       1.510000       1.064081       2.054820       0.112482
       1.520000       1.088378       2.071731       0.111919
       1.530000       1.113593       2.088160       0.112118
       1.540000       1.140545       2.103453       0.113056
       1.550000       1.169883       2.115991       0.114670
       1.560000       1.201977       2.123751       0.116859
       1.570000       1.236903       2.125061       0.119490
       1.580000       1.274509       2.119255       0.122411
       1.590000       1.314491       2.106956       0.125466
       1.600000       1.356442       2.089914       0.128507
       1.610000       1.399880       2.070513       0.131419
       1.620000       1.444289       2.051203       0.134132
       1.630000       1.489201       2.034079       0.136628
       1.640000       1.534271       2.020714       0.138924
       1.650000       1.579290       2.012177       0.141059
       1.660000       1.624095       2.009162       0.143070
       1.670000       1.668430       2.012107       0.144976
       1.680000       1.711867       2.021260       0.146778
       1.690000       1.753883       2.036688       0.148462
       1.700000       1.794101       2.058236       0.150013
       1.710000       1.832561       2.085499       0.151420
       1.720000       1.869865       2.117854       0.152673
       1.730000       1.907074       2.154514       0.153760
       1.740000       1.945369       2.194546       0.154657
       1.750000       1.985639       2.236751       0.155323
       1.760000       2.028197       2.279420       0.155702
       1.770000       2.072757       2.320083       0.155730
       1.780000       2.118658       2.355487       0.155342
       1.790000       2.165207       2.381959       0.154489
       1.800000       2.211940       2.396147       0.153145
       1.810000       2.258692       2.395877       0.151320
       1.820000       2.305484       2.380744       0.149066
       1.830000       2.352373       2.352167       0.146473
       1.840000       2.399383       2.312945       0.143664
       1.850000       2.446541       2.266567       0.140782
       1.860000       2.493920       2.216584       0.137967
       1.870000       2.541569       2.166188       0.135349
       1.880000       2.589301       2.117937       0.133028
       1.890000       2.636448       2.073561       0.131070
       1.900000       2.681703       2.033804       0.129503
       1.910000       2.723117       1.998374       0.128321
       1.920000       2.758192       1.966098       0.127486
       1.930000       2.784011       1.935281       0.126943
       1.940000       2.797371       1.904193       0.126625
       1.950000       2.794990       1.871497       0.126460
       1.960000       2.773808       1.836464       0.126387
       1.970000       2.731406       1.798955       0.126348
       1.980000       2.666509       1.759265       0.126303
       1.990000       2.579463       1.717998       0.126226
       2.000000       2.472506       1.676024       0.126112
       2.010000       2.349658       1.634469       0.125980
       2.020000       2.216180       1.594624       0.125871
       2.030000       2.077756       1.557759       0.125843
       2.040000       1.939667       1.524886       0.125959
       2.050000       1.806203       1.496603       0.126268
       2.060000       1.680394       1.473060       0.126791
       2.070000       1.564054       1.454070       0.127508
       2.080000       1.457988       1.439266       0.128361
       2.090000       1.362277       1.428210       0.129263
       2.100000       1.276544       1.420409       0.130123
       2.110000       1.200165       1.415250       0.130861
       2.120000       1.132418       1.411943       0.131432
       2.130000       1.072579       1.409548       0.131824
       2.140000       1.019957       1.407115       0.132052
       2.150000       0.973895       1.403883       0.132144
       2.160000       0.933749       1.399421       0.132133
       2.170000       0.898857       1.393628       0.132053
       2.180000       0.868533       1.386557       0.131936
       2.190000       0.842072       1.378147       0.131810
       2.200000       0.818792       1.367993       0.131691
       2.210000       0.798083       1.355264       0.131570
       2.220000       0.779457       1.338804       0.131412
       2.230000       0.762566       1.317391       0.131158
       2.240000       0.747206       1.290087       0.130733
       2.250000       0.733304       1.256559       0.130063
       2.260000       0.720910       1.217297       0.129087
       2.270000       0.710188       1.173613       0.127767
       2.280000       0.701396       1.127431       0.126091
       2.290000       0.694835       1.080934       0.124075
       2.300000       0.690785       1.036208       0.121764
       2.310000       0.689430       0.994972       0.119227
       2.320000       0.690802       0.958451       0.116562
       2.330000       0.694750       0.927362       0.113885
       2.340000       0.700934       0.901982       0.111324
       2.350000       0.708872       0.882248       0.109003
       2.360000       0.718012       0.867857       0.107024
       2.370000       0.727842       0.858358       0.105462
       2.380000       0.737999       0.853197       0.104364
       2.390000       0.748333       0.851717       0.103753
       2.400000       0.758916       0.853120       0.103623
       2.410000       0.769971       0.856416       0.103946
       2.420000       0.781773       0.860427       0.104667
       2.430000       0.794522       0.863884       0.105714
       2.440000       0.808260       0.865622       0.107001
       2.450000       0.822839       0.864831       0.108445
       2.460000       0.837964       0.861262       0.109972
       2.470000       0.853290       0.855273       0.111521
       2.480000       0.868537       0.847709       0.113037
       2.490000       0.883568       0.839644       0.114457
       2.500000       0.898400       0.832099       0.115705
       2.510000       0.913138       0.825820       0.116690
       2.520000       0.927877       0.821149       0.117321
       2.530000       0.942609       0.818010       0.117523
       2.540000       0.957177       0.815994       0.117258
       2.550000       0.971276       0.814498       0.116539
       2.560000       0.984454       0.812903       0.115427
       2.570000       0.996106       0.810725       0.114029
       2.580000       1.005459       0.807681       0.112475
       2.590000       1.011564       0.803651       0.110903
       2.600000       1.013363       0.798567       0.109440
       2.610000       1.009792       0.792305       0.108182
       2.620000       0.999946       0.784652       0.107190
       2.630000       0.983249       0.775375       0.106485
       2.640000       0.959615       0.764357       0.106054
       2.650000       0.929547       0.751725       0.105857
       2.660000       0.894132       0.737878       0.105845
       2.670000       0.854919       0.723413       0.105968
       2.680000       0.813677       0.708960       0.106180
       2.690000       0.772138       0.695024       0.106438
       2.700000       0.731775       0.681883       0.106697
       2.710000       0.693687       0.669582       0.106902
       2.720000       0.658566       0.657990       0.106995
       2.730000       0.626747       0.646891       0.106920
       2.740000       0.598283       0.636060       0.106635
       2.750000       0.573038       0.625333       0.106119
       2.760000       0.550771       0.614641       0.105374
       2.770000       0.531195       0.604039       0.104429
       2.780000       0.514027       0.593703       0.103333
       2.790000       0.499003       0.583901       0.102146
       2.800000       0.485892       0.574951       0.100932
       2.810000       0.474500       0.567178       0.099752
       2.820000       0.464667       0.560886       0.098661
       2.830000       0.456261       0.556324       0.097704
       2.840000       0.449159       0.553661       0.096917
       2.850000       0.443219       0.552935       0.096326
       2.860000       0.438263       0.554026       0.095943
       2.870000       0.434075       0.556635       0.095760
       2.880000       0.430421       0.560312       0.095752
       2.890000       0.427088       0.564510       0.095869
       2.900000       0.423920       0.568678       0.096051
       2.910000       0.420837       0.572343       0.096228
       2.920000       0.417833       0.575196       0.096334
       2.930000       0.414955       0.577134       0.096313
       2.940000       0.412272       0.578268       0.096131
       2.950000       0.409858       0.578883       0.095782
       2.960000       0.407773       0.579344       0.095293
       2.970000       0.406059       0.579977       0.094715
       2.980000       0.404728       0.580961       0.094109
       2.990000       0.403761       0.582263       0.093533
       3.000000       0.403115       0.583640       0.093034
       3.010000       0.402736       0.584721       0.092642
       3.020000       0.402595       0.585127       0.092373
       3.030000       0.402711       0.584579       0.092235
       3.040000       0.403160       0.582949       0.092232
       3.050000       0.404062       0.580236       0.092359
       3.060000       0.405561       0.576509       0.092606
       3.070000       0.407801       0.571850       0.092959
       3.080000       0.410910       0.566348       0.093401
       3.090000       0.414992       0.560128       0.093917
       3.100000       0.420128       0.553367       0.094506
       3.110000       0.426361       0.546294       0.095177
       3.120000       0.433698       0.539166       0.095944
       3.130000       0.442105       0.532236       0.096823
       3.140000       0.451510       0.525747       0.097810
       3.150000       0.461816       0.519930       0.098870
       3.160000       0.472922       0.515012       0.099928
       3.170000       0.484752       0.511211       0.100867
       3.180000       0.497281       0.508721       0.101548
       3.190000       0.510550       0.507695       0.101827
       3.200000       0.524652       0.508226       0.101597
       3.210000       0.539690       0.510346       0.100808
       3.220000       0.555720       0.514042       0.099490
       3.230000       0.572705       0.519276       0.097745
       3.240000       0.590490       0.526026       0.095727
       3.250000       0.608812       0.534291       0.093604
       3.260000       0.627331       0.544094       0.091531
       3.270000       0.645678       0.555455       0.089623
       3.280000       0.663485       0.568370       0.087945
       3.290000       0.680399       0.582812       0.086515
       3.300000       0.696085       0.598750       0.085318
       3.310000       0.710238       0.616190       0.084319
       3.320000       0.722617       0.635191       0.083482
       3.330000       0.733094       0.655864       0.082790
       3.340000       0.741721       0.678326       0.082251
       3.350000       0.748767       0.702629       0.081897
       3.360000       0.754717       0.728699       0.081776
       3.370000       0.760230       0.756283       0.081937
       3.380000       0.766052       0.784932       0.082413
       3.390000       0.772932       0.814012       0.083212
       3.400000       0.781555       0.842768       0.084305
       3.410000       0.792519       0.870447       0.085627
       3.420000       0.806342       0.896463       0.087079
       3.430000       0.823505       0.920569       0.088538
       3.440000       0.844490       0.942966       0.089878
       3.450000       0.869806       0.964285       0.090983
       3.460000       0.899996       0.985432       0.091776
       3.470000       0.935616       1.007325       0.092218
       3.480000       0.977205       1.030624       0.092317
       3.490000       1.025239       1.055506       0.092117
       3.500000       1.080086       1.081551       0.091690
       3.510000       1.141941       1.107756       0.091128
       3.520000       1.210751       1.132663       0.090532
       3.530000       1.286133       1.154596       0.090001
       3.540000       1.367303       1.171971       0.089625
       3.550000       1.453045       1.183607       0.089465
       3.560000       1.541746       1.188965       0.089546
       3.570000       1.631512       1.188246       0.089853
       3.580000       1.720334       1.182324       0.090335
       3.590000       1.806264       1.172569       0.090914
       3.600000       1.887522       1.160607       0.091505
       3.610000       1.962535       1.148060       0.092027
       3.620000       2.029915       1.136316       0.092423
       3.630000       2.088432       1.126355       0.092661
       3.640000       2.137054       1.118670       0.092738
       3.650000       2.175085       1.113311       0.092669
       3.660000       2.202393       1.110009       0.092482
       3.670000       2.219680       1.108377       0.092203
       3.680000       2.228696       1.108092       0.091854
       3.690000       2.232266       1.109013       0.091450
       3.700000       2.234070       1.111185       0.091011
       3.710000       2.238177       1.114723       0.090562
       3.720000       2.248485       1.119669       0.090141
       3.730000       2.268223       1.125873       0.089793
       3.740000       2.299625       1.132995       0.089565
       3.750000       2.343790       1.140601       0.089494
       3.760000       2.400707       1.148344       0.089604
       3.770000       2.469356       1.156127       0.089903
       3.780000       2.547856       1.164200       0.090388
       3.790000       2.633615       1.173159       0.091050
       3.800000       2.723480       1.183837       0.091881
       3.810000       2.813901       1.197131       0.092874
       3.820000       2.901145       1.213796       0.094032
       3.830000       2.981578       1.234283       0.095362
       3.840000       3.051982       1.258631       0.096880
       3.850000       3.109849       1.286449       0.098601
       3.860000       3.153590       1.316992       0.100531
       3.870000       3.182674       1.349286       0.102654
       3.880000       3.197714       1.382272       0.104932
       3.890000       3.200493       1.414944       0.107299
       3.900000       3.193854       1.446445       0.109676
       3.910000       3.181384       1.476143       0.111989
       3.920000       3.166884       1.503656       0.114186
       3.930000       3.153734       1.528857       0.116248
       3.940000       3.144333       1.551816       0.118192
       3.950000       3.139789       1.572701       0.120056
       3.960000       3.139945       1.591644       0.121887
       3.970000       3.143714       1.608634       0.123722
       3.980000       3.149552       1.623470       0.125587
       3.990000       3.155884       1.635836       0.127489
       4.000000       3.161342       1.645472       0.129424
       4.010000       3.164798       1.652351       0.131378
       4.020000       3.165283       1.656783       0.133336
       4.030000       3.161898       1.659389       0.135271
       4.040000       3.153798       1.660973       0.137147
       4.050000       3.140231       1.662380       0.138914
       4.060000       3.120582       1.664403       0.140512
       4.070000       3.094375       1.667737       0.141891
       4.080000       3.061241       1.672941       0.143021
       4.090000       3.020966       1.680387       0.143905
       4.100000       2.973696       1.690179       0.144582
       4.110000       2.920254       1.702113       0.145112
       4.120000       2.862402       1.715693       0.145562
       4.130000       2.802854       1.730240       0.145990
       4.140000       2.744989       1.745055       0.146437
       4.150000       2.692370       1.759581       0.146932
       4.160000       2.648249       1.773514       0.147498
       4.170000       2.615205       1.786798       0.148148
       4.180000       2.594964       1.799502       0.148891
       4.190000       2.588363       1.811619       0.149725
       4.200000       2.595403       1.822863       0.150641
       4.210000       2.615325       1.832555       0.151623
       4.220000       2.646686       1.839667       0.152659
       4.230000       2.687446       1.843025       0.153731
       4.240000       2.735059       1.841624       0.154821
       4.250000       2.786595       1.834931       0.155901
       4.260000       2.838889       1.823089       0.156935
       4.270000       2.888733       1.806943       0.157891
       4.280000       2.933115       1.787902       0.158750
       4.290000       2.969495       1.767686       0.159523
       4.300000       2.996094       1.748054       0.160252
       4.310000       3.012105       1.730585       0.161005
       4.320000       3.017776       1.716541       0.161856
       4.330000       3.014305       1.706799       0.162866
       4.340000       3.003565       1.701837       0.164062
       4.350000       2.987706       1.701735       0.165431
       4.360000       2.968713       1.706201       0.166915
       4.370000       2.948007       1.714619       0.168430
       4.380000       2.926165       1.726126       0.169885
       4.390000       2.902878       1.739710       0.171207
       4.400000       2.877194       1.754342       0.172352
       4.410000       2.847980       1.769123       0.173313
       4.420000       2.814438       1.783418       0.174108
       4.430000       2.776473       1.796905       0.174767
       4.440000       2.734779       1.809550       0.175313
       4.450000       2.690657       1.821498       0.175759
       4.460000       2.645719       1.832959       0.176109
       4.470000       2.601605       1.844109       0.176366
       4.480000       2.559804       1.855044       0.176546
       4.490000       2.521581       1.865759       0.176678
       4.500000       2.487944       1.876153       0.176810
       4.510000       2.459614       1.886009       0.176993
       4.520000       2.436998       1.894972       0.177271
       4.530000       2.420188       1.902514       0.177668
       4.540000       2.408972       1.907917       0.178175
       4.550000       2.402869       1.910306       0.178745
       4.560000       2.401155       1.908732       0.179291
       4.570000       2.402864       1.902311       0.179686
       4.580000       2.406787       1.890379       0.179781
       4.590000       2.411496       1.872618       0.179422
       4.600000       2.415428       1.849105       0.178483
       4.610000       2.417082       1.820284       0.176893
       4.620000       2.415287       1.786898       0.174653
       4.630000       2.409475       1.749909       0.171837
       4.640000       2.399798       1.710398       0.168572
       4.650000       2.387019       1.669456       0.165016
       4.660000       2.372209       1.628050       0.161330
       4.670000       2.356417       1.586946       0.157665
       4.680000       2.340450       1.546714       0.154147
       4.690000       2.324812       1.507799       0.150879
       4.700000       2.309756       1.470614       0.147944
       4.710000       2.295367       1.435592       0.145401
       4.720000       2.281668       1.403197       0.143297
       4.730000       2.268751       1.373918       0.141661
       4.740000       2.256931       1.348282       0.140507
       4.750000       2.246857       1.326853       0.139833
       4.760000       2.239508       1.310220       0.139623
       4.770000       2.236022       1.298937       0.139847
       4.780000       2.237443       1.293428       0.140462
       4.790000       2.244480       1.293893       0.141416
       4.800000       2.257398       1.300234       0.142647
       4.810000       2.276079       1.312037       0.144083
       4.820000       2.300198       1.328605       0.145641
       4.830000       2.329400       1.349031       0.147225
       4.840000       2.363364       1.372280       0.148739
       4.850000       2.401681       1.397244       0.150086
       4.860000       2.443619       1.422760       0.151188
       4.870000       2.487863       1.447608       0.151992
       4.880000       2.532377       1.470538       0.152472
       4.890000       2.574468       1.490363       0.152630
       4.900000       2.611070       1.506100       0.152493
       4.910000       2.639185       1.517125       0.152106
       4.920000       2.656372       1.523257       0.151533
       4.930000       2.661170       1.524768       0.150855
       4.940000       2.653336       1.522302       0.150158
       4.950000       2.633864       1.516748       0.149521
       4.960000       2.604808       1.509059       0.149009
       4.970000       2.568973       1.500083       0.148657
       4.980000       2.529530       1.490431       0.148470
       4.990000       2.489586       1.480457       0.148430
       5.000000       2.451758       1.470333       0.148499
       5.010000       2.417822       1.460185       0.148632
       5.020000       2.388543       1.450209       0.148778
       5.030000       2.363722       1.440721       0.148886
       5.040000       2.342447       1.432121       0.148908
       5.050000       2.323465       1.424809       0.148800
       5.060000       2.305546       1.419093       0.148530
       5.070000       2.287757       1.415127       0.148077
       5.080000       2.269600       1.412919       0.147440
       5.090000       2.251015       1.412375       0.146640
       5.100000       2.232291       1.413364       0.145718
       5.110000       2.213920       1.415730       0.144734
       5.120000       2.196420       1.419243       0.143756
       5.130000       2.180214       1.423512       0.142857
       5.140000       2.165591       1.427917       0.142096
       5.150000       2.152777       1.431612       0.141517
       5.160000       2.142050       1.433621       0.141147
       5.170000       2.133836       1.433010       0.140989
       5.180000       2.128716       1.429090       0.141034
       5.190000       2.127312       1.421584       0.141261
       5.200000       2.130077       1.410716       0.141643
       5.210000       2.137062       1.397202       0.142153
       5.220000       2.147726       1.382149       0.142764
       5.230000       2.160884       1.366897       0.143450
       5.240000       2.174831       1.352833       0.144182
       5.250000       2.187634       1.341209       0.144921
       5.260000       2.197497       1.333015       0.145616
       5.270000       2.203067       1.328931       0.146208
       5.280000       2.203575       1.329339       0.146642
       5.290000       2.198786       1.334361       0.146882
       5.300000       2.188850       1.343876       0.146925
       5.310000       2.174181       1.357503       0.146805
       5.320000       2.155438       1.374557       0.146577
       5.330000       2.133580       1.394003       0.146310
       5.340000       2.109897       1.414482       0.146071
       5.350000       2.085934       1.434416       0.145911
       5.360000       2.063310       1.452222       0.145870
       5.370000       2.043516       1.466558       0.145974
       5.380000       2.027753       1.476537       0.146246
       5.390000       2.016861       1.481820       0.146707
       5.400000       2.011318       1.482597       0.147381
       5.410000       2.011284       1.479475       0.148286
       5.420000       2.016674       1.473352       0.149438
       5.430000       2.027244       1.465320       0.150846
       5.440000       2.042693       1.456563       0.152516
       5.450000       2.062748       1.448252       0.154445
       5.460000       2.087245       1.441400       0.156625
       5.470000       2.116170       1.436703       0.159039
       5.480000       2.149634       1.434400       0.161653
       5.490000       2.187788       1.434199       0.164409
       5.500000       2.230688       1.435291       0.167227
       5.510000       2.278162       1.436486       0.170010
       5.520000       2.329772       1.436438       0.172659
       5.530000       2.384863       1.433916       0.175089
       5.540000       2.442656       1.428060       0.177239
       5.550000       2.502279       1.418536       0.179082
       5.560000       2.562701       1.405563       0.180624
       5.570000       2.622590       1.389823       0.181903
       5.580000       2.680241       1.372288       0.182981
       5.590000       2.733636       1.354008       0.183938
       5.600000       2.780612       1.335912       0.184855
       5.610000       2.819073       1.318632       0.185801
       5.620000       2.847162       1.302413       0.186822
       5.630000       2.863406       1.287142       0.187933
       5.640000       2.866864       1.272491       0.189115
       5.650000       2.857259       1.258158       0.190317
       5.660000       2.835077       1.244063       0.191467
       5.670000       2.801579       1.230443       0.192490
       5.680000       2.758742       1.217773       0.193321
       5.690000       2.709131       1.206592       0.193931
       5.700000       2.655677       1.197310       0.194324
       5.710000       2.601379       1.190101       0.194546
       5.720000       2.548953       1.184898       0.194663
       5.730000       2.500546       1.181466       0.194752
       5.740000       2.457582       1.179478       0.194881
       5.750000       2.420756       1.178546       0.195099
       5.760000       2.390171       1.178214       0.195435
       5.770000       2.365559       1.177941       0.195897
       5.780000       2.346578       1.177152       0.196484
       5.790000       2.333080       1.175360       0.197194
       5.800000       2.325269       1.172319       0.198021
       5.810000       2.323677       1.168125       0.198961
       5.820000       2.328953       1.163207       0.200001
       5.830000       2.341582       1.158203       0.201118
       5.840000       2.361610       1.153775       0.202273
       5.850000       2.388458       1.150409       0.203418
       5.860000       2.420848       1.148288       0.204507
       5.870000       2.456824       1.147230       0.205513
       5.880000       2.493892       1.146737       0.206437
       5.890000       2.529273       1.146127       0.207318
       5.900000       2.560217       1.144701       0.208215
       5.910000       2.584325       1.141907       0.209193
       5.920000       2.599794       1.137416       0.210301
       5.930000       2.605564       1.131140       0.211561
       5.940000       2.601345       1.123179       0.212965
       5.950000       2.587521       1.113763       0.214485
       5.960000       2.564943       1.103195       0.216082
       5.970000       2.534646       1.091818       0.217713
       5.980000       2.497617       1.079989       0.219329
       5.990000       2.454711       1.068071       0.220875
       6.000000       2.406737       1.056434       0.222285
       6.010000       2.354638       1.045466       0.223482
       6.020000       2.299663       1.035589       0.224396
       6.030000       2.243461       1.027281       0.224973
       6.040000       2.188044       1.021078       0.225194
       6.050000       2.135656       1.017556       0.225073
       6.060000       2.088560       1.017272       0.224656
       6.070000       2.048832       1.020699       0.224009
       6.080000       2.018205       1.028171       0.223204
       6.090000       1.998012       1.039860       0.222315
       6.100000       1.989204       1.055754       0.221415
       6.110000       1.992389       1.075633       0.220579
       6.120000       2.007865       1.099025       0.219878
       6.130000       2.035612       1.125179       0.219382
       6.140000       2.075265       1.153092       0.219155
       6.150000       2.126081       1.181629       0.219259
       6.160000       2.186938       1.209701       0.219756
       6.170000       2.256359       1.236453       0.220708
       6.180000       2.332597       1.261359       0.222173
       6.190000       2.413733       1.284209       0.224203
       6.200000       2.497794       1.304999       0.226831
       6.210000       2.582857       1.323808       0.230059
       6.220000       2.667098       1.340704       0.233849
       6.230000       2.748764       1.355679       0.238118
       6.240000       2.826092       1.368588       0.242741
       6.250000       2.897225       1.379085       0.247557
       6.260000       2.960241       1.386600       0.252380
       6.270000       3.013323       1.390395       0.257018
       6.280000       3.055024       1.389715       0.261286
       6.290000       3.084507       1.383988       0.265030
       6.300000       3.101655       1.373005       0.268138
       6.310000       3.107028       1.357016       0.270552
       6.320000       3.101705       1.336709       0.272275
       6.330000       3.087090       1.313088       0.273362
       6.340000       3.064730       1.287303       0.273918
       6.350000       3.036187       1.260456       0.274073
       6.360000       3.002970       1.233459       0.273965
       6.370000       2.966501       1.206972       0.273714
       6.380000       2.928127       1.181423       0.273414
       6.390000       2.889157       1.157107       0.273131
       6.400000       2.850868       1.134321       0.272912
       6.410000       2.814441       1.113463       0.272795
       6.420000       2.780801       1.095059       0.272814
       6.430000       2.750455       1.079707       0.272993
       6.440000       2.723432       1.067965       0.273342
       6.450000       2.699385       1.060235       0.273850
       6.460000       2.677791       1.056690       0.274484
       6.470000       2.658111       1.057245       0.275192
       6.480000       2.639831       1.061590       0.275908
       6.490000       2.622357       1.069235       0.276569
       6.500000       2.604896       1.079557       0.277116
       6.510000       2.586393       1.091817       0.277517
       6.520000       2.565594       1.105176       0.277768
       6.530000       2.541236       1.118728       0.277902
       6.540000       2.512321       1.131577       0.277985
       6.550000       2.478390       1.142949       0.278112
       6.560000       2.439694       1.152297       0.278390
       6.570000       2.397214       1.159360       0.278927
       6.580000       2.352513       1.164168       0.279814
       6.590000       2.307519       1.167012       0.281112
       6.600000       2.264282       1.168397       0.282832
       6.610000       2.224745       1.168955       0.284932
       6.620000       2.190561       1.169372       0.287315
       6.630000       2.162974       1.170306       0.289836
       6.640000       2.142776       1.172359       0.292332
       6.650000       2.130309       1.176064       0.294654
       6.660000       2.125490       1.181884       0.296706
       6.670000       2.127820       1.190183       0.298471
       6.680000       2.136393       1.201179       0.300018
       6.690000       2.149933       1.214892       0.301484
       6.700000       2.166863       1.231107       0.303041
       6.710000       2.185425       1.249379       0.304867
       6.720000       2.203813       1.269091       0.307114
       6.730000       2.220338       1.289576       0.309892
       6.740000       2.233581       1.310296       0.313257
       6.750000       2.242531       1.331018       0.317200
       6.760000       2.246663       1.351902       0.321655
       6.770000       2.245942       1.373442       0.326495
       6.780000       2.240761       1.396249       0.331551
       6.790000       2.231852       1.420780       0.336624
       6.800000       2.220221       1.447102       0.341511
       6.810000       2.207096       1.474777       0.346017
       6.820000       2.193863       1.502905       0.349968
       6.830000       2.181935       1.530283       0.353221
       6.840000       2.172562       1.555647       0.355668
       6.850000       2.166622       1.577893       0.357247
       6.860000       2.164467       1.596248       0.357941
       6.870000       2.165891       1.610325       0.357787
       6.880000       2.170203       1.620069       0.356866
       6.890000       2.176388       1.625614       0.355300
       6.900000       2.183295       1.627112       0.353238
       6.910000       2.189825       1.624613       0.350845
       6.920000       2.195077       1.618054       0.348286
       6.930000       2.198425       1.607354       0.345709
       6.940000       2.199520       1.592566       0.343236
       6.950000       2.198206       1.574005       0.340963
       6.960000       2.194404       1.552327       0.338967
       6.970000       2.188009       1.528516       0.337316
       6.980000       2.178879       1.503799       0.336087
       6.990000       2.166917       1.479516       0.335360
       7.000000       2.152212       1.456969       0.335220
       7.010000       2.135193       1.437289       0.335736
       7.020000       2.116694       1.421338       0.336957
       7.030000       2.097919       1.409652       0.338893
       7.040000       2.080284       1.402403       0.341514
       7.050000       2.065201       1.399388       0.344750
       7.060000       2.053879       1.400043       0.348499
       7.070000       2.047199       1.403493       0.352634
       7.080000       2.045683       1.408665       0.357022
       7.090000       2.049558       1.414481       0.361531
       7.100000       2.058852       1.420111       0.366045
       7.110000       2.073491       1.425227       0.370464
       7.120000       2.093352       1.430151       0.374721
       7.130000       2.118271       1.435818       0.378785
       7.140000       2.148004       1.443578       0.382668
       7.150000       2.182182       1.454887       0.386432
       7.160000       2.220265       1.471027       0.390177
       7.170000       2.261517       1.492910       0.394032
       7.180000       2.305005       1.520991       0.398137
       7.190000       2.349614       1.555269       0.402629
       7.200000       2.394044       1.595337       0.407641
       7.210000       2.436796       1.640457       0.413297
       7.220000       2.476175       1.689643       0.419722
       7.230000       2.510361       1.741746       0.427034
       7.240000       2.537608       1.795530       0.435341
       7.250000       2.556510       1.849765       0.444723
       7.260000       2.566279       1.903299       0.455216
       7.270000       2.566910       1.955146       0.466805
       7.280000       2.559165       2.004564       0.479420
       7.290000       2.544384       2.051097       0.492947
       7.300000       2.524167       2.094546       0.507258
       7.310000       2.500044       2.134854       0.522236
       7.320000       2.473254       2.171935       0.537809
       7.330000       2.444686       2.205528       0.553959
       7.340000       2.414968       2.235130       0.570723
       7.350000       2.384587       2.260053       0.588164
       7.360000       2.353976       2.279564       0.606339
       7.370000       2.323542       2.293070       0.625267
       7.380000       2.293677       2.300305       0.644895
       7.390000       2.264784       2.301449       0.665091
       7.400000       2.237310       2.297160       0.685648
       7.410000       2.211748       2.288494       0.706316
       7.420000       2.188609       2.276751       0.726838
       7.430000       2.168352       2.263296       0.746982
       7.440000       2.151293       2.249359       0.766571
       7.450000       2.137510       2.235844       0.785488
       7.460000       2.126779       2.223158       0.803685
       7.470000       2.118541       2.211095       0.821187
       7.480000       2.111938       2.198822       0.838088
       7.490000       2.105881       2.184975       0.854543
       7.500000       2.099145       2.167862       0.870754
       7.510000       2.090472       2.145720       0.886935
       7.520000       2.078690       2.116997       0.903263
       7.530000       2.062826       2.080622       0.919835
       7.540000       2.042225       2.036220       0.936651
       7.550000       2.016625       1.984243       0.953629
       7.560000       1.986205       1.925968       0.970652
       7.570000       1.951577       1.863360       0.987619
       7.580000       1.913725       1.798830       1.004476
       7.590000       1.873895       1.734943       1.021228
       7.600000       1.833438       1.674147       1.037931
       7.610000       1.793654       1.618557       1.054658
       7.620000       1.755670       1.569812       1.071476
       7.630000       1.720379       1.528999       1.088398
       7.640000       1.688425       1.496635       1.105361
       7.650000       1.660217       1.472677       1.122194
       7.660000       1.635938       1.456552       1.138606
       7.670000       1.615540       1.447201       1.154183
       7.680000       1.598732       1.443154       1.168407
       7.690000       1.584994       1.442648       1.180698
       7.700000       1.573640       1.443800       1.190479
       7.710000       1.563925       1.444819       1.197264
       7.720000       1.555146       1.444221       1.200733
       7.730000       1.546697       1.440982       1.200786
       7.740000       1.538041       1.434588       1.197540
       7.750000       1.528644       1.424979       1.191301
       7.760000       1.517910       1.412439       1.182491
       7.770000       1.505198       1.397493       1.171607
       7.780000       1.489929       1.380828       1.159180
       7.790000       1.471744       1.363245       1.145777
       7.800000       1.450627       1.345572       1.132003
       7.810000       1.426935       1.328547       1.118489
       7.820000       1.401279       1.312673       1.105863
       7.830000       1.374330       1.298109       1.094685
       7.840000       1.346627       1.284651       1.085381
       7.850000       1.318482       1.271816       1.078174
       7.860000       1.290019       1.259012       1.073061
       7.870000       1.261332       1.245748       1.069835
       7.880000       1.232653       1.231812       1.068170
       7.890000       1.204478       1.217355       1.067737
       7.900000       1.177553       1.202884       1.068335
       7.910000       1.152766       1.189153       1.069977
       7.920000       1.130983       1.177028       1.072912
       7.930000       1.112894       1.167354       1.077570
       7.940000       1.098911       1.160822       1.084460
       7.950000       1.089111       1.157868       1.094060
       7.960000       1.083229       1.158583       1.106733
       7.970000       1.080675       1.162670       1.122671
       7.980000       1.080608       1.169455       1.141893
       7.990000       1.082046       1.177964       1.164275
       8.000000       1.084029       1.187063       1.189588
       8.010000       1.085785       1.195608       1.217547
       8.020000       1.086853       1.202591       1.247834
       8.030000       1.087117       1.207224       1.280113
       8.040000       1.086738       1.208994       1.314022
       8.050000       1.086019       1.207665       1.349170
       8.060000       1.085259       1.203268       1.385132
       8.070000       1.084632       1.196058       1.421441
       8.080000       1.084141       1.186454       1.457598
       8.090000       1.083620       1.174949       1.493096
       8.100000       1.082800       1.162044       1.527460
       8.110000       1.081401       1.148194       1.560289
       8.120000       1.079215       1.133798       1.591282
       8.130000       1.076137       1.119187       1.620223
       8.140000       1.072148       1.104593       1.646929
       8.150000       1.067237       1.090120       1.671191
       8.160000       1.061343       1.075713       1.692717
       8.170000       1.054339       1.061184       1.711126
       8.180000       1.046091       1.046289       1.726000
       8.190000       1.036535       1.030818       1.736981
       8.200000       1.025762       1.014677       1.743870
       8.210000       1.014047       0.997917       1.746679
       8.220000       1.001834       0.980711       1.745599
       8.230000       0.989691       0.963313       1.740905
       8.240000       0.978242       0.946005       1.732840
       8.250000       0.968106       0.929081       1.721541
       8.260000       0.959823       0.912827       1.707044
       8.270000       0.953778       0.897508       1.689386
       8.280000       0.950143       0.883330       1.668736
       8.290000       0.948846       0.870391       1.645520
       8.300000       0.949589       0.858647       1.620461
       8.310000       0.951907       0.847914       1.594528
       8.320000       0.955281       0.837917       1.568830
       8.330000       0.959242       0.828375       1.544486
       8.340000       0.963469       0.819093       1.522516
       8.350000       0.967826       0.810025       1.503776
       8.360000       0.972350       0.801280       1.488935
       8.370000       0.977174       0.793087       1.478479
       8.380000       0.982438       0.785729       1.472728
       8.390000       0.988196       0.779485       1.471857
       8.400000       0.994360       0.774588       1.475917
       8.410000       1.000682       0.771210       1.484867
       8.420000       1.006787       0.769449       1.498632
       8.430000       1.012263       0.769341       1.517177
       8.440000       1.016793       0.770851       1.540577
       8.450000       1.020274       0.773885       1.569066
       8.460000       1.022894       0.778292       1.603043
       8.470000       1.025125       0.783876       1.643034
       8.480000       1.027641       0.790424       1.689617
       8.490000       1.031207       0.797719       1.743348
       8.500000       1.036567       0.805559       1.804701
       8.510000       1.044367       0.813739       1.874043
       8.520000       1.055107       0.822032       1.951646
       8.530000       1.069140       0.830178       2.037716
       8.540000       1.086693       0.837894       2.132405
       8.550000       1.107917       0.844921       2.235793
       8.560000       1.132925       0.851077       2.347829
       8.570000       1.161807       0.856283       2.468233
       8.580000       1.194597       0.860552       2.596366
       8.590000       1.231205       0.863931       2.731098
       8.600000       1.271330       0.866418       2.870696
       8.610000       1.314413       0.867911       3.012755
       8.620000       1.359653       0.868199       3.154228
       8.630000       1.406119       0.867027       3.291569
       8.640000       1.452919       0.864189       3.421014
       8.650000       1.499386       0.859626       3.538936
       8.660000       1.545192       0.853465       3.642232
       8.670000       1.590346       0.846004       3.728612
       8.680000       1.635081       0.837636       3.796751
       8.690000       1.679650       0.828765       3.846271
       8.700000       1.724114       0.819732       3.877614
       8.710000       1.768180       0.810795       3.891864
       8.720000       1.811144       0.802142       3.890610
       8.730000       1.851974       0.793927       3.875847
       8.740000       1.889514       0.786302       3.849899
       8.750000       1.922726       0.779426       3.815297
       8.760000       1.950870       0.773471       3.774586
       8.770000       1.973564       0.768613       3.730100
       8.780000       1.990736       0.765029       3.683746
       8.790000       2.002524       0.762890       3.636889
       8.800000       2.009202       0.762362       3.590350
       8.810000       2.011114       0.763616       3.544516
       8.820000       2.008622       0.766837       3.499526
       8.830000       2.002061       0.772236       3.455442
       8.840000       1.991715       0.780047       3.412389
       8.850000       1.977875       0.790514       3.370611
       8.860000       1.960969       0.803870       3.330470
       8.870000       1.941722       0.820309       3.292367
       8.880000       1.921259       0.839961       3.256614
       8.890000       1.901059       0.862872       3.223284
       8.900000       1.882764       0.888990       3.192093
       8.910000       1.867887       0.918163       3.162387
       8.920000       1.857561       0.950150       3.133258
       8.930000       1.852393       0.984648       3.103756
       8.940000       1.852492       1.021306       3.073112
       8.950000       1.857611       1.059736       3.040863
       8.960000       1.867352       1.099514       3.006833
       8.970000       1.881298       1.140210       2.971003
       8.980000       1.899028       1.181443       2.933356
       8.990000       1.919961       1.222953       2.893769
       9.000000       1.943140       1.264647       2.852008
       9.010000       1.967062       1.306579       2.807824
       9.020000       1.989702       1.348856       2.761112
       9.030000       2.008777       1.391501       2.712096
       9.040000       2.022195       1.434319       2.661442
       9.050000       2.028532       1.476813       2.610262
       9.060000       2.027348       1.518140       2.559981
       9.070000       2.019230       1.557113       2.512115
       9.080000       2.005555       1.592249       2.468045
       9.090000       1.988066       1.621893       2.428838
       9.100000       1.968411       1.644429       2.395150
       9.110000       1.947770       1.658531       2.367191
       9.120000       1.926691       1.663410       2.344749
       9.130000       1.905151       1.658985       2.327247
       9.140000       1.882818       1.645958       2.313831
       9.150000       1.859383       1.625774       2.303462
       9.160000       1.834843       1.600474       2.294997
       9.170000       1.809638       1.572446       2.287262
       9.180000       1.784615       1.544127       2.279147
       9.190000       1.760852       1.517704       2.269720
       9.200000       1.739411       1.494911       2.258369
       9.210000       1.721106       1.476939       2.244904
       9.220000       1.706352       1.464459       2.229600
       9.230000       1.695126       1.457705       2.213120
       9.240000       1.687047       1.456560       2.196357
       9.250000       1.681525       1.460636       2.180215
       9.260000       1.677927       1.469361       2.165403
       9.270000       1.675694       1.482105       2.152310
       9.280000       1.674370       1.498326       2.140983
       9.290000       1.673541       1.517712       2.131209
       9.300000       1.672746       1.540228       2.122649
       9.310000       1.671429       1.566045       2.114959
       9.320000       1.668981       1.595387       2.107847
       9.330000       1.664846       1.628358       2.101100
       9.340000       1.658636       1.664844       2.094578
       9.350000       1.650224       1.704517       2.088223
       9.360000       1.639802       1.746900       2.082062
       9.370000       1.627936       1.791420       2.076203
       9.380000       1.615578       1.837417       2.070791
       9.390000       1.604016       1.884111       2.065954
       9.400000       1.594718       1.930619       2.061762
       9.410000       1.589116       1.976062       2.058217
       9.420000       1.588364       2.019758       2.055283
       9.430000       1.593133       2.061392       2.052964
       9.440000       1.603458       2.101062       2.051374
       9.450000       1.618677       2.139152       2.050801
       9.460000       1.637469       2.176074       2.051714
       9.470000       1.658022       2.211996       2.054711
       9.480000       1.678286       2.246653       2.060426
       9.490000       1.696281       2.279307       2.069406
       9.500000       1.710346       2.308856       2.082003
       9.510000       1.719283       2.334060       2.098280
       9.520000       1.722360       2.353811       2.117978
       9.530000       1.719215       2.367402       2.140536
       9.540000       1.709711       2.374696       2.165170
       9.550000       1.693787       2.376171       2.190965
       9.560000       1.671393       2.372853       2.216971
       9.570000       1.642541       2.366186       2.242262
       9.580000       1.607479       2.357906       2.265990
       9.590000       1.566891       2.349872       2.287457
       9.600000       1.522009       2.343873       2.306218
       9.610000       1.474539       2.341370       2.322218
       9.620000       1.426431       2.343242       2.335871
       9.630000       1.379574       2.349578       2.348056
       9.640000       1.335520       2.359592       2.359960
       9.650000       1.295327       2.371688       2.372834
       9.660000       1.259534       2.383723       2.387726
       9.670000       1.228257       2.393433       2.405288
       9.680000       1.201360       2.398922       2.425703
       9.690000       1.178632       2.399054       2.448715
       9.700000       1.159922       2.393606       2.473718
       9.710000       1.145180       2.383129       2.499875
       9.720000       1.134412       2.368596       2.526229
       9.730000       1.127567       2.350980       2.551813
       9.740000       1.124439       2.330936       2.575759
       9.750000       1.124598       2.308674       2.597379
       9.760000       1.127399       2.284029       2.616208
       9.770000       1.132058       2.256680       2.631995
       9.780000       1.137758       2.226421       2.644667
       9.790000       1.143773       2.193385       2.654306
       9.800000       1.149553       2.158171       2.661166
       9.810000       1.154766       2.121833       2.665725
       9.820000       1.159301       2.085750       2.668711
       9.830000       1.163230       2.051425       2.671045
       9.840000       1.166749       2.020268       2.673699
       9.850000       1.170096       1.993430       2.677493
       9.860000       1.173453       1.971696       2.682927
       9.870000       1.176862       1.955455       2.690125
       9.880000       1.180180       1.944725       2.698885
       9.890000       1.183104       1.939203       2.708814
       9.900000       1.185243       1.938326       2.719452
       9.910000       1.186227       1.941289       2.730339
       9.920000       1.185786       1.947012       2.741002
       9.930000       1.183831       1.954049       2.750878
       9.940000       1.180501       1.960510       2.759245
       9.950000       1.176216       1.964066       2.765228
       9.960000       1.171677       1.962130       2.767869
       9.970000       1.167809       1.952249       2.766288
       9.980000       1.165624       1.932607       2.759844
       9.990000       1.166034       1.902483       2.748282
      10.000000       1.169677       1.862456       2.731795
      10.010000       1.176771       1.814240       2.711014
      10.020000       1.187036       1.760232       2.686915
      10.030000       1.199676       1.702970       2.660680
      10.040000       1.213441       1.644718       2.633545
      10.050000       1.226767       1.587281       2.606645
      10.060000       1.238009       1.532018       2.580892
      10.070000       1.245714       1.479921       2.556907
      10.080000       1.248884       1.431686       2.535024
      10.090000       1.247135       1.387726       2.515348
      10.100000       1.240705       1.348178       2.497822
      10.110000       1.230311       1.312926       2.482254
      10.120000       1.216917       1.281655       2.468296
      10.130000       1.201500       1.253900       2.455410
      10.140000       1.184882       1.229086       2.442872
      10.150000       1.167653       1.206557       2.429850
      10.160000       1.150160       1.185608       2.415545
      10.170000       1.132543       1.165555       2.399341
      10.180000       1.114796       1.145820       2.380936
      10.190000       1.096874       1.126016       2.360390
      10.200000       1.078794       1.105997       2.338114
      10.210000       1.060729       1.085864       2.314795
      10.220000       1.043005       1.065917       2.291302
      10.230000       1.026034       1.046584       2.268587
      10.240000       1.010171       1.028322       2.247593
      10.250000       0.995591       1.011544       2.229171
      10.260000       0.982214       0.996582       2.214020
      10.270000       0.969711       0.983685       2.202644
      10.280000       0.957585       0.973039       2.195345
      10.290000       0.945289       0.964768       2.192248
      10.300000       0.932358       0.958911       2.193348
      10.310000       0.918504       0.955374       2.198563
      10.320000       0.903648       0.953885       2.207757
      10.330000       0.887907       0.953983       2.220752
      10.340000       0.871536       0.955039       2.237307
      10.350000       0.854853       0.956313       2.257084
      10.360000       0.838173       0.957029       2.279626
      10.370000       0.821760       0.956490       2.304343
      10.380000       0.805802       0.954187       2.330544
      10.390000       0.790416       0.949900       2.357504
      10.400000       0.775660       0.943734       2.384559
      10.410000       0.761568       0.936075       2.411185
      10.420000       0.748175       0.927482       2.437024
      10.430000       0.735554       0.918557       2.461849
      10.440000       0.723823       0.909846       2.485476
      10.450000       0.713141       0.901795       2.507696
      10.460000       0.703679       0.894753       2.528258
      10.470000       0.695585       0.888996       2.546940
      10.480000       0.688945       0.884734       2.563680
      10.490000       0.683747       0.882095       2.578700
      10.500000       0.679873       0.881099       2.592565
      10.510000       0.677115       0.881657       2.606131
      10.520000       0.675214       0.883602       2.620403
      10.530000       0.673919       0.886748       2.636363
      10.540000       0.673036       0.890952       2.654836
      10.550000       0.672456       0.896131       2.676443
      10.560000       0.672159       0.902239       2.701619
      10.570000       0.672179       0.909196       2.730679
      10.580000       0.672558       0.916792       2.763847
      10.590000       0.673311       0.924611       2.801200
      10.600000       0.674415       0.931996       2.842533
      10.610000       0.675845       0.938097       2.887197
      10.620000       0.677615       0.941997       2.933987
      10.630000       0.679837       0.942894       2.981156
      10.640000       0.682743       0.940299       3.026583
      10.650000       0.686685       0.934169       3.068053
      10.660000       0.692098       0.924952       3.103587
      10.670000       0.699432       0.913512       3.131701
      10.680000       0.709079       0.900965       3.151542
      10.690000       0.721277       0.888470       3.162865
      10.700000       0.736025       0.877046       3.165886
      10.710000       0.753012       0.867447       3.161073
      10.720000       0.771574       0.860126       3.148946
      10.730000       0.790701       0.855274       3.129933
      10.740000       0.809113       0.852910       3.104313
      10.750000       0.825403       0.852981       3.072246
      10.760000       0.838222       0.855427       3.033877
      10.770000       0.846463       0.860198       2.989465
      10.780000       0.849397       0.867225       2.939500
      10.790000       0.846724       0.876377       2.884770
      10.800000       0.838549       0.887436       2.826362
      10.810000       0.825315       0.900108       2.765597
      10.820000       0.807710       0.914043       2.703930
      10.830000       0.786596       0.928878       2.642853
      10.840000       0.762930       0.944261       2.583821
      10.850000       0.737701       0.959867       2.528196
      10.860000       0.711862       0.975422       2.477197
      10.870000       0.686271       0.990714       2.431829
      10.880000       0.661633       1.005608       2.392793
      10.890000       0.638477       1.020042       2.360404
      10.900000       0.617144       1.034024       2.334537
      10.910000       0.597811       1.047624       2.314626
      10.920000       0.580537       1.060992       2.299739
      10.930000       0.565307       1.074383       2.288697
      10.940000       0.552072       1.088159       2.280230
      10.950000       0.540776       1.102754       2.273151
      10.960000       0.531356       1.118610       2.266525
      10.970000       0.523748       1.136077       2.259801
      10.980000       0.517878       1.155343       2.252867
      10.990000       0.513670       1.176391       2.245992
      11.000000       0.511033       1.199009       2.239670
      11.010000       0.509859       1.222856       2.234407
      11.020000       0.510008       1.247546       2.230516
      11.030000       0.511302       1.272723       2.227988
      11.040000       0.513521       1.298111       2.226455
      11.050000       0.516401       1.323497       2.225237
      11.060000       0.519649       1.348670       2.223445
      11.070000       0.522958       1.373334       2.220090
      11.080000       0.526038       1.397038       2.214214
      11.090000       0.528656       1.419176       2.205012
      11.100000       0.530655       1.439068       2.191948
      11.110000       0.531970       1.456113       2.174834
      11.120000       0.532606       1.469947       2.153843
      11.130000       0.532615       1.480542       2.129451
      11.140000       0.532078       1.488194       2.102329
      11.150000       0.531096       1.493426       2.073229
      11.160000       0.529813       1.496834       2.042869
      11.170000       0.528427       1.498967       2.011842
      11.180000       0.527190       1.500245       1.980557
      11.190000       0.526381       1.500943       1.949197
      11.200000       0.526255       1.501228       1.917737
      11.210000       0.526992       1.501218       1.885988
      11.220000       0.528651       1.501064       1.853686
      11.230000       0.531143       1.501030       1.820581
      11.240000       0.534235       1.501520       1.786511
      11.250000       0.537591       1.503047       1.751452
      11.260000       0.540842       1.506137       1.715539
      11.270000       0.543684       1.511223       1.679052
      11.280000       0.545958       1.518557       1.642377
      11.290000       0.547700       1.528190       1.605952
      11.300000       0.549130       1.540001       1.570212
      11.310000       0.550586       1.553754       1.535571
      11.320000       0.552437       1.569135       1.502422
      11.330000       0.554991       1.585757       1.471146
      11.340000       0.558443       1.603144       1.442101
      11.350000       0.562854       1.620725       1.415588
      11.360000       0.568188       1.637863       1.391787
      11.370000       0.574366       1.653916       1.370686
      11.380000       0.581338       1.668338       1.352034
      11.390000       0.589127       1.680773       1.335334
      11.400000       0.597852       1.691102       1.319886
      11.410000       0.607699       1.699409       1.304874
      11.420000       0.618885       1.705865       1.289481
      11.430000       0.631587       1.710580       1.272999
      11.440000       0.645891       1.713479       1.254925
      11.450000       0.661732       1.714273       1.235013
      11.460000       0.678856       1.712514       1.213272
      11.470000       0.696807       1.707709       1.189897
      11.480000       0.714933       1.699458       1.165189
      11.490000       0.732438       1.687545       1.139470
      11.500000       0.748480       1.672012       1.113047
      11.510000       0.762312       1.653184       1.086217
      11.520000       0.773454       1.631681       1.059282
      11.530000       0.781810       1.608391       1.032578
      11.540000       0.787693       1.584376       1.006467
      11.550000       0.791709       1.560727       0.981332
      11.560000       0.794566       1.538402       0.957541
      11.570000       0.796863       1.518090       0.935428
      11.580000       0.798953       1.500151       0.915258
      11.590000       0.800914       1.484640       0.897213
      11.600000       0.802608       1.471388       0.881366
      11.610000       0.803814       1.460102       0.867675
      11.620000       0.804345       1.450447       0.855976
      11.630000       0.804129       1.442104       0.845996
      11.640000       0.803222       1.434783       0.837371
      11.650000       0.801762       1.428237       0.829687
      11.660000       0.799908       1.422257       0.822526
      11.670000       0.797800       1.416672       0.815499
      11.680000       0.795549       1.411323       0.808278
      11.690000       0.793273       1.406038       0.800600
      11.700000       0.791133       1.400619       0.792281
      11.710000       0.789361       1.394866       0.783219
      11.720000       0.788232       1.388637       0.773406
      11.730000       0.788014       1.381896       0.762935
      11.740000       0.788883       1.374715       0.751997
      11.750000       0.790866       1.367217       0.740869
      11.760000       0.793802       1.359471       0.729878
      11.770000       0.797361       1.351392       0.719364
      11.780000       0.801086       1.342684       0.709622
      11.790000       0.804469       1.332891       0.700878
      11.800000       0.807038       1.321550       0.693255
      11.810000       0.808437       1.308401       0.686766
      11.820000       0.808467       1.293571       0.681307
      11.830000       0.807077       1.277639       0.676655
      11.840000       0.804310       1.261565       0.672487
      11.850000       0.800238       1.246505       0.668411
      11.860000       0.794919       1.233583       0.664031
      11.870000       0.788407       1.223691       0.659019
      11.880000       0.780796       1.217357       0.653179
      11.890000       0.772269       1.214686       0.646480
      11.900000       0.763126       1.215378       0.639054
      11.910000       0.753767       1.218783       0.631148
      11.920000       0.744627       1.223980       0.623070
      11.930000       0.736121       1.229863       0.615117
      11.940000       0.728582       1.235237       0.607544
      11.950000       0.722239       1.238943       0.600530
      11.960000       0.717211       1.240003       0.594188
      11.970000       0.713529       1.237775       0.588567
      11.980000       0.711161       1.232064       0.583665
      11.990000       0.710034       1.223131       0.579435
      12.000000       0.710048       1.211599       0.575800
      12.010000       0.711071       1.198287       0.572672
      12.020000       0.712933       1.184037       0.569976
      12.030000       0.715415       1.169574       0.567666
      12.040000       0.718253       1.155421       0.565734
      12.050000       0.721143       1.141866       0.564205
      12.060000       0.723760       1.128993       0.563125
      12.070000       0.725781       1.116747       0.562549
      12.080000       0.726932       1.105040       0.562528
      12.090000       0.727019       1.093842       0.563098
      12.100000       0.725945       1.083254       0.564281
      12.110000       0.723703       1.073518       0.566082
      12.120000       0.720353       1.064986       0.568484
      12.130000       0.715999       1.058059       0.571436
      12.140000       0.710786       1.053116       0.574829
      12.150000       0.704893       1.050431       0.578476
      12.160000       0.698533       1.050102       0.582102
      12.170000       0.691950       1.051982       0.585364
      12.180000       0.685412       1.055666       0.587898
      12.190000       0.679203       1.060508       0.589383
      12.200000       0.673620       1.065715       0.589608
      12.210000       0.668951       1.070459       0.588513
      12.220000       0.665454       1.074014       0.586184
      12.230000       0.663331       1.075863       0.582824
      12.240000       0.662705       1.075779       0.578680
      12.250000       0.663609       1.073846       0.573987
      12.260000       0.665963       1.070441       0.568914
      12.270000       0.669563       1.066160       0.563550
      12.280000       0.674063       1.061720       0.557914
      12.290000       0.678992       1.057850       0.551976
      12.300000       0.683786       1.055190       0.545695
      12.310000       0.687862       1.054203       0.539052
      12.320000       0.690708       1.055120       0.532071
      12.330000       0.691955       1.057921       0.524820
      12.340000       0.691428       1.062344       0.517409
      12.350000       0.689132       1.067940       0.509964
      12.360000       0.685205       1.074133       0.502598
      12.370000       0.679870       1.080285       0.495385
      12.380000       0.673391       1.085726       0.488343
      12.390000       0.666055       1.089768       0.481433
      12.400000       0.658139       1.091721       0.474571
      12.410000       0.649882       1.090929       0.467658
      12.420000       0.641449       1.086837       0.460608
      12.430000       0.632911       1.079081       0.453380
      12.440000       0.624272       1.067552       0.446000
      12.450000       0.615519       1.052424       0.438563
      12.460000       0.606675       1.034123       0.431224
      12.470000       0.597836       1.013270       0.424164
      12.480000       0.589147       0.990607       0.417563
      12.490000       0.580746       0.966915       0.411569
      12.500000       0.572684       0.942940       0.406276
      12.510000       0.564882       0.919320       0.401715
      12.520000       0.557130       0.896537       0.397854
      12.530000       0.549147       0.874877       0.394597
      12.540000       0.540682       0.854442       0.391798
      12.550000       0.531604       0.835188       0.389271
      12.560000       0.521957       0.816998       0.386819
      12.570000       0.511960       0.799756       0.384261
      12.580000       0.501957       0.783403       0.381456
      12.590000       0.492340       0.767957       0.378320
      12.600000       0.483479       0.753492       0.374826
      12.610000       0.475665       0.740096       0.370997
      12.620000       0.469088       0.727830       0.366886
      12.630000       0.463837       0.716700       0.362561
      12.640000       0.459926       0.706662       0.358088
      12.650000       0.457327       0.697645       0.353517
      12.660000       0.455994       0.689577       0.348880
      12.670000       0.455873       0.682426       0.344195
      12.680000       0.456899       0.676225       0.339479
      12.690000       0.458995       0.671084       0.334754
      12.700000       0.462066       0.667183       0.330060
      12.710000       0.466000       0.664735       0.325442
      12.720000       0.470672       0.663941       0.320946
      12.730000       0.475943       0.664945       0.316611
      12.740000       0.481656       0.667807       0.312466
      12.750000       0.487642       0.672479       0.308532
      12.760000       0.493734       0.678807       0.304832
      12.770000       0.499784       0.686547       0.301392
      12.780000       0.505675       0.695393       0.298241
      12.790000       0.511329       0.705030       0.295409
      12.800000       0.516690       0.715187       0.292922
      12.810000       0.521719       0.725675       0.290804
      12.820000       0.526380       0.736401       0.289075
      12.830000       0.530626       0.747329       0.287754
      12.840000       0.534385       0.758410       0.286855
      12.850000       0.537565       0.769495       0.286384
      12.860000       0.540051       0.780284       0.286332
      12.870000       0.541718       0.790305       0.286674
      12.880000       0.542446       0.798945       0.287368
      12.890000       0.542127       0.805499       0.288349
      12.900000       0.540671       0.809244       0.289536
      12.910000       0.538009       0.809524       0.290829
      12.920000       0.534091       0.805856       0.292121
      12.930000       0.528891       0.798049       0.293297
      12.940000       0.522410       0.786285       0.294241
      12.950000       0.514684       0.771128       0.294844
      12.960000       0.505801       0.753442       0.295005
      12.970000       0.495914       0.734250       0.294644
      12.980000       0.485250       0.714573       0.293723
      12.990000       0.474102       0.695308       0.292258
      13.000000       0.462806       0.677148       0.290320
      13.010000       0.451703       0.660563       0.288022
      13.020000       0.441104       0.645824       0.285490
      13.030000       0.431258       0.633032       0.282833
      13.040000       0.422337       0.622157       0.280123
      13.050000       0.414433       0.613052       0.277389
      13.060000       0.407558       0.605470       0.274627
      13.070000       0.401662       0.599073       0.271817
      13.080000       0.396652       0.593464       0.268944
      13.090000       0.392420       0.588228       0.266010
      13.100000       0.388850       0.582994       0.263037
      13.110000       0.385829       0.577491       0.260071
      13.120000       0.383237       0.571589       0.257165
      13.130000       0.380947       0.565317       0.254374
      13.140000       0.378834       0.558841       0.251747
      13.150000       0.376789       0.552422       0.249322
      13.160000       0.374740       0.546354       0.247117
      13.170000       0.372678       0.540893       0.245135
      13.180000       0.370658       0.536204       0.243361
      13.190000       0.368793       0.532314       0.241769
      13.200000       0.367235       0.529100       0.240326
      13.210000       0.366142       0.526313       0.239006
      13.220000       0.365636       0.523642       0.237789
      13.230000       0.365782       0.520800       0.236666
      13.240000       0.366582       0.517606       0.235638
      13.250000       0.367979       0.514024       0.234711
      13.260000       0.369874       0.510165       0.233894
      13.270000       0.372151       0.506243       0.233189
      13.280000       0.374690       0.502513       0.232587
      13.290000       0.377388       0.499208       0.232070
      13.300000       0.380179       0.496500       0.231614
      13.310000       0.383047       0.494476       0.231199
      13.320000       0.386023       0.493148       0.230810
      13.330000       0.389174       0.492470       0.230445
      13.340000       0.392562       0.492373       0.230103
      13.350000       0.396207       0.492775       0.229787
      13.360000       0.400050       0.493582       0.229490
      13.370000       0.403935       0.494685       0.229193
      13.380000       0.407621       0.495957       0.228861
      13.390000       0.410822       0.497262       0.228445
      13.400000       0.413262       0.498468       0.227889
      13.410000       0.414742       0.499460       0.227136
      13.420000       0.415184       0.500122       0.226144
      13.430000       0.414654       0.500303       0.224890
      13.440000       0.413333       0.499787       0.223376
      13.450000       0.411479       0.498287       0.221632
      13.460000       0.409381       0.495487       0.219711
      13.470000       0.407321       0.491121       0.217685
      13.480000       0.405554       0.485065       0.215637
      13.490000       0.404292       0.477403       0.213652
      13.500000       0.403680       0.468440       0.211808
      13.510000       0.403777       0.458657       0.210169
      13.520000       0.404539       0.448627       0.208789
      13.530000       0.405817       0.438918       0.207712
      13.540000       0.407376       0.430003       0.206977
      13.550000       0.408926       0.422200       0.206616
      13.560000       0.410174       0.415645       0.206654
      13.570000       0.410863       0.410296       0.207097
      13.580000       0.410811       0.405958       0.207931
      13.590000       0.409903       0.402334       0.209122
      13.600000       0.408076       0.399083       0.210615
      13.610000       0.405294       0.395886       0.212349
      13.620000       0.401532       0.392488       0.214262
      13.630000       0.396789       0.388721       0.216306
      13.640000       0.391112       0.384510       0.218452
      13.650000       0.384620       0.379857       0.220692
      13.660000       0.377515       0.374838       0.223034
      13.670000       0.370066       0.369596       0.225493
      13.680000       0.362569       0.364340       0.228092
      13.690000       0.355289       0.359322       0.230849
      13.700000       0.348417       0.354808       0.233785
      13.710000       0.342048       0.351029       0.236923
      13.720000       0.336172       0.348146       0.240295
      13.730000       0.330706       0.346224       0.243941
      13.740000       0.325525       0.345230       0.247908
      13.750000       0.320510       0.345052       0.252245
      13.760000       0.315576       0.345521       0.257008
      13.770000       0.310692       0.346450       0.262250
      13.780000       0.305873       0.347667       0.268028
      13.790000       0.301169       0.349041       0.274395
      13.800000       0.296642       0.350497       0.281395
      13.810000       0.292348       0.352013       0.289063
      13.820000       0.288329       0.353615       0.297404
      13.830000       0.284609       0.355358       0.306387
      13.840000       0.281188       0.357310       0.315933
      13.850000       0.278045       0.359542       0.325904
      13.860000       0.275139       0.362122       0.336108
      13.870000       0.272426       0.365107       0.346312
      13.880000       0.269871       0.368530       0.356258
      13.890000       0.267466       0.372385       0.365698
      13.900000       0.265243       0.376612       0.374415
      13.910000       0.263274       0.381085       0.382249
      13.920000       0.261656       0.385620       0.389095
      13.930000       0.260497       0.389999       0.394897
      13.940000       0.259893       0.394005       0.399626
      13.950000       0.259914       0.397462       0.403266
      13.960000       0.260591       0.400253       0.405816
      13.970000       0.261923       0.402329       0.407308
      13.980000       0.263876       0.403675       0.407833
      13.990000       0.266405       0.404287       0.407561
      14.000000       0.269458       0.404141       0.406733
      14.010000       0.272990       0.403202       0.405637
      14.020000       0.276978       0.401442       0.404568
      14.030000       0.281418       0.398873       0.403777
      14.040000       0.286329       0.395573       0.403443
      14.050000       0.291736       0.391693       0.403654
      14.060000       0.297658       0.387437       0.404414
      14.070000       0.304083       0.383021       0.405656
      14.080000       0.310954       0.378624       0.407272
      14.090000       0.318173       0.374346       0.409134
      14.100000       0.325600       0.370203       0.411117
      14.110000       0.333071       0.366139       0.413107
      14.120000       0.340418       0.362076       0.414995
      14.130000       0.347490       0.357957       0.416667
      14.140000       0.354174       0.353777       0.417984
      14.150000       0.360409       0.349603       0.418781
      14.160000       0.366187       0.345553       0.418890
      14.170000       0.371538       0.341777       0.418172
      14.180000       0.376509       0.338425       0.416557
      14.190000       0.381135       0.335631       0.414066
      14.200000       0.385429       0.333499       0.410818
      14.210000       0.389372       0.332101       0.407006
      14.220000       0.392927       0.331476       0.402860
      14.230000       0.396053       0.331634       0.398609
      14.240000       0.398713       0.332554       0.394440
      14.250000       0.400876       0.334182       0.390473
      14.260000       0.402508       0.336433       0.386751
      14.270000       0.403558       0.339182       0.383250
      14.280000       0.403955       0.342274       0.379896
      14.290000       0.403628       0.345533       0.376592
      14.300000       0.402525       0.348786       0.373237
      14.310000       0.400648       0.351906       0.369728
      14.320000       0.398063       0.354834       0.365968
      14.330000       0.394898       0.357597       0.361866
      14.340000       0.391322       0.360290       0.357340
      14.350000       0.387509       0.363048       0.352328
      14.360000       0.383615       0.366008       0.346802
      14.370000       0.379769       0.369282       0.340772
      14.380000       0.376067       0.372945       0.334289
      14.390000       0.372591       0.377030       0.327442
      14.400000       0.369405       0.381522       0.320343
      14.410000       0.366554       0.386362       0.313121
      14.420000       0.364054       0.391446       0.305914
      14.430000       0.361882       0.396643       0.298855
      14.440000       0.359980       0.401813       0.292070
      14.450000       0.358267       0.406827       0.285662
      14.460000       0.356653       0.411589       0.279710
      14.470000       0.355049       0.416041       0.274265
      14.480000       0.353376       0.420168       0.269353
      14.490000       0.351575       0.423999       0.264988
      14.500000       0.349620       0.427593       0.261175
      14.510000       0.347533       0.431028       0.257919
      14.520000       0.345393       0.434393       0.255223
      14.530000       0.343334       0.437777       0.253085
      14.540000       0.341515       0.441272       0.251491
      14.550000       0.340086       0.444975       0.250415
      14.560000       0.339147       0.448983       0.249821
      14.570000       0.338719       0.453372       0.249672
      14.580000       0.338728       0.458166       0.249940
      14.590000       0.339011       0.463314       0.250611
      14.600000       0.339338       0.468670       0.251686
      14.610000       0.339446       0.474013       0.253174
      14.620000       0.339087       0.479087       0.255090
      14.630000       0.338074       0.483653       0.257445
      14.640000       0.336326       0.487553       0.260256
      14.650000       0.333880       0.490731       0.263543
      14.660000       0.330882       0.493239       0.267334
      14.670000       0.327545       0.495201       0.271659
      14.680000       0.324091       0.496770       0.276543
      14.690000       0.320708       0.498077       0.281995
      14.700000       0.317514       0.499220       0.287998
      14.710000       0.314557       0.500266       0.294495
      14.720000       0.311816       0.501281       0.301389
      14.730000       0.309223       0.502362       0.308543
      14.740000       0.306681       0.503648       0.315789
      14.750000       0.304080       0.505294       0.322950
      14.760000       0.301319       0.507442       0.329864
      14.770000       0.298330       0.510177       0.336407
      14.780000       0.295097       0.513497       0.342505
      14.790000       0.291668       0.517306       0.348143
      14.800000       0.288147       0.521434       0.353358
      14.810000       0.284676       0.525663       0.358237
      14.820000       0.281393       0.529763       0.362905
      14.830000       0.278408       0.533526       0.367505
      14.840000       0.275772       0.536790       0.372173
      14.850000       0.273476       0.539447       0.377006
      14.860000       0.271459       0.541436       0.382040
      14.870000       0.269640       0.542734       0.387241
      14.880000       0.267944       0.543332       0.392517
      14.890000       0.266333       0.543233       0.397741
      14.900000       0.264820       0.542467       0.402781
      14.910000       0.263462       0.541113       0.407527
      14.920000       0.262354       0.539318       0.411899
      14.930000       0.261597       0.537300       0.415851
      14.940000       0.261273       0.535320       0.419362
      14.950000       0.261426       0.533647       0.422426
      14.960000       0.262054       0.532519       0.425049
      14.970000       0.263117       0.532112       0.427256
      14.980000       0.264559       0.532525       0.429106
      14.990000       0.266332       0.533763       0.430713
      15.000000       0.268410       0.535722       0.432252
      15.010000       0.270793       0.538194       0.433958
      15.020000       0.273488       0.540885       0.436103
      15.030000       0.276492       0.543465       0.438970
      15.040000       0.279772       0.545628       0.442823
      15.050000       0.283256       0.547159       0.447897
      15.060000       0.286834       0.547958       0.454383
      15.070000       0.290370       0.548044       0.462419
      15.080000       0.293729       0.547516       0.472083
      15.090000       0.296798       0.546502       0.483380
      15.100000       0.299507       0.545115       0.496236
      15.110000       0.301846       0.543433       0.510487
      15.120000       0.303859       0.541488       0.525884
      15.130000       0.305621       0.539290       0.542094
      15.140000       0.307218       0.536839       0.558721
      15.150000       0.308718       0.534141       0.575313
      15.160000       0.310164       0.531204       0.591386
      15.170000       0.311568       0.528038       0.606436
      15.180000       0.312930       0.524645       0.619972
      15.190000       0.314247       0.521026       0.631558
      15.200000       0.315531       0.517200       0.640863
      15.210000       0.316811       0.513222       0.647710
      15.220000       0.318125       0.509183       0.652087
      15.230000       0.319504       0.505186       0.654139
      15.240000       0.320952       0.501316       0.654118
      15.250000       0.322432       0.497599       0.652324
      15.260000       0.323860       0.493992       0.649046
      15.270000       0.325102       0.490391       0.644529
      15.280000       0.325986       0.486675       0.638950
      15.290000       0.326324       0.482734       0.632422
      15.300000       0.325944       0.478503       0.625010
      15.310000       0.324720       0.473958       0.616764
      15.320000       0.322608       0.469090       0.607747
      15.330000       0.319654       0.463888       0.598065
      15.340000       0.315986       0.458324       0.587874
      15.350000       0.311790       0.452367       0.577363
      15.360000       0.307281       0.446011       0.566734
      15.370000       0.302666       0.439304       0.556165
      15.380000       0.298120       0.432363       0.545790
      15.390000       0.293768       0.425366       0.535702
      15.400000       0.289680       0.418534       0.525960
      15.410000       0.285878       0.412101       0.516608
      15.420000       0.282345       0.406278       0.507689
      15.430000       0.279044       0.401229       0.499241
      15.440000       0.275929       0.397059       0.491291
      15.450000       0.272958       0.393812       0.483846
      15.460000       0.270100       0.391481       0.476889
      15.470000       0.267352       0.390017       0.470380
      15.480000       0.264754       0.389338       0.464275
      15.490000       0.262385       0.389338       0.458535
      15.500000       0.260363       0.389888       0.453134
      15.510000       0.258814       0.390836       0.448052
      15.520000       0.257842       0.392007       0.443260
      15.530000       0.257496       0.393196       0.438696
      15.540000       0.257744       0.394174       0.434248
      15.550000       0.258465       0.394704       0.429751
      15.560000       0.259462       0.394578       0.424985
      15.570000       0.260497       0.393648       0.419706
      15.580000       0.261338       0.391855       0.413682
      15.590000       0.261797       0.389237       0.406738
      15.600000       0.261761       0.385909       0.398800
      15.610000       0.261196       0.382032       0.389903
      15.620000       0.260122       0.377777       0.380182
      15.630000       0.258597       0.373293       0.369823
      15.640000       0.256693       0.368696       0.359018
      15.650000       0.254489       0.364071       0.347932
      15.660000       0.252068       0.359481       0.336690
      15.670000       0.249513       0.354970       0.325394
      15.680000       0.246904       0.350571       0.314140
      15.690000       0.244298       0.346304       0.303041
      15.700000       0.241716       0.342181       0.292226
      15.710000       0.239126       0.338213       0.281838
      15.720000       0.236460       0.334415       0.272012
      15.730000       0.233624       0.330807       0.262862
      15.740000       0.230539       0.327414       0.254462
      15.750000       0.227172       0.324262       0.246842
      15.760000       0.223553       0.321379       0.239986
      15.770000       0.219775       0.318791       0.233840
      15.780000       0.215986       0.316518       0.228318
      15.790000       0.212353       0.314568       0.223323
      15.800000       0.209040       0.312932       0.218764
      15.810000       0.206181       0.311594       0.214573
      15.820000       0.203866       0.310527       0.210712
      15.830000       0.202139       0.309708       0.207174
      15.840000       0.201004       0.309107       0.203968
      15.850000       0.200433       0.308694       0.201106
      15.860000       0.200386       0.308431       0.198590
      15.870000       0.200818       0.308274       0.196400
      15.880000       0.201693       0.308178       0.194501
      15.890000       0.202977       0.308100       0.192845
      15.900000       0.204641       0.307997       0.191383
      15.910000       0.206651       0.307819       0.190068
      15.920000       0.208973       0.307502       0.188864
      15.930000       0.211569       0.306963       0.187747
      15.940000       0.214404       0.306107       0.186704
      15.950000       0.217445       0.304856       0.185738
      15.960000       0.220667       0.303177       0.184858
      15.970000       0.224046       0.301095       0.184070
      15.980000       0.227554       0.298693       0.183374
      15.990000       0.231150       0.296086       0.182757
      16.000000       0.234779       0.293390       0.182195
      16.010000       0.238367       0.290697       0.181657
      16.020000       0.241832       0.288071       0.181108
      16.030000       0.245093       0.285553       0.180509
      16.040000       0.248086       0.283173       0.179821
      16.050000       0.250773       0.280964       0.179003
      16.060000       0.253147       0.278959       0.178018
      16.070000       0.255227       0.277178       0.176838
      16.080000       0.257052       0.275622       0.175453
      16.090000       0.258659       0.274273       0.173873
      16.100000       0.260076       0.273098       0.172131
      16.110000       0.261299       0.272068       0.170280
      16.120000       0.262290       0.271164       0.168386
      16.130000       0.262975       0.270373       0.166524
      16.140000       0.263263       0.269692       0.164769
      16.150000       0.263075       0.269114       0.163182
      16.160000       0.262372       0.268624       0.161812
      16.170000       0.261182       0.268201       0.160686
      16.180000       0.259595       0.267816       0.159816
      16.190000       0.257753       0.267434       0.159196
      16.200000       0.255808       0.267016       0.158804
      16.210000       0.253879       0.266525       0.158611
      16.220000       0.252027       0.265918       0.158579
      16.230000       0.250245       0.265158       0.158669
      16.240000       0.248472       0.264213       0.158838
      16.250000       0.246629       0.263060       0.159040
      16.260000       0.244644       0.261688       0.159228
      16.270000       0.242474       0.260088       0.159353
      16.280000       0.240103       0.258250       0.159375
      16.290000       0.237540       0.256153       0.159268
      16.300000       0.234812       0.253778       0.159031
      16.310000       0.231963       0.251111       0.158685
      16.320000       0.229061       0.248168       0.158273
      16.330000       0.226200       0.244999       0.157853
      16.340000       0.223488       0.241691       0.157491
      16.350000       0.221035       0.238356       0.157251
      16.360000       0.218932       0.235112       0.157190
      16.370000       0.217234       0.232061       0.157355
      16.380000       0.215950       0.229268       0.157783
      16.390000       0.215041       0.226741       0.158499
      16.400000       0.214428       0.224432       0.159522
      16.410000       0.214006       0.222253       0.160857
      16.420000       0.213666       0.220098       0.162496
      16.430000       0.213308       0.217875       0.164409
      16.440000       0.212859       0.215528       0.166542
      16.450000       0.212279       0.213048       0.168820
      16.460000       0.211558       0.210460       0.171150
      16.470000       0.210705       0.207810       0.173437
      16.480000       0.209733       0.205139       0.175589
      16.490000       0.208645       0.202476       0.177531
      16.500000       0.207429       0.199836       0.179211
      16.510000       0.206056       0.197228       0.180601
      16.520000       0.204495       0.194665       0.181696
      16.530000       0.202732       0.192175       0.182515
      16.540000       0.200781       0.189803       0.183089
      16.550000       0.198693       0.187612       0.183463
      16.560000       0.196555       0.185668       0.183681
      16.570000       0.194472       0.184039       0.183775
      16.580000       0.192549       0.182774       0.183761
      16.590000       0.190874       0.181900       0.183624
      16.600000       0.189505       0.181409       0.183326
      16.610000       0.188466       0.181257       0.182811
      16.620000       0.187745       0.181368       0.182022
      16.630000       0.187301       0.181637       0.180917
      16.640000       0.187074       0.181943       0.179481
      16.650000       0.186992       0.182168       0.177726
      16.660000       0.186986       0.182214       0.175690
      16.670000       0.186997       0.182025       0.173430
      16.680000       0.186986       0.181598       0.171015
      16.690000       0.186933       0.180980       0.168522
      16.700000       0.186844       0.180260       0.166037
      16.710000       0.186741       0.179541       0.163643
      16.720000       0.186661       0.178918       0.161414
      16.730000       0.186643       0.178457       0.159409
      16.740000       0.186722       0.178185       0.157659
      16.750000       0.186910       0.178087       0.156173
      16.760000       0.187197       0.178110       0.154940
      16.770000       0.187551       0.178180       0.153934
      16.780000       0.187922       0.178220       0.153124
      16.790000       0.188258       0.178165       0.152475
      16.800000       0.188514       0.177976       0.151949
      16.810000       0.188655       0.177642       0.151503
      16.820000       0.188668       0.177178       0.151091
      16.830000       0.188563       0.176623       0.150662
      16.840000       0.188372       0.176028       0.150166
      16.850000       0.188142       0.175446       0.149561
      16.860000       0.187930       0.174918       0.148818
      16.870000       0.187787       0.174470       0.147916
      16.880000       0.187753       0.174106       0.146845
      16.890000       0.187856       0.173812       0.145595
      16.900000       0.188111       0.173561       0.144160
      16.910000       0.188525       0.173331       0.142534
      16.920000       0.189104       0.173105       0.140721
      16.930000       0.189853       0.172883       0.138741
      16.940000       0.190779       0.172674       0.136632
      16.950000       0.191892       0.172486       0.134452
      16.960000       0.193196       0.172321       0.132271
      16.970000       0.194692       0.172163       0.130159
      16.980000       0.196368       0.171984       0.128173
      16.990000       0.198199       0.171743       0.126350
      17.000000       0.200146       0.171406       0.124698
      17.010000       0.202165       0.170943       0.123202
      17.020000       0.204205       0.170341       0.121827
      17.030000       0.206227       0.169598       0.120530
      17.040000       0.208207       0.168719       0.119261
      17.050000       0.210139       0.167720       0.117979
      17.060000       0.212031       0.166618       0.116646
      17.070000       0.213891       0.165438       0.115240
      17.080000       0.215713       0.164205       0.113748
      17.090000       0.217473       0.162954       0.112175
      17.100000       0.219127       0.161717       0.110536
      17.110000       0.220622       0.160533       0.108859
      17.120000       0.221909       0.159432       0.107175
      17.130000       0.222939       0.158440       0.105512
      17.140000       0.223668       0.157570       0.103895
      17.150000       0.224040       0.156819       0.102344
      17.160000       0.223985       0.156172       0.100875
      17.170000       0.223417       0.155597       0.099503
      17.180000       0.222249       0.155058       0.098245
      17.190000       0.220414       0.154517       0.097120
      17.200000       0.217887       0.153938       0.096149
      17.210000       0.214701       0.153294       0.095356
      17.220000       0.210948       0.152566       0.094758
      17.230000       0.206765       0.151748       0.094373
      17.240000       0.202309       0.150849       0.094211
      17.250000       0.197728       0.149892       0.094274
      17.260000       0.193148       0.148917       0.094557
      17.270000       0.188661       0.147971       0.095045
      17.280000       0.184333       0.147101       0.095714
      17.290000       0.180207       0.146348       0.096526
      17.300000       0.176313       0.145740       0.097440
      17.310000       0.172664       0.145283       0.098410
      17.320000       0.169265       0.144967       0.099389
      17.330000       0.166107       0.144763       0.100336
      17.340000       0.163176       0.144633       0.101212
      17.350000       0.160461       0.144532       0.101987
      17.360000       0.157953       0.144414       0.102636
      17.370000       0.155651       0.144236       0.103142
      17.380000       0.153561       0.143960       0.103499
      17.390000       0.151692       0.143558       0.103713
      17.400000       0.150054       0.143020       0.103799
      17.410000       0.148654       0.142353       0.103780
      17.420000       0.147491       0.141576       0.103677
      17.430000       0.146549       0.140718       0.103504
      17.440000       0.145798       0.139803       0.103267
      17.450000       0.145190       0.138854       0.102956
      17.460000       0.144670       0.137886       0.102558
      17.470000       0.144178       0.136908       0.102057
      17.480000       0.143658       0.135932       0.101442
      17.490000       0.143067       0.134974       0.100711
      17.500000       0.142381       0.134061       0.099872
      17.510000       0.141590       0.133228       0.098939
      17.520000       0.140701       0.132513       0.097932
      17.530000       0.139729       0.131945       0.096873
      17.540000       0.138692       0.131541       0.095781
      17.550000       0.137606       0.131297       0.094672
      17.560000       0.136490       0.131198       0.093560
      17.570000       0.135360       0.131219       0.092455
      17.580000       0.134238       0.131340       0.091371
      17.590000       0.133147       0.131545       0.090321
      17.600000       0.132114       0.131832       0.089324
      17.610000       0.131167       0.132200       0.088402
      17.620000       0.130333       0.132654       0.087579
      17.630000       0.129630       0.133197       0.086877
      17.640000       0.129067       0.133832       0.086313
      17.650000       0.128643       0.134561       0.085895
      17.660000       0.128346       0.135382       0.085625
      17.670000       0.128154       0.136296       0.085498
      17.680000       0.128044       0.137301       0.085500
      17.690000       0.127994       0.138401       0.085616
      17.700000       0.127989       0.139597       0.085822
      17.710000       0.128022       0.140889       0.086092
      17.720000       0.128089       0.142276       0.086390
      17.730000       0.128195       0.143742       0.086681
      17.740000       0.128342       0.145264       0.086928
      17.750000       0.128533       0.146799       0.087101
      17.760000       0.128769       0.148296       0.087184
      17.770000       0.129056       0.149699       0.087177
      17.780000       0.129398       0.150960       0.087095
      17.790000       0.129806       0.152053       0.086971
      17.800000       0.130291       0.152982       0.086844
      17.810000       0.130863       0.153776       0.086756
      17.820000       0.131529       0.154491       0.086744
      17.830000       0.132296       0.155187       0.086836
      17.840000       0.133172       0.155922       0.087046
      17.850000       0.134167       0.156732       0.087376
      17.860000       0.135294       0.157623       0.087816
      17.870000       0.136560       0.158564       0.088347
      17.880000       0.137958       0.159494       0.088943
      17.890000       0.139461       0.160330       0.089581
      17.900000       0.141012       0.160988       0.090240
      17.910000       0.142529       0.161392       0.090909
      17.920000       0.143904       0.161498       0.091587
      17.930000       0.145021       0.161297       0.092282
      17.940000       0.145777       0.160814       0.093008
      17.950000       0.146097       0.160102       0.093776
      17.960000       0.145957       0.159233       0.094594
      17.970000       0.145388       0.158290       0.095465
      17.980000       0.144464       0.157360       0.096381
      17.990000       0.143289       0.156531       0.097334
      18.000000       0.141970       0.155884       0.098310
      18.010000       0.140597       0.155485       0.099301
      18.020000       0.139232       0.155377       0.100303
      18.030000       0.137901       0.155573       0.101323
      18.040000       0.136593       0.156058       0.102374
      18.050000       0.135272       0.156784       0.103478
      18.060000       0.133890       0.157674       0.104666
      18.070000       0.132403       0.158632       0.105968
      18.080000       0.130787       0.159557       0.107419
      18.090000       0.129049       0.160355       0.109047
      18.100000       0.127223       0.160955       0.110874
      18.110000       0.125364       0.161320       0.112908
      18.120000       0.123527       0.161448       0.115144
      18.130000       0.121762       0.161372       0.117565
      18.140000       0.120104       0.161146       0.120144
      18.150000       0.118570       0.160839       0.122851
      18.160000       0.117164       0.160526       0.125655
      18.170000       0.115880       0.160278       0.128535
      18.180000       0.114701       0.160155       0.131482
      18.190000       0.113611       0.160202       0.134502
      18.200000       0.112593       0.160444       0.137614
      18.210000       0.111635       0.160888       0.140844
      18.220000       0.110731       0.161523       0.144212
      18.230000       0.109887       0.162327       0.147724
      18.240000       0.109112       0.163267       0.151369
      18.250000       0.108418       0.164306       0.155122
      18.260000       0.107812       0.165392       0.158956
      18.270000       0.107294       0.166463       0.162850
      18.280000       0.106853       0.167433       0.166793
      18.290000       0.106470       0.168201       0.170780
      18.300000       0.106119       0.168655       0.174804
      18.310000       0.105778       0.168697       0.178835
      18.320000       0.105431       0.168268       0.182819
      18.330000       0.105077       0.167366       0.186677
      18.340000       0.104726       0.166048       0.190314
      18.350000       0.104404       0.164422       0.193645
      18.360000       0.104143       0.162617       0.196609
      18.370000       0.103975       0.160764       0.199178
      18.380000       0.103929       0.158971       0.201357
      18.390000       0.104025       0.157314       0.203180
      18.400000       0.104268       0.155836       0.204707
      18.410000       0.104653       0.154549       0.206007
      18.420000       0.105159       0.153445       0.207161
      18.430000       0.105748       0.152504       0.208244
      18.440000       0.106373       0.151693       0.209324
      18.450000       0.106975       0.150978       0.210453
      18.460000       0.107495       0.150318       0.211664
      18.470000       0.107883       0.149678       0.212974
      18.480000       0.108103       0.149032       0.214391
      18.490000       0.108141       0.148375       0.215922
      18.500000       0.108000       0.147726       0.217582
      18.510000       0.107700       0.147125       0.219406
      18.520000       0.107266       0.146623       0.221437
      18.530000       0.106731       0.146269       0.223720
      18.540000       0.106126       0.146096       0.226292
      18.550000       0.105487       0.146116       0.229179
      18.560000       0.104851       0.146313       0.232389
      18.570000       0.104256       0.146651       0.235915
      18.580000       0.103738       0.147078       0.239729
      18.590000       0.103327       0.147534       0.243774
      18.600000       0.103048       0.147965       0.247965
      18.610000       0.102916       0.148330       0.252191
      18.620000       0.102932       0.148602       0.256334
      18.630000       0.103085       0.148762       0.260278
      18.640000       0.103352       0.148797       0.263930
      18.650000       0.103698       0.148687       0.267227
      18.660000       0.104087       0.148406       0.270138
      18.670000       0.104486       0.147925       0.272657
      18.680000       0.104870       0.147216       0.274794
      18.690000       0.105224       0.146261       0.276570
      18.700000       0.105544       0.145052       0.278014
      18.710000       0.105831       0.143596       0.279160
      18.720000       0.106085       0.141914       0.280050
      18.730000       0.106303       0.140048       0.280727
      18.740000       0.106480       0.138055       0.281226
      18.750000       0.106606       0.136009       0.281580
      18.760000       0.106677       0.133989       0.281814
      18.770000       0.106690       0.132067       0.281948
      18.780000       0.106643       0.130305       0.282004
      18.790000       0.106533       0.128742       0.281990
      18.800000       0.106350       0.127394       0.281896
      18.810000       0.106080       0.126255       0.281685
      18.820000       0.105710       0.125296       0.281301
      18.830000       0.105234       0.124468       0.280681
      18.840000       0.104656       0.123713       0.279781
      18.850000       0.103993       0.122968       0.278591
      18.860000       0.103274       0.122175       0.277144
      18.870000       0.102528       0.121287       0.275505
      18.880000       0.101783       0.120277       0.273751
      18.890000       0.101061       0.119140       0.271951
      18.900000       0.100380       0.117893       0.270152
      18.910000       0.099748       0.116568       0.268380
      18.920000       0.099170       0.115206       0.266652
      18.930000       0.098651       0.113851       0.264998
      18.940000       0.098195       0.112539       0.263463
      18.950000       0.097805       0.111303       0.262106
      18.960000       0.097483       0.110166       0.260982
      18.970000       0.097228       0.109138       0.260132
      18.980000       0.097028       0.108215       0.259572
      18.990000       0.096868       0.107379       0.259302
      19.000000       0.096725       0.106599       0.259315
      19.010000       0.096572       0.105838       0.259611
      19.020000       0.096384       0.105062       0.260206
      19.030000       0.096142       0.104248       0.261127
      19.040000       0.095832       0.103382       0.262400
      19.050000       0.095450       0.102461       0.264033
      19.060000       0.094997       0.101494       0.265998
      19.070000       0.094480       0.100494       0.268222
      19.080000       0.093908       0.099478       0.270591
      19.090000       0.093285       0.098464       0.272974
      19.100000       0.092617       0.097464       0.275251
      19.110000       0.091904       0.096482       0.277345
      19.120000       0.091149       0.095514       0.279234
      19.130000       0.090356       0.094549       0.280952
      19.140000       0.089532       0.093577       0.282570
      19.150000       0.088685       0.092589       0.284166
      19.160000       0.087829       0.091591       0.285793
      19.170000       0.086976       0.090594       0.287462
      19.180000       0.086145       0.089624       0.289133
      19.190000       0.085357       0.088706       0.290728
      19.200000       0.084634       0.087867       0.292147
      19.210000       0.084003       0.087121       0.293298
      19.220000       0.083489       0.086475       0.294110
      19.230000       0.083111       0.085918       0.294551
      19.240000       0.082880       0.085432       0.294625
      19.250000       0.082797       0.084991       0.294369
      19.260000       0.082848       0.084573       0.293842
      19.270000       0.083008       0.084162       0.293118
      19.280000       0.083246       0.083753       0.292263
      19.290000       0.083523       0.083348       0.291325
      19.300000       0.083803       0.082955       0.290321
      19.310000       0.084053       0.082588       0.289241
      19.320000       0.084250       0.082255       0.288055
      19.330000       0.084381       0.081966       0.286734
      19.340000       0.084446       0.081723       0.285261
      19.350000       0.084456       0.081527       0.283643
      19.360000       0.084428       0.081375       0.281918
      19.370000       0.084380       0.081260       0.280155
      19.380000       0.084320       0.081178       0.278450
      19.390000       0.084244       0.081120       0.276911
      19.400000       0.084140       0.081081       0.275641
      19.410000       0.083986       0.081058       0.274714
      19.420000       0.083766       0.081049       0.274158
      19.430000       0.083470       0.081059       0.273949
      19.440000       0.083098       0.081093       0.274008
      19.450000       0.082663       0.081160       0.274221
      19.460000       0.082176       0.081265       0.274454
      19.470000       0.081648       0.081412       0.274589
      19.480000       0.081085       0.081601       0.274544
      19.490000       0.080487       0.081825       0.274288
      19.500000       0.079854       0.082077       0.273836
      19.510000       0.079189       0.082348       0.273239
      19.520000       0.078500       0.082630       0.272553
      19.530000       0.077803       0.082919       0.271825
      19.540000       0.077114       0.083214       0.271087
      19.550000       0.076451       0.083512       0.270351
      19.560000       0.075825       0.083815       0.269625
      19.570000       0.075247       0.084122       0.268908
      19.580000       0.074718       0.084434       0.268198
      19.590000       0.074240       0.084750       0.267488
      19.600000       0.073809       0.085069       0.266773
      19.610000       0.073423       0.085386       0.266063
      19.620000       0.073077       0.085694       0.265396
      19.630000       0.072769       0.085985       0.264846
      19.640000       0.072495       0.086255       0.264522
      19.650000       0.072254       0.086499       0.264547
      19.660000       0.072040       0.086721       0.265035
      19.670000       0.071844       0.086923       0.266062
      19.680000       0.071653       0.087111       0.267651
      19.690000       0.071456       0.087294       0.269764
      19.700000       0.071243       0.087482       0.272314
      19.710000       0.071016       0.087692       0.275183
      19.720000       0.070785       0.087948       0.278243
      19.730000       0.070568       0.088274       0.281380
      19.740000       0.070390       0.088693       0.284505
      19.750000       0.070275       0.089220       0.287566
      19.760000       0.070242       0.089857       0.290540
      19.770000       0.070306       0.090591       0.293432
      19.780000       0.070470       0.091394       0.296255
      19.790000       0.070732       0.092225       0.299024
      19.800000       0.071080       0.093035       0.301736
      19.810000       0.071499       0.093773       0.304371
      19.820000       0.071967       0.094388       0.306891
      19.830000       0.072463       0.094845       0.309249
      19.840000       0.072963       0.095120       0.311409
      19.850000       0.073442       0.095208       0.313360
      19.860000       0.073875       0.095119       0.315129
      19.870000       0.074242       0.094873       0.316791
      19.880000       0.074528       0.094498       0.318462
      19.890000       0.074726       0.094026       0.320287
      19.900000       0.074842       0.093491       0.322416
      19.910000       0.074889       0.092930       0.324986
      19.920000       0.074887       0.092378       0.328103
      19.930000       0.074861       0.091872       0.331836
      19.940000       0.074833       0.091445       0.336218
      19.950000       0.074822       0.091120       0.341243
      19.960000       0.074845       0.090911       0.346865
      19.970000       0.074914       0.090817       0.352989
      19.980000       0.075037       0.090822       0.359468
      19.990000       0.075218       0.090903       0.366095
      20.000000       0.075452       0.091026       0.372617
