  # energy grid [eV]     epsr_x  epsr_y  epsr_z
       0.000000            NaN            NaN            NaN
       0.010000 -254722.603962 -174524.082891       2.035869
       0.020000  -63676.920415  -43627.840364       2.035990
       0.030000  -28298.090652  -19387.793739       2.036193
       0.040000  -15915.501081  -10903.775568       2.036476
       0.050000  -10184.132329   -6976.885408       2.036843
       0.060000   -7070.798045   -4843.758450       2.037292
       0.070000   -5193.558142   -3557.549261       2.037826
       0.080000   -3975.160427   -2722.749886       2.038445
       0.090000   -3139.834837   -2150.415093       2.039152
       0.100000   -2542.335794   -1741.029675       2.039947
       0.110000   -2100.258830   -1438.134813       2.040832
       0.120000   -1764.027771   -1207.764636       2.041809
       0.130000   -1502.365264   -1028.491206       2.042880
       0.140000   -1294.747671    -886.254771       2.044045
       0.150000   -1127.255090    -771.520066       2.045306
       0.160000    -990.176475    -677.635024       2.046662
       0.170000    -876.570053    -599.843975       2.048115
       0.180000    -781.367068    -534.673186       2.049660
       0.190000    -700.796500    -479.536559       2.051296
       0.200000    -632.005828    -432.476025       2.053016
       0.210000    -572.805064    -391.986782       2.054810
       0.220000    -521.490338    -356.897277       2.056665
       0.230000    -476.719984    -326.285085       2.058558
       0.240000    -437.425978    -299.416686       2.060463
       0.250000    -402.749641    -275.703463       2.062338
       0.260000    -371.994281    -254.669002       2.064130
       0.270000    -344.589860    -235.924504       2.065767
       0.280000    -320.066323    -219.150131       2.067156
       0.290000    -298.033257    -204.080765       2.068181
       0.300000    -278.164221    -190.495015       2.068701
       0.310000    -260.184553    -178.206644       2.068554
       0.320000    -243.861819    -167.057782       2.067565
       0.330000    -228.998249    -156.913512       2.065569
       0.340000    -215.424713    -147.657563       2.062436
       0.350000    -202.995891    -139.188990       2.058106
       0.360000    -191.586356    -131.419718       2.052621
       0.370000    -181.087405    -124.272814       2.046140
       0.380000    -171.404450    -117.681229       2.038924
       0.390000    -162.454885    -111.586747       2.031308
       0.400000    -154.166308    -105.938959       2.023635
       0.410000    -146.475048    -100.694195       2.016208
       0.420000    -139.324923     -95.814473       2.009238
       0.430000    -132.666195     -91.266550       2.002828
       0.440000    -126.454676     -87.021109       1.996984
       0.450000    -120.650973     -83.052116       1.991642
       0.460000    -115.219846     -79.336306       1.986721
       0.470000    -110.129667     -75.852793       1.982156
       0.480000    -105.351995     -72.582757       1.977914
       0.490000    -100.861220     -69.509202       1.973990
       0.500000     -96.634272     -66.616756       1.970378
       0.510000     -92.650368     -63.891497       1.967055
       0.520000     -88.890769     -61.320803       1.963972
       0.530000     -85.338558     -58.893213       1.961060
       0.540000     -81.978431     -56.598303       1.958240
       0.550000     -78.796513     -54.426575       1.955437
       0.560000     -75.780203     -52.369359       1.952588
       0.570000     -72.918039     -50.418725       1.949657
       0.580000     -70.199596     -48.567414       1.946647
       0.590000     -67.615396     -46.808765       1.943606
       0.600000     -65.156848     -45.136662       1.940628
       0.610000     -62.816190     -43.545478       1.937831
       0.620000     -60.586456     -42.030033       1.935337
       0.630000     -58.461445     -40.585551       1.933243
       0.640000     -56.435694     -39.207624       1.931600
       0.650000     -54.504448     -37.892178       1.930415
       0.660000     -52.663606     -36.635445       1.929664
       0.670000     -50.909625     -35.433938       1.929307
       0.680000     -49.239376     -34.284420       1.929302
       0.690000     -47.649918     -33.183890       1.929606
       0.700000     -46.138201     -32.129556       1.930171
       0.710000     -44.700711     -31.118816       1.930934
       0.720000     -43.333092     -30.149239       1.931818
       0.730000     -42.029868     -29.218550       1.932731
       0.740000     -40.784383     -28.324613       1.933573
       0.750000     -39.589123     -27.465422       1.934243
       0.760000     -38.436402     -26.639095       1.934647
       0.770000     -37.319228     -25.843871       1.934709
       0.780000     -36.232039     -25.078107       1.934382
       0.790000     -35.171060     -24.340271       1.933659
       0.800000     -34.134238     -23.628936       1.932585
       0.810000     -33.120892     -22.942772       1.931259
       0.820000     -32.131290     -22.280537       1.929819
       0.830000     -31.166284     -21.641072       1.928429
       0.840000     -30.227094     -21.023293       1.927248
       0.850000     -29.315227     -20.426187       1.926411
       0.860000     -28.432515     -19.848814       1.926007
       0.870000     -27.581225     -19.290304       1.926081
       0.880000     -26.764211     -18.749859       1.926630
       0.890000     -25.985069     -18.226755       1.927619
       0.900000     -25.248237     -17.720343       1.928990
       0.910000     -24.559005     -17.230053       1.930676
       0.920000     -23.923325     -16.755391       1.932609
       0.930000     -23.347379     -16.295929       1.934728
       0.940000     -22.836819     -15.851288       1.936978
       0.950000     -22.395703     -15.421108       1.939312
       0.960000     -22.025287     -15.004997       1.941686
       0.970000     -21.722997     -14.602490       1.944054
       0.980000     -21.482040     -14.213005       1.946354
       0.990000     -21.292027     -13.835837       1.948507
       1.000000     -21.140532     -13.470186       1.950406
       1.010000     -21.015005     -13.115213       1.951925
       1.020000     -20.904156     -12.770091       1.952919
       1.030000     -20.798306     -12.434033       1.953237
       1.040000     -20.688892     -12.106302       1.952744
       1.050000     -20.567882     -11.786221       1.951347
       1.060000     -20.427773     -11.473213       1.949021
       1.070000     -20.262216     -11.166866       1.945843
       1.080000     -20.066819     -10.867002       1.942003
       1.090000     -19.839570     -10.573715       1.937795
       1.100000     -19.580723     -10.287374       1.933573
       1.110000     -19.292345     -10.008583       1.929693
       1.120000     -18.977787      -9.738105       1.926444
       1.130000     -18.641217      -9.476759       1.924016
       1.140000     -18.287221      -9.225273       1.922491
       1.150000     -17.920455      -8.984086       1.921858
       1.160000     -17.545336      -8.753151       1.922047
       1.170000     -17.165833      -8.531768       1.922954
       1.180000     -16.785345      -8.318566       1.924460
       1.190000     -16.406674      -8.111690       1.926445
       1.200000     -16.032062      -7.909187       1.928793
       1.210000     -15.663257      -7.709475       1.931397
       1.220000     -15.301594      -7.511743       1.934168
       1.230000     -14.948053      -7.316152       1.937038
       1.240000     -14.603301      -7.123831       1.939962
       1.250000     -14.267693      -6.936718       1.942921
       1.260000     -13.941275      -6.757318       1.945912
       1.270000     -13.623779      -6.588405       1.948943
       1.280000     -13.314656      -6.432665       1.952013
       1.290000     -13.013160      -6.292259       1.955108
       1.300000     -12.718468      -6.168324       1.958184
       1.310000     -12.429803      -6.060498       1.961170
       1.320000     -12.146529      -5.966640       1.963967
       1.330000     -11.868188      -5.882915       1.966445
       1.340000     -11.594497      -5.804329       1.968454
       1.350000     -11.325322      -5.725612       1.969824
       1.360000     -11.060643      -5.642206       1.970383
       1.370000     -10.800528      -5.551031       1.969976
       1.380000     -10.545112      -5.450863       1.968493
       1.390000     -10.294588      -5.342288       1.965910
       1.400000     -10.049199      -5.227360       1.962320
       1.410000      -9.809248      -5.109127       1.957948
       1.420000      -9.575089      -4.991117       1.953143
       1.430000      -9.347127      -4.876833       1.948327
       1.440000      -9.125777      -4.769249       1.943919
       1.450000      -8.911411      -4.670345       1.940266
       1.460000      -8.704264      -4.580769       1.937599
       1.470000      -8.504325      -4.499766       1.936013
       1.480000      -8.311246      -4.425503       1.935489
       1.490000      -8.124322      -4.355737       1.935919
       1.500000      -7.942584      -4.288629       1.937135
       1.510000      -7.765000      -4.223343       1.938937
       1.520000      -7.590724      -4.160192       1.941113
       1.530000      -7.419283      -4.100290       1.943455
       1.540000      -7.250647      -4.044861       1.945765
       1.550000      -7.085154      -3.994505       1.947868
       1.560000      -6.923353      -3.948687       1.949615
       1.570000      -6.765840      -3.905662       1.950895
       1.580000      -6.613146      -3.862867       1.951641
       1.590000      -6.465700      -3.817602       1.951834
       1.600000      -6.323810      -3.767721       1.951508
       1.610000      -6.187662      -3.712053       1.950738
       1.620000      -6.057281      -3.650458       1.949622
       1.630000      -5.932533      -3.583594       1.948262
       1.640000      -5.813183      -3.512573       1.946736
       1.650000      -5.699007      -3.438685       1.945087
       1.660000      -5.589881      -3.363236       1.943326
       1.670000      -5.485756      -3.287502       1.941443
       1.680000      -5.386510      -3.212756       1.939425
       1.690000      -5.291753      -3.140303       1.937264
       1.700000      -5.200740      -3.071475       1.934960
       1.710000      -5.112485      -3.007584       1.932518
       1.720000      -5.026073      -2.949863       1.929938
       1.730000      -4.941025      -2.899462       1.927215
       1.740000      -4.857518      -2.857530       1.924337
       1.750000      -4.776341      -2.825298       1.921296
       1.760000      -4.698591      -2.804041       1.918100
       1.770000      -4.625276      -2.794790       1.914776
       1.780000      -4.557015      -2.797809       1.911382
       1.790000      -4.493970      -2.812044       1.908003
       1.800000      -4.436003      -2.834849       1.904747
       1.810000      -4.382934      -2.862222       1.901735
       1.820000      -4.334722      -2.889534       1.899090
       1.830000      -4.291501      -2.912467       1.896915
       1.840000      -4.253504      -2.927768       1.895285
       1.850000      -4.221036      -2.933587       1.894230
       1.860000      -4.194548      -2.929442       1.893736
       1.870000      -4.174775      -2.915990       1.893746
       1.880000      -4.162808      -2.894768       1.894173
       1.890000      -4.159995      -2.867932       1.894908
       1.900000      -4.167704      -2.837935       1.895835
       1.910000      -4.187049      -2.807123       1.896844
       1.920000      -4.218668      -2.777304       1.897841
       1.930000      -4.262560      -2.749429       1.898753
       1.940000      -4.317924      -2.723501       1.899537
       1.950000      -4.382994      -2.698773       1.900169
       1.960000      -4.454899      -2.674098       1.900651
       1.970000      -4.529622      -2.648270       1.901003
       1.980000      -4.602152      -2.620213       1.901255
       1.990000      -4.666899      -2.589028       1.901453
       2.000000      -4.718392      -2.554015       1.901645
       2.010000      -4.752099      -2.514750       1.901878
       2.020000      -4.765122      -2.471219       1.902187
       2.030000      -4.756513      -2.423898       1.902582
       2.040000      -4.727153      -2.373699       1.903041
       2.050000      -4.679281      -2.321796       1.903510
       2.060000      -4.615890      -2.269393       1.903910
       2.070000      -4.540181      -2.217545       1.904155
       2.080000      -4.455170      -2.167105       1.904174
       2.090000      -4.363477      -2.118774       1.903928
       2.100000      -4.267246      -2.073180       1.903420
       2.110000      -4.168167      -2.030905       1.902693
       2.120000      -4.067543      -1.992413       1.901814
       2.130000      -3.966378      -1.957920       1.900850
       2.140000      -3.865465      -1.927305       1.899857
       2.150000      -3.765456      -1.900137       1.898873
       2.160000      -3.666899      -1.875845       1.897919
       2.170000      -3.570249      -1.853960       1.897003
       2.180000      -3.475847      -1.834305       1.896117
       2.190000      -3.383895      -1.817017       1.895239
       2.200000      -3.294435      -1.802393       1.894332
       2.210000      -3.207353      -1.790600       1.893347
       2.220000      -3.122416      -1.781394       1.892242
       2.230000      -3.039315      -1.773922       1.890989
       2.240000      -2.957723      -1.766694       1.889590
       2.250000      -2.877315      -1.757749       1.888077
       2.260000      -2.797810      -1.744985       1.886513
       2.270000      -2.718992      -1.726569       1.884981
       2.280000      -2.640764      -1.701285       1.883577
       2.290000      -2.563176      -1.668713       1.882398
       2.300000      -2.486445      -1.629206       1.881536
       2.310000      -2.410930      -1.583716       1.881077
       2.320000      -2.337088      -1.533555       1.881085
       2.330000      -2.265397      -1.480176       1.881598
       2.340000      -2.196273      -1.425002       1.882614
       2.350000      -2.129990      -1.369328       1.884093
       2.360000      -2.066613      -1.314274       1.885963
       2.370000      -2.005991      -1.260790       1.888127
       2.380000      -1.947796      -1.209692       1.890482
       2.390000      -1.891628      -1.161699       1.892918
       2.400000      -1.837132      -1.117437       1.895325
       2.410000      -1.784108      -1.077379       1.897600
       2.420000      -1.732561      -1.041728       1.899650
       2.430000      -1.682684      -1.010280       1.901405
       2.440000      -1.634787      -0.982345       1.902817
       2.450000      -1.589180      -0.956801       1.903867
       2.460000      -1.546066      -0.932302       1.904553
       2.470000      -1.505484      -0.907582       1.904878
       2.480000      -1.467316      -0.881743       1.904845
       2.490000      -1.431376      -0.854417       1.904455
       2.500000      -1.397518      -0.825774       1.903715
       2.510000      -1.365731      -0.796400       1.902655
       2.520000      -1.336165      -0.767090       1.901338
       2.530000      -1.309100      -0.738646       1.899867
       2.540000      -1.284878      -0.711688       1.898374
       2.550000      -1.263842      -0.686547       1.897002
       2.560000      -1.246305      -0.663240       1.895882
       2.570000      -1.232517      -0.641547       1.895117
       2.580000      -1.222619      -0.621149       1.894762
       2.590000      -1.216552      -0.601769       1.894825
       2.600000      -1.213960      -0.583227       1.895265
       2.610000      -1.214107      -0.565400       1.896006
       2.620000      -1.215847      -0.548113       1.896950
       2.630000      -1.217677      -0.531035       1.897994
       2.640000      -1.217854      -0.513658       1.899044
       2.650000      -1.214605      -0.495390       1.900027
       2.660000      -1.206373      -0.475717       1.900893
       2.670000      -1.192057      -0.454356       1.901614
       2.680000      -1.171147      -0.431323       1.902172
       2.690000      -1.143737      -0.406893       1.902555
       2.700000      -1.110411      -0.381476       1.902753
       2.710000      -1.072069      -0.355486       1.902766
       2.720000      -1.029740      -0.329231       1.902609
       2.730000      -0.984438      -0.302868       1.902318
       2.740000      -0.937068      -0.276402       1.901951
       2.750000      -0.888375      -0.249715       1.901578
       2.760000      -0.838935      -0.222606       1.901271
       2.770000      -0.789169      -0.194847       1.901098
       2.780000      -0.739376      -0.166242       1.901113
       2.790000      -0.689765      -0.136672       1.901350
       2.800000      -0.640478      -0.106124       1.901819
       2.810000      -0.591612      -0.074695       1.902516
       2.820000      -0.543245      -0.042591       1.903417
       2.830000      -0.495451      -0.010115       1.904492
       2.840000      -0.448317       0.022335       1.905699
       2.850000      -0.401939       0.054290       1.906987
       2.860000      -0.356406       0.085260       1.908298
       2.870000      -0.311765       0.114800       1.909570
       2.880000      -0.267995       0.142586       1.910745
       2.890000      -0.224998       0.168479       1.911775
       2.900000      -0.182618       0.192551       1.912633
       2.910000      -0.140671       0.215073       1.913314
       2.920000      -0.098985       0.236463       1.913839
       2.930000      -0.057427       0.257196       1.914252
       2.940000      -0.015914       0.277712       1.914619
       2.950000       0.025598       0.298312       1.915011
       2.960000       0.067116       0.319091       1.915499
       2.970000       0.108626       0.339928       1.916130
       2.980000       0.150104       0.360536       1.916926
       2.990000       0.191526       0.380572       1.917880
       3.000000       0.232897       0.399765       1.918970
       3.010000       0.274262       0.418018       1.920165
       3.020000       0.315711       0.435436       1.921430
       3.030000       0.357358       0.452289       1.922736
       3.040000       0.399310       0.468911       1.924053
       3.050000       0.441643       0.485614       1.925353
       3.060000       0.484381       0.502650       1.926613
       3.070000       0.527500       0.520226       1.927814
       3.080000       0.570939       0.538541       1.928944
       3.090000       0.614603       0.557801       1.930001
       3.100000       0.658376       0.578199       1.930988
       3.110000       0.702123       0.599887       1.931901
       3.120000       0.745704       0.622950       1.932723
       3.130000       0.788987       0.647420       1.933414
       3.140000       0.831860       0.673285       1.933915
       3.150000       0.874255       0.700503       1.934154
       3.160000       0.916147       0.729002       1.934063
       3.170000       0.957564       0.758666       1.933605
       3.180000       0.998559       0.789335       1.932789
       3.190000       1.039173       0.820812       1.931690
       3.200000       1.079393       0.852876       1.930445
       3.210000       1.119116       0.885314       1.929232
       3.220000       1.158154       0.917946       1.928240
       3.230000       1.196258       0.950636       1.927629
       3.240000       1.233181       0.983290       1.927502
       3.250000       1.268726       1.015826       1.927891
       3.260000       1.302788       1.048150       1.928762
       3.270000       1.335370       1.080148       1.930036
       3.280000       1.366573       1.111690       1.931613
       3.290000       1.396583       1.142661       1.933395
       3.300000       1.425670       1.172980       1.935306
       3.310000       1.454206       1.202586       1.937299
       3.320000       1.482678       1.231411       1.939359
       3.330000       1.511691       1.259318       1.941497
       3.340000       1.541931       1.286067       1.943728
       3.350000       1.574096       1.311299       1.946062
       3.360000       1.608802       1.334571       1.948482
       3.370000       1.646504       1.355413       1.950946
       3.380000       1.687453       1.373410       1.953383
       3.390000       1.731696       1.388298       1.955701
       3.400000       1.779121       1.400059       1.957804
       3.410000       1.829519       1.408993       1.959604
       3.420000       1.882642       1.415723       1.961035
       3.430000       1.938226       1.421095       1.962070
       3.440000       1.995995       1.425981       1.962730
       3.450000       2.055627       1.431034       1.963081
       3.460000       2.116717       1.436470       1.963224
       3.470000       2.178736       1.441965       1.963281
       3.480000       2.241007       1.446705       1.963370
       3.490000       2.302682       1.449551       1.963597
       3.500000       2.362735       1.449304       1.964042
       3.510000       2.419960       1.444977       1.964757
       3.520000       2.472993       1.436053       1.965762
       3.530000       2.520364       1.422667       1.967040
       3.540000       2.560599       1.405662       1.968541
       3.550000       2.592360       1.386503       1.970184
       3.560000       2.614606       1.367042       1.971872
       3.570000       2.626732       1.349195       1.973510
       3.580000       2.628638       1.334643       1.975018
       3.590000       2.620710       1.324590       1.976346
       3.600000       2.603725       1.319647       1.977481
       3.610000       2.578760       1.319803       1.978447
       3.620000       2.547129       1.324517       1.979293
       3.630000       2.510417       1.332882       1.980080
       3.640000       2.470549       1.343854       1.980872
       3.650000       2.429868       1.356468       1.981718
       3.660000       2.391128       1.370014       1.982654
       3.670000       2.357341       1.384105       1.983700
       3.680000       2.331456       1.398634       1.984868
       3.690000       2.315884       1.413637       1.986173
       3.700000       2.312030       1.429124       1.987631
       3.710000       2.319965       1.444961       1.989264
       3.720000       2.338371       1.460869       1.991085
       3.730000       2.364744       1.476528       1.993098
       3.740000       2.395752       1.491738       1.995287
       3.750000       2.427649       1.506543       1.997622
       3.760000       2.456635       1.521271       2.000065
       3.770000       2.479144       1.536460       2.002578
       3.780000       2.492054       1.552688       2.005127
       3.790000       2.492844       1.570387       2.007690
       3.800000       2.479721       1.589668       2.010250
       3.810000       2.451751       1.610237       2.012800
       3.820000       2.408971       1.631394       2.015333
       3.830000       2.352453       1.652133       2.017840
       3.840000       2.284265       1.671310       2.020306
       3.850000       2.207305       1.687824       2.022698
       3.860000       2.125063       1.700787       2.024970
       3.870000       2.041343       1.709632       2.027069
       3.880000       1.959964       1.714148       2.028938
       3.890000       1.884400       1.714458       2.030543
       3.900000       1.817352       1.710957       2.031877
       3.910000       1.760341       1.704227       2.032968
       3.920000       1.713442       1.694936       2.033875
       3.930000       1.675320       1.683731       2.034666
       3.940000       1.643569       1.671136       2.035405
       3.950000       1.615295       1.657487       2.036133
       3.960000       1.587745       1.642932       2.036862
       3.970000       1.558788       1.627511       2.037583
       3.980000       1.527123       1.611306       2.038268
       3.990000       1.492191       1.594592       2.038890
       4.000000       1.453940       1.577907       2.039422
       4.010000       1.412580       1.561993       2.039840
       4.020000       1.368453       1.547623       2.040123
       4.030000       1.322020       1.535419       2.040252
       4.040000       1.273905       1.525727       2.040210
       4.050000       1.224926       1.518603       2.039996
       4.060000       1.176069       1.513850       2.039627
       4.070000       1.128462       1.511070       2.039153
       4.080000       1.083408       1.509680       2.038643
       4.090000       1.042498       1.508936       2.038180
       4.100000       1.007706       1.507993       2.037834
       4.110000       0.981305       1.506016       2.037650
       4.120000       0.965527       1.502326       2.037643
       4.130000       0.962075       1.496521       2.037804
       4.140000       0.971675       1.488517       2.038112
       4.150000       0.993860       1.478499       2.038540
       4.160000       1.027025       1.466768       2.039061
       4.170000       1.068687       1.453561       2.039648
       4.180000       1.115811       1.438897       2.040269
       4.190000       1.165114       1.422529       2.040895
       4.200000       1.213306       1.404044       2.041501
       4.210000       1.257258       1.383080       2.042067
       4.220000       1.294139       1.359596       2.042579
       4.230000       1.321542       1.334082       2.043025
       4.240000       1.337601       1.307625       2.043393
       4.250000       1.341104       1.281786       2.043677
       4.260000       1.331592       1.258327       2.043883
       4.270000       1.309439       1.238878       2.044038
       4.280000       1.275881       1.224642       2.044188
       4.290000       1.232974       1.216224       2.044389
       4.300000       1.183419       1.213601       2.044688
       4.310000       1.130271       1.216212       2.045106
       4.320000       1.076539       1.223093       2.045625
       4.330000       1.024785       1.233027       2.046190
       4.340000       0.976788       1.244666       2.046716
       4.350000       0.933367       1.256650       2.047115
       4.360000       0.894384       1.267707       2.047311
       4.370000       0.858956       1.276755       2.047264
       4.380000       0.825836       1.282984       2.046977
       4.390000       0.793916       1.285919       2.046493
       4.400000       0.762683       1.285460       2.045874
       4.410000       0.732472       1.281850       2.045187
       4.420000       0.704395       1.275570       2.044482
       4.430000       0.679999       1.267190       2.043787
       4.440000       0.660809       1.257206       2.043109
       4.450000       0.647954       1.245942       2.042452
       4.460000       0.641990       1.233518       2.041821
       4.470000       0.642909       1.219886       2.041229
       4.480000       0.650260       1.204878       2.040701
       4.490000       0.663259       1.188259       2.040253
       4.500000       0.680882       1.169750       2.039890
       4.510000       0.701923       1.149043       2.039590
       4.520000       0.725074       1.125825       2.039305
       4.530000       0.748996       1.099820       2.038962
       4.540000       0.772399       1.070874       2.038474
       4.550000       0.794087       1.039052       2.037749
       4.560000       0.812997       1.004726       2.036714
       4.570000       0.828228       0.968625       2.035322
       4.580000       0.839111       0.931798       2.033581
       4.590000       0.845307       0.895505       2.031558
       4.600000       0.846942       0.861061       2.029386
       4.610000       0.844705       0.829694       2.027245
       4.620000       0.839844       0.802443       2.025332
       4.630000       0.833969       0.780086       2.023832
       4.640000       0.828714       0.763100       2.022883
       4.650000       0.825372       0.751635       2.022574
       4.660000       0.824680       0.745567       2.022934
       4.670000       0.826839       0.744607       2.023951
       4.680000       0.831687       0.748430       2.025580
       4.690000       0.838919       0.756762       2.027755
       4.700000       0.848252       0.769391       2.030401
       4.710000       0.859525       0.786124       2.033436
       4.720000       0.872759       0.806754       2.036775
       4.730000       0.888181       0.831030       2.040329
       4.740000       0.906166       0.858647       2.044009
       4.750000       0.927072       0.889210       2.047727
       4.760000       0.951015       0.922173       2.051397
       4.770000       0.977677       0.956798       2.054942
       4.780000       1.006250       0.992136       2.058291
       4.790000       1.035551       1.027068       2.061382
       4.800000       1.064257       1.060392       2.064159
       4.810000       1.091130       1.090941       2.066580
       4.820000       1.115120       1.117680       2.068614
       4.830000       1.135321       1.139785       2.070247
       4.840000       1.150787       1.156662       2.071493
       4.850000       1.160375       1.167932       2.072391
       4.860000       1.162695       1.173418       2.073010
       4.870000       1.156268       1.173167       2.073437
       4.880000       1.139851       1.167508       2.073766
       4.890000       1.112822       1.157114       2.074090
       4.900000       1.075525       1.143010       2.074493
       4.910000       1.029433       1.126485       2.075051
       4.920000       0.977086       1.108936       2.075819
       4.930000       0.921804       1.091685       2.076833
       4.940000       0.867231       1.075817       2.078098
       4.950000       0.816847       1.062064       2.079588
       4.960000       0.773526       1.050764       2.081252
       4.970000       0.739229       1.041900       2.083020
       4.980000       0.714808       1.035235       2.084822
       4.990000       0.699973       1.030480       2.086594
       5.000000       0.693420       1.027436       2.088290
       5.010000       0.693132       1.026043       2.089880
       5.020000       0.696822       1.026332       2.091348
       5.030000       0.702382       1.028322       2.092698
       5.040000       0.708252       1.031919       2.093945
       5.050000       0.713595       1.036872       2.095119
       5.060000       0.718275       1.042783       2.096266
       5.070000       0.722679       1.049180       2.097438
       5.080000       0.727480       1.055597       2.098699
       5.090000       0.733392       1.061629       2.100110
       5.100000       0.740983       1.066916       2.101726
       5.110000       0.750568       1.071095       2.103584
       5.120000       0.762191       1.073757       2.105699
       5.130000       0.775717       1.074462       2.108062
       5.140000       0.790951       1.072838       2.110641
       5.150000       0.807751       1.068721       2.113386
       5.160000       0.826032       1.062290       2.116241
       5.170000       0.845678       1.054146       2.119151
       5.180000       0.866386       1.045282       2.122065
       5.190000       0.887522       1.036954       2.124941
       5.200000       0.908056       1.030487       2.127751
       5.210000       0.926634       1.027063       2.130473
       5.220000       0.941795       1.027540       2.133092
       5.230000       0.952273       1.032336       2.135593
       5.240000       0.957315       1.041383       2.137962
       5.250000       0.956897       1.054175       2.140187
       5.260000       0.951742       1.069882       2.142264
       5.270000       0.943144       1.087478       2.144213
       5.280000       0.932677       1.105852       2.146079
       5.290000       0.921923       1.123867       2.147931
       5.300000       0.912335       1.140378       2.149853
       5.310000       0.905236       1.154243       2.151920
       5.320000       0.901859       1.164376       2.154188
       5.330000       0.903316       1.169844       2.156684
       5.340000       0.910480       1.170026       2.159408
       5.350000       0.923821       1.164774       2.162341
       5.360000       0.943313       1.154502       2.165460
       5.370000       0.968450       1.140172       2.168738
       5.380000       0.998362       1.123137       2.172153
       5.390000       1.031968       1.104905       2.175682
       5.400000       1.068124       1.086919       2.179301
       5.410000       1.105738       1.070394       2.182978
       5.420000       1.143857       1.056236       2.186679
       5.430000       1.181708       1.045003       2.190362
       5.440000       1.218721       1.036871       2.193986
       5.450000       1.254500       1.031605       2.197508
       5.460000       1.288758       1.028556       2.200877
       5.470000       1.321222       1.026721       2.204039
       5.480000       1.351515       1.024881       2.206935
       5.490000       1.379064       1.021803       2.209510
       5.500000       1.403080       1.016469       2.211726
       5.510000       1.422623       1.008300       2.213571
       5.520000       1.436739       0.997283       2.215070
       5.530000       1.444565       0.983997       2.216281
       5.540000       1.445349       0.969485       2.217286
       5.550000       1.438381       0.955032       2.218182
       5.560000       1.422941       0.941903       2.219064
       5.570000       1.398346       0.931113       2.220019
       5.580000       1.364120       0.923280       2.221109
       5.590000       1.320207       0.918559       2.222367
       5.600000       1.267117       0.916687       2.223793
       5.610000       1.205962       0.917097       2.225353
       5.620000       1.138412       0.919116       2.226991
       5.630000       1.066641       0.922188       2.228638
       5.640000       0.993232       0.926046       2.230224
       5.650000       0.921037       0.930760       2.231700
       5.660000       0.852977       0.936628       2.233043
       5.670000       0.791804       0.943961       2.234269
       5.680000       0.739866       0.952876       2.235431
       5.690000       0.698892       0.963190       2.236610
       5.700000       0.669798       0.974455       2.237888
       5.710000       0.652592       0.986088       2.239339
       5.720000       0.646418       0.997512       2.241010
       5.730000       0.649758       1.008251       2.242912
       5.740000       0.660742       1.017941       2.245029
       5.750000       0.677465       1.026311       2.247324
       5.760000       0.698264       1.033177       2.249750
       5.770000       0.721898       1.038491       2.252268
       5.780000       0.747590       1.042423       2.254844
       5.790000       0.774921       1.045398       2.257452
       5.800000       0.803565       1.048046       2.260069
       5.810000       0.832992       1.051053       2.262669
       5.820000       0.862245       1.054955       2.265224
       5.830000       0.889875       1.059988       2.267707
       5.840000       0.914040       1.066015       2.270098
       5.850000       0.932710       1.072575       2.272398
       5.860000       0.943930       1.079016       2.274632
       5.870000       0.946097       1.084668       2.276849
       5.880000       0.938225       1.089032       2.279110
       5.890000       0.920129       1.091905       2.281465
       5.900000       0.892505       1.093421       2.283936
       5.910000       0.856847       1.093988       2.286512
       5.920000       0.815255       1.094176       2.289146
       5.930000       0.770171       1.094587       2.291779
       5.940000       0.724084       1.095773       2.294349
       5.950000       0.679256       1.098190       2.296805
       5.960000       0.637523       1.102195       2.299111
       5.970000       0.600247       1.108051       2.301243
       5.980000       0.568430       1.115950       2.303183
       5.990000       0.542937       1.126028       2.304920
       6.000000       0.524683       1.138379       2.306456
       6.010000       0.514697       1.153066       2.307816
       6.020000       0.514045       1.170117       2.309055
       6.030000       0.523648       1.189512       2.310256
       6.040000       0.544084       1.211135       2.311521
       6.050000       0.575418       1.234735       2.312952
       6.060000       0.617125       1.259885       2.314637
       6.070000       0.668133       1.285992       2.316643
       6.080000       0.726946       1.312328       2.319015
       6.090000       0.791800       1.338072       2.321780
       6.100000       0.860791       1.362341       2.324952
       6.110000       0.931937       1.384215       2.328534
       6.120000       1.003209       1.402793       2.332517
       6.130000       1.072541       1.417286       2.336878
       6.140000       1.137860       1.427146       2.341590
       6.150000       1.197150       1.432190       2.346615
       6.160000       1.248544       1.432629       2.351909
       6.170000       1.290424       1.428995       2.357414
       6.180000       1.321507       1.421968       2.363056
       6.190000       1.340898       1.412191       2.368740
       6.200000       1.348092       1.400150       2.374343
       6.210000       1.342925       1.386145       2.379729
       6.220000       1.325488       1.370306       2.384749
       6.230000       1.296033       1.352630       2.389262
       6.240000       1.254958       1.333018       2.393145
       6.250000       1.202892       1.311358       2.396314
       6.260000       1.140862       1.287647       2.398732
       6.270000       1.070429       1.262139       2.400416
       6.280000       0.993696       1.235452       2.401437
       6.290000       0.913140       1.208571       2.401919
       6.300000       0.831339       1.182732       2.402026
       6.310000       0.750700       1.159236       2.401942
       6.320000       0.673255       1.139232       2.401857
       6.330000       0.600572       1.123547       2.401944
       6.340000       0.533765       1.112609       2.402340
       6.350000       0.473544       1.106454       2.403136
       6.360000       0.420298       1.104832       2.404368
       6.370000       0.374168       1.107349       2.406030
       6.380000       0.335105       1.113624       2.408086
       6.390000       0.302874       1.123380       2.410493
       6.400000       0.277005       1.136464       2.413209
       6.410000       0.256718       1.152773       2.416192
       6.420000       0.240908       1.172131       2.419399
       6.430000       0.228261       1.194187       2.422778
       6.440000       0.217477       1.218366       2.426269
       6.450000       0.207477       1.243898       2.429812
       6.460000       0.197482       1.269894       2.433352
       6.470000       0.186942       1.295452       2.436853
       6.480000       0.175392       1.319738       2.440303
       6.490000       0.162373       1.342041       2.443717
       6.500000       0.147476       1.361785       2.447141
       6.510000       0.130499       1.378548       2.450643
       6.520000       0.111636       1.392084       2.454307
       6.530000       0.091621       1.402380       2.458213
       6.540000       0.071762       1.409702       2.462431
       6.550000       0.053796       1.414589       2.467000
       6.560000       0.039628       1.417798       2.471923
       6.570000       0.031002       1.420196       2.477161
       6.580000       0.029231       1.422654       2.482636
       6.590000       0.035028       1.425957       2.488233
       6.600000       0.048452       1.430723       2.493817
       6.610000       0.068931       1.437364       2.499252
       6.620000       0.095372       1.446065       2.504424
       6.630000       0.126308       1.456820       2.509270
       6.640000       0.160051       1.469468       2.513793
       6.650000       0.194823       1.483727       2.518076
       6.660000       0.228843       1.499200       2.522264
       6.670000       0.260404       1.515371       2.526534
       6.680000       0.287964       1.531615       2.531051
       6.690000       0.310252       1.547244       2.535932
       6.700000       0.326372       1.561586       2.541222
       6.710000       0.335893       1.574085       2.546892
       6.720000       0.338890       1.584414       2.552848
       6.730000       0.335945       1.592553       2.558943
       6.740000       0.328099       1.598797       2.565001
       6.750000       0.316728       1.603649       2.570832
       6.760000       0.303390       1.607599       2.576253
       6.770000       0.289643       1.610880       2.581107
       6.780000       0.276912       1.613292       2.585282
       6.790000       0.266399       1.614195       2.588720
       6.800000       0.259043       1.612653       2.591424
       6.810000       0.255462       1.607684       2.593447
       6.820000       0.255878       1.598521       2.594892
       6.830000       0.260031       1.584814       2.595898
       6.840000       0.267160       1.566709       2.596636
       6.850000       0.276088       1.544801       2.597296
       6.860000       0.285412       1.519982       2.598082
       6.870000       0.293740       1.493247       2.599192
       6.880000       0.299919       1.465499       2.600809
       6.890000       0.303177       1.437442       2.603083
       6.900000       0.303194       1.409577       2.606128
       6.910000       0.300076       1.382309       2.610011
       6.920000       0.294259       1.356101       2.614757
       6.930000       0.286371       1.331587       2.620350
       6.940000       0.277081       1.309599       2.626748
       6.950000       0.266988       1.291091       2.633901
       6.960000       0.256589       1.276999       2.641760
       6.970000       0.246342       1.268088       2.650286
       6.980000       0.236781       1.264817       2.659437
       6.990000       0.228612       1.267257       2.669161
       7.000000       0.222731       1.275081       2.679383
       7.010000       0.220133       1.287605       2.690003
       7.020000       0.221735       1.303877       2.700896
       7.030000       0.228170       1.322772       2.711923
       7.040000       0.239628       1.343095       2.722945
       7.050000       0.255810       1.363690       2.733836
       7.060000       0.275991       1.383564       2.744499
       7.070000       0.299175       1.402017       2.754875
       7.080000       0.324264       1.418777       2.764943
       7.090000       0.350196       1.434091       2.774724
       7.100000       0.376013       1.448722       2.784275
       7.110000       0.400859       1.463799       2.793686
       7.120000       0.423934       1.480524       2.803071
       7.130000       0.444437       1.499840       2.812570
       7.140000       0.461533       1.522163       2.822327
       7.150000       0.474346       1.547276       2.832479
       7.160000       0.481993       1.574380       2.843139
       7.170000       0.483632       1.602258       2.854382
       7.180000       0.478512       1.629470       2.866247
       7.190000       0.466014       1.654531       2.878738
       7.200000       0.445680       1.676047       2.891832
       7.210000       0.417273       1.692811       2.905489
       7.220000       0.380877       1.703865       2.919647
       7.230000       0.337051       1.708540       2.934219
       7.240000       0.286944       1.706469       2.949086
       7.250000       0.232300       1.697591       2.964093
       7.260000       0.175305       1.682133       2.979065
       7.270000       0.118283       1.660569       2.993820
       7.280000       0.063342       1.633547       3.008193
       7.290000       0.012077       1.601765       3.022064
       7.300000      -0.034588       1.565828       3.035367
       7.310000      -0.076355       1.526137       3.048097
       7.320000      -0.113354       1.482867       3.060288
       7.330000      -0.145894       1.436064       3.071981
       7.340000      -0.174291       1.385808       3.083195
       7.350000      -0.198795       1.332390       3.093893
       7.360000      -0.219616       1.276423       3.103976
       7.370000      -0.236945       1.218870       3.113291
       7.380000      -0.250973       1.160967       3.121653
       7.390000      -0.261886       1.104050       3.128882
       7.400000      -0.269902       1.049348       3.134848
       7.410000      -0.275324       0.997786       3.139496
       7.420000      -0.278602       0.949838       3.142857
       7.430000      -0.280374       0.905472       3.145043
       7.440000      -0.281465       0.864138       3.146224
       7.450000      -0.282847       0.824841       3.146608
       7.460000      -0.285548       0.786278       3.146421
       7.470000      -0.290535       0.747053       3.145886
       7.480000      -0.298591       0.705943       3.145201
       7.490000      -0.310225       0.662143       3.144518
       7.500000      -0.325604       0.615469       3.143914
       7.510000      -0.344520       0.566454       3.143372
       7.520000      -0.366385       0.516351       3.142782
       7.530000      -0.390261       0.467019       3.141970
       7.540000      -0.414931       0.420722       3.140754
       7.550000      -0.439007       0.379843       3.138991
       7.560000      -0.461070       0.346556       3.136615
       7.570000      -0.479814       0.322530       3.133628
       7.580000      -0.494190       0.308723       3.130071
       7.590000      -0.503518       0.305300       3.125987
       7.600000      -0.507545       0.311672       3.121381
       7.610000      -0.506428       0.326607       3.116196
       7.620000      -0.500657       0.348404       3.110305
       7.630000      -0.490953       0.375059       3.103510
       7.640000      -0.478172       0.404435       3.095566
       7.650000      -0.463242       0.434399       3.086205
       7.660000      -0.447130       0.462951       3.075185
       7.670000      -0.430801       0.488348       3.062326
       7.680000      -0.415165       0.509230       3.047574
       7.690000      -0.400994       0.524741       3.031045
       7.700000      -0.388849       0.534613       3.013054
       7.710000      -0.379040       0.539179       2.994120
       7.720000      -0.371665       0.539288       2.974917
       7.730000      -0.366692       0.536133       2.956198
       7.740000      -0.364045       0.531034       2.938703
       7.750000      -0.363627       0.525244       2.923088
       7.760000      -0.365262       0.519834       2.909883
       7.770000      -0.368595       0.515654       2.899495
       7.780000      -0.373017       0.513307       2.892224
       7.790000      -0.377683       0.513134       2.888279
       7.800000      -0.381643       0.515162       2.887764
       7.810000      -0.384037       0.519104       2.890660
       7.820000      -0.384273       0.524405       2.896790
       7.830000      -0.382100       0.530390       2.905811
       7.840000      -0.377532       0.536446       2.917230
       7.850000      -0.370679       0.542206       2.930471
       7.860000      -0.361561       0.547661       2.944968
       7.870000      -0.350011       0.553165       2.960274
       7.880000      -0.335699       0.559323       2.976145
       7.890000      -0.318274       0.566813       2.992576
       7.900000      -0.297544       0.576197       3.009764
       7.910000      -0.273621       0.587777       3.028009
       7.920000      -0.246960       0.601520       3.047580
       7.930000      -0.218326       0.617045       3.068598
       7.940000      -0.188690       0.633658       3.090971
       7.950000      -0.159116       0.650415       3.114389
       7.960000      -0.130642       0.666225       3.138373
       7.970000      -0.104159       0.679985       3.162343
       7.980000      -0.080299       0.690733       3.185704
       7.990000      -0.059342       0.697787       3.207900
       8.000000      -0.041186       0.700836       3.228451
       8.010000      -0.025400       0.699959       3.246956
       8.020000      -0.011353       0.695578       3.263080
       8.030000       0.001603       0.688365       3.276536
       8.040000       0.013968       0.679145       3.287075
       8.050000       0.026008       0.668792       3.294487
       8.060000       0.037742       0.658150       3.298603
       8.070000       0.049018       0.647947       3.299310
       8.080000       0.059613       0.638744       3.296575
       8.090000       0.069349       0.630902       3.290466
       8.100000       0.078161       0.624604       3.281157
       8.110000       0.086135       0.619892       3.268902
       8.120000       0.093467       0.616699       3.253991
       8.130000       0.100387       0.614866       3.236692
       8.140000       0.107091       0.614153       3.217212
       8.150000       0.113707       0.614271       3.195704
       8.160000       0.120338       0.614948       3.172313
       8.170000       0.127136       0.616014       3.147260
       8.180000       0.134364       0.617456       3.120914
       8.190000       0.142411       0.619422       3.093820
       8.200000       0.151739       0.622172       3.066656
       8.210000       0.162803       0.625993       3.040125
       8.220000       0.175966       0.631130       3.014845
       8.230000       0.191437       0.637744       2.991283
       8.240000       0.209236       0.645907       2.969767
       8.250000       0.229178       0.655615       2.950584
       8.260000       0.250883       0.666783       2.934097
       8.270000       0.273802       0.679242       2.920838
       8.280000       0.297289       0.692736       2.911511
       8.290000       0.320691       0.706941       2.906906
       8.300000       0.343451       0.721524       2.907756
       8.310000       0.365200       0.736218       2.914592
       8.320000       0.385801       0.750893       2.927658
       8.330000       0.405340       0.765587       2.946891
       8.340000       0.424059       0.780483       2.971967
       8.350000       0.442255       0.795841       3.002369
       8.360000       0.460175       0.811905       3.037472
       8.370000       0.477941       0.828833       3.076601
       8.380000       0.495527       0.846662       3.119084
       8.390000       0.512792       0.865312       3.164283
       8.400000       0.529545       0.884612       3.211637
       8.410000       0.545645       0.904329       3.260693
       8.420000       0.561096       0.924196       3.311140
       8.430000       0.576124       0.943932       3.362808
       8.440000       0.591187       0.963256       3.415629
       8.450000       0.606919       0.981903       3.469570
       8.460000       0.624001       0.999639       3.524538
       8.470000       0.643018       1.016276       3.580305
       8.480000       0.664349       1.031683       3.636457
       8.490000       0.688111       1.045772       3.692393
       8.500000       0.714172       1.058486       3.747354
       8.510000       0.742202       1.069776       3.800474
       8.520000       0.771738       1.079604       3.850815
       8.530000       0.802256       1.087972       3.897368
       8.540000       0.833230       1.094951       3.939024
       8.550000       0.864148       1.100705       3.974523
       8.560000       0.894506       1.105468       4.002401
       8.570000       0.923759       1.109488       4.020970
       8.580000       0.951284       1.112967       4.028340
       8.590000       0.976359       1.116010       4.022498
       8.600000       0.998216       1.118636       4.001458
       8.610000       1.016140       1.120838       3.963477
       8.620000       1.029610       1.122672       3.907319
       8.630000       1.038416       1.124334       3.832522
       8.640000       1.042704       1.126176       3.739600
       8.650000       1.042908       1.128664       3.630127
       8.660000       1.039579       1.132280       3.506634
       8.670000       1.033180       1.137426       3.372360
       8.680000       1.023909       1.144355       3.230911
       8.690000       1.011616       1.153165       3.085925
       8.700000       0.995843       1.163837       2.940814
       8.710000       0.975982       1.176302       2.798623
       8.720000       0.951496       1.190490       2.661972
       8.730000       0.922151       1.206352       2.533008
       8.740000       0.888155       1.223863       2.413342
       8.750000       0.850155       1.243001       2.303959
       8.760000       0.809106       1.263736       2.205154
       8.770000       0.766072       1.286023       2.116565
       8.780000       0.722081       1.309798       2.037316
       8.790000       0.678042       1.334987       1.966235
       8.800000       0.634729       1.361506       1.902109
       8.810000       0.592787       1.389271       1.843881
       8.820000       0.552745       1.418190       1.790754
       8.830000       0.515064       1.448150       1.742192
       8.840000       0.480214       1.479001       1.697841
       8.850000       0.448769       1.510527       1.657408
       8.860000       0.421446       1.542445       1.620536
       8.870000       0.399043       1.574400       1.586701
       8.880000       0.382243       1.605975       1.555165
       8.890000       0.371374       1.636706       1.525014
       8.900000       0.366218       1.666116       1.495297
       8.910000       0.365965       1.693743       1.465224
       8.920000       0.369344       1.719167       1.434353
       8.930000       0.374858       1.742029       1.402671
       8.940000       0.381042       1.762035       1.370534
       8.950000       0.386642       1.778955       1.338480
       8.960000       0.390639       1.792640       1.307032
       8.970000       0.392161       1.803049       1.276574
       8.980000       0.390306       1.810261       1.247351
       8.990000       0.384042       1.814439       1.219569
       9.000000       0.372253       1.815742       1.193536
       9.010000       0.353975       1.814211       1.169784
       9.020000       0.328745       1.809677       1.149105
       9.030000       0.296928       1.801736       1.132482
       9.040000       0.259834       1.789808       1.120908
       9.050000       0.219555       1.773240       1.115154
       9.060000       0.178558       1.751435       1.115562
       9.070000       0.139156       1.723999       1.121939
       9.080000       0.103059       1.690891       1.133580
       9.090000       0.071129       1.652578       1.149374
       9.100000       0.043382       1.610136       1.167965
       9.110000       0.019235       1.565245       1.187907
       9.120000      -0.002120       1.520069       1.207809
       9.130000      -0.021330       1.477035       1.226453
       9.140000      -0.038625       1.438557       1.242875
       9.150000      -0.053760       1.406754       1.256410
       9.160000      -0.066160       1.383192       1.266713
       9.170000      -0.075181       1.368704       1.273781
       9.180000      -0.080389       1.363329       1.277960
       9.190000      -0.081755       1.366397       1.279943
       9.200000      -0.079729       1.376719       1.280707
       9.210000      -0.075161       1.392828       1.281365
       9.220000      -0.069132       1.413185       1.282976
       9.230000      -0.062735       1.436330       1.286346
       9.240000      -0.056889       1.460964       1.291877
       9.250000      -0.052230       1.486012       1.299529
       9.260000      -0.049110       1.510686       1.308892
       9.270000      -0.047673       1.534521       1.319351
       9.280000      -0.047978       1.557358       1.330274
       9.290000      -0.050079       1.579230       1.341172
       9.300000      -0.054020       1.600191       1.351763
       9.310000      -0.059751       1.620136       1.361956
       9.320000      -0.067023       1.638710       1.371795
       9.330000      -0.075346       1.655345       1.381403
       9.340000      -0.084001       1.669367       1.390954
       9.350000      -0.092108       1.680133       1.400648
       9.360000      -0.098713       1.687098       1.410681
       9.370000      -0.102894       1.689818       1.421208
       9.380000      -0.103912       1.687940       1.432306
       9.390000      -0.101387       1.681231       1.443976
       9.400000      -0.095450       1.669673       1.456180
       9.410000      -0.086818       1.653559       1.468901
       9.420000      -0.076764       1.633491       1.482200
       9.430000      -0.066986       1.610234       1.496242
       9.440000      -0.059407       1.584469       1.511270
       9.450000      -0.055925       1.556552       1.527533
       9.460000      -0.058136       1.526407       1.545186
       9.470000      -0.067095       1.493587       1.564190
       9.480000      -0.083167       1.457484       1.584248
       9.490000      -0.106017       1.417604       1.604798
       9.500000      -0.134748       1.373820       1.625052
       9.510000      -0.168125       1.326541       1.644092
       9.520000      -0.204803       1.276739       1.660994
       9.530000      -0.243502       1.225853       1.674954
       9.540000      -0.283082       1.175562       1.685390
       9.550000      -0.322516       1.127530       1.691987
       9.560000      -0.360769       1.083177       1.694702
       9.570000      -0.396661       1.043530       1.693757
       9.580000      -0.428809       1.009105       1.689629
       9.590000      -0.455721       0.979822       1.683056
       9.600000      -0.476043       0.954944       1.675022
       9.610000      -0.488843       0.933093       1.666667
       9.620000      -0.493815       0.912382       1.659118
       9.630000      -0.491324       0.890662       1.653249
       9.640000      -0.482283       0.865862       1.649480
       9.650000      -0.467924       0.836377       1.647667
       9.660000      -0.449548       0.801408       1.647149
       9.670000      -0.428316       0.761146       1.646918
       9.680000      -0.405132       0.716717       1.645829
       9.690000      -0.380639       0.669860       1.642801
       9.700000      -0.355304       0.622448       1.636952
       9.710000      -0.329551       0.576021       1.627685
       9.720000      -0.303875       0.531505       1.614719
       9.730000      -0.278886       0.489182       1.598096
       9.740000      -0.255276       0.448890       1.578150
       9.750000      -0.233718       0.410348       1.555438
       9.760000      -0.214755       0.373447       1.530646
       9.770000      -0.198698       0.338444       1.504506
       9.780000      -0.185584       0.305985       1.477749
       9.790000      -0.175191       0.276987       1.451099
       9.800000      -0.167115       0.252416       1.425274
       9.810000      -0.160857       0.233040       1.400943
       9.820000      -0.155922       0.219231       1.378625
       9.830000      -0.151899       0.210855       1.358546
       9.840000      -0.148522       0.207276       1.340543
       9.850000      -0.145704       0.207446       1.324065
       9.860000      -0.143530       0.210044       1.308298
       9.870000      -0.142198       0.213616       1.292356
       9.880000      -0.141917       0.216693       1.275453
       9.890000      -0.142799       0.217873       1.256998
       9.900000      -0.144779       0.215844       1.236587
       9.910000      -0.147592       0.209378       1.213927
       9.920000      -0.150793       0.197323       1.188762
       9.930000      -0.153809       0.178649       1.160856
       9.940000      -0.155999       0.152603       1.130054
       9.950000      -0.156749       0.118964       1.096402
       9.960000      -0.155598       0.078334       1.060258
       9.970000      -0.152379       0.032331       1.022348
       9.980000      -0.147324      -0.016458       0.983736
       9.990000      -0.141094      -0.064828       0.945705
      10.000000      -0.134722      -0.109541       0.909585
      10.010000      -0.129485      -0.147935       0.876574
      10.020000      -0.126730      -0.178317       0.847584
      10.030000      -0.127681      -0.200034       0.823146
      10.040000      -0.133236      -0.213264       0.803376
      10.050000      -0.143783      -0.218694       0.788003
      10.060000      -0.159089      -0.217265       0.776456
      10.070000      -0.178302      -0.210025       0.767992
      10.080000      -0.200083      -0.198080       0.761820
      10.090000      -0.222872      -0.182565       0.757194
      10.100000      -0.245182      -0.164585       0.753432
      10.110000      -0.265857      -0.145161       0.749904
      10.120000      -0.284194      -0.125170       0.746032
      10.130000      -0.299940      -0.105330       0.741333
      10.140000      -0.313180      -0.086192       0.735528
      10.150000      -0.324201      -0.068125       0.728631
      10.160000      -0.333361      -0.051285       0.721010
      10.170000      -0.340983      -0.035597       0.713351
      10.180000      -0.347275      -0.020757       0.706558
      10.190000      -0.352290      -0.006295       0.701601
      10.200000      -0.355942       0.008342       0.699371
      10.210000      -0.358094       0.023682       0.700571
      10.220000      -0.358690       0.040130       0.705643
      10.230000      -0.357853       0.057912       0.714749
      10.240000      -0.355931       0.077060       0.727771
      10.250000      -0.353434       0.097440       0.744346
      10.260000      -0.350918       0.118810       0.763914
      10.270000      -0.348845       0.140866       0.785791
      10.280000      -0.347472       0.163257       0.809247
      10.290000      -0.346795       0.185575       0.833571
      10.300000      -0.346572       0.207345       0.858109
      10.310000      -0.346398       0.228038       0.882271
      10.320000      -0.345810       0.247117       0.905511
      10.330000      -0.344390       0.264114       0.927302
      10.340000      -0.341829       0.278704       0.947119
      10.350000      -0.337958       0.290780       0.964444
      10.360000      -0.332744       0.300494       0.978800
      10.370000      -0.326250       0.308271       0.989801
      10.380000      -0.318594       0.314778       0.997225
      10.390000      -0.309907       0.320823       1.001052
      10.400000      -0.300297       0.327215       1.001469
      10.410000      -0.289835       0.334621       0.998812
      10.420000      -0.278547       0.343472       0.993469
      10.430000      -0.266439       0.353949       0.985802
      10.440000      -0.253522       0.366027       0.976110
      10.450000      -0.239849       0.379552       0.964679
      10.460000      -0.225542       0.394302       0.951870
      10.470000      -0.210797       0.410012       0.938203
      10.480000      -0.195875       0.426372       0.924373
      10.490000      -0.181070       0.443030       0.911166
      10.500000      -0.166658       0.459616       0.899299
      10.510000      -0.152848       0.475791       0.889247
      10.520000      -0.139745       0.491294       0.881130
      10.530000      -0.127343       0.505960       0.874701
      10.540000      -0.115545       0.519686       0.869422
      10.550000      -0.104210       0.532373       0.864581
      10.560000      -0.093203       0.543856       0.859385
      10.570000      -0.082436       0.553864       0.852980
      10.580000      -0.071876       0.562039       0.844403
      10.590000      -0.061519       0.568006       0.832512
      10.600000      -0.051346       0.571501       0.815959
      10.610000      -0.041287       0.572513       0.793284
      10.620000      -0.031211       0.571392       0.763112
      10.630000      -0.020953       0.568891       0.724423
      10.640000      -0.010371       0.566089       0.676796
      10.650000       0.000585       0.564235       0.620550
      10.660000       0.011814       0.564526       0.556712
      10.670000       0.023017       0.567895       0.486842
      10.680000       0.033682       0.574868       0.412749
      10.690000       0.043093       0.585520       0.336206
      10.700000       0.050379       0.599534       0.258739
      10.710000       0.054603       0.616336       0.181519
      10.720000       0.054878       0.635246       0.105389
      10.730000       0.050508       0.655613       0.030961
      10.740000       0.041139       0.676896      -0.041237
      10.750000       0.026856       0.698675      -0.110616
      10.760000       0.008226       0.720613      -0.176440
      10.770000      -0.013767       0.742394      -0.237809
      10.780000      -0.037853       0.763685      -0.293718
      10.790000      -0.062648       0.784141      -0.343174
      10.800000      -0.086802       0.803436      -0.385328
      10.810000      -0.109116       0.821306      -0.419580
      10.820000      -0.128603       0.837576      -0.445651
      10.830000      -0.144520       0.852171      -0.463584
      10.840000      -0.156381       0.865104      -0.473734
      10.850000      -0.163959       0.876472      -0.476750
      10.860000      -0.167274       0.886440      -0.473564
      10.870000      -0.166562       0.895233      -0.465376
      10.880000      -0.162229       0.903109      -0.453619
      10.890000      -0.154790       0.910338      -0.439873
      10.900000      -0.144794       0.917187      -0.425735
      10.910000      -0.132770       0.923924      -0.412666
      10.920000      -0.119182       0.930809      -0.401844
      10.930000      -0.104414       0.938070      -0.394058
      10.940000      -0.088783       0.945848      -0.389643
      10.950000      -0.072553       0.954137      -0.388486
      10.960000      -0.055959       0.962742      -0.390099
      10.970000      -0.039214       0.971289      -0.393765
      10.980000      -0.022518       0.979274      -0.398741
      10.990000      -0.006062       0.986155      -0.404472
      11.000000       0.009962       0.991448      -0.410747
      11.010000       0.025367       0.994798      -0.417750
      11.020000       0.039962       0.996003      -0.425997
      11.030000       0.053573       0.994990      -0.436184
      11.040000       0.066048       0.991747      -0.449009
      11.050000       0.077281       0.986244      -0.465016
      11.060000       0.087226       0.978388      -0.484481
      11.070000       0.095919       0.968029      -0.507361
      11.080000       0.103482       0.955040      -0.533273
      11.090000       0.110115       0.939434      -0.561521
      11.100000       0.116068       0.921478      -0.591167
      11.110000       0.121605       0.901735      -0.621161
      11.120000       0.126966       0.881000      -0.650484
      11.130000       0.132358       0.860159      -0.678289
      11.140000       0.137962       0.840005      -0.703987
      11.150000       0.143940       0.821109      -0.727277
      11.160000       0.150448       0.803777      -0.748134
      11.170000       0.157609       0.788080      -0.766757
      11.180000       0.165482       0.773949      -0.783497
      11.190000       0.174029       0.761267      -0.798763
      11.200000       0.183094       0.749951      -0.812921
      11.210000       0.192423       0.740004      -0.826212
      11.220000       0.201695       0.731515      -0.838701
      11.230000       0.210588       0.724618      -0.850272
      11.240000       0.218841       0.719396      -0.860668
      11.250000       0.226330       0.715787      -0.869543
      11.260000       0.233106       0.713518      -0.876534
      11.270000       0.239399       0.712119      -0.881330
      11.280000       0.245568       0.710990      -0.883721
      11.290000       0.252005       0.709494      -0.883624
      11.300000       0.259038       0.707044      -0.881070
      11.310000       0.266851       0.703126      -0.876179
      11.320000       0.275454       0.697297      -0.869141
      11.330000       0.284702       0.689172      -0.860220
      11.340000       0.294361       0.678431      -0.849783
      11.350000       0.304185       0.664863      -0.838320
      11.360000       0.313981       0.648413      -0.826450
      11.370000       0.323648       0.629231      -0.814879
      11.380000       0.333172       0.607667      -0.804326
      11.390000       0.342581       0.584211      -0.795417
      11.400000       0.351889       0.559377      -0.788585
      11.410000       0.361032       0.533561      -0.784000
      11.420000       0.369833       0.506959      -0.781540
      11.430000       0.377983       0.479561      -0.780813
      11.440000       0.385060       0.451250      -0.781227
      11.450000       0.390560       0.421946      -0.782097
      11.460000       0.393963       0.391739      -0.782759
      11.470000       0.394800       0.360965      -0.782665
      11.480000       0.392745       0.330203      -0.781414
      11.490000       0.387701       0.300220      -0.778737
      11.500000       0.379878       0.271887      -0.774454
      11.510000       0.369819       0.246086      -0.768428
      11.520000       0.358345       0.223609      -0.760548
      11.530000       0.346398       0.205040      -0.750746
      11.540000       0.334832       0.190642      -0.739010
      11.550000       0.324219       0.180298      -0.725413
      11.560000       0.314756       0.173535      -0.710121
      11.570000       0.306298       0.169619      -0.693393
      11.580000       0.298500       0.167710      -0.675567
      11.590000       0.290985       0.167005      -0.657048
      11.600000       0.283497       0.166836      -0.638281
      11.610000       0.275963       0.166714      -0.619719
      11.620000       0.268485       0.166310      -0.601795
      11.630000       0.261263       0.165423      -0.584877
      11.640000       0.254498       0.163942      -0.569239
      11.650000       0.248332       0.161812      -0.555034
      11.660000       0.242832       0.159014      -0.542289
      11.670000       0.238016       0.155545      -0.530919
      11.680000       0.233893       0.151394      -0.520752
      11.690000       0.230495       0.146557      -0.511552
      11.700000       0.227858       0.141063      -0.503030
      11.710000       0.225980       0.135015      -0.494871
      11.720000       0.224761       0.128590      -0.486741
      11.730000       0.223965       0.121997      -0.478322
      11.740000       0.223229       0.115391      -0.469335
      11.750000       0.222107       0.108808      -0.459587
      11.760000       0.220153       0.102145      -0.448989
      11.770000       0.216997       0.095224      -0.437581
      11.780000       0.212422       0.087916      -0.425517
      11.790000       0.206396       0.080306      -0.413046
      11.800000       0.199082       0.072796      -0.400477
      11.810000       0.190791       0.066102      -0.388147
      11.820000       0.181906       0.061111      -0.376387
      11.830000       0.172794       0.058648      -0.365485
      11.840000       0.163759       0.059246      -0.355635
      11.850000       0.155033       0.062985      -0.346899
      11.860000       0.146815       0.069461      -0.339176
      11.870000       0.139327       0.077854      -0.332213
      11.880000       0.132829       0.087071      -0.325647
      11.890000       0.127608       0.095916      -0.319073
      11.900000       0.123911       0.103238      -0.312129
      11.910000       0.121884       0.108056      -0.304549
      11.920000       0.121534       0.109646      -0.296199
      11.930000       0.122722       0.107605      -0.287072
      11.940000       0.125196       0.101898      -0.277254
      11.950000       0.128637       0.092893      -0.266893
      11.960000       0.132708       0.081342      -0.256160
      11.970000       0.137086       0.068304      -0.245226
      11.980000       0.141483       0.054977      -0.234253
      11.990000       0.145644       0.042489      -0.223373
      12.000000       0.149336       0.031718      -0.212681
      12.010000       0.152344       0.023189      -0.202226
      12.020000       0.154466       0.017064      -0.192012
      12.030000       0.155529       0.013210      -0.182014
      12.040000       0.155406       0.011303      -0.172200
      12.050000       0.154032       0.010948      -0.162549
      12.060000       0.151423       0.011789      -0.153063
      12.070000       0.147694       0.013597      -0.143774
      12.080000       0.143055       0.016299      -0.134743
      12.090000       0.137785       0.019955      -0.126053
      12.100000       0.132194       0.024687      -0.117809
      12.110000       0.126584       0.030592      -0.110127
      12.120000       0.121225       0.037660      -0.103149
      12.130000       0.116358       0.045726      -0.097041
      12.140000       0.112190       0.054444      -0.091986
      12.150000       0.108900       0.063302      -0.088163
      12.160000       0.106631       0.071658      -0.085701
      12.170000       0.105480       0.078816      -0.084635
      12.180000       0.105496       0.084133      -0.084868
      12.190000       0.106674       0.087137      -0.086164
      12.200000       0.108939       0.087617      -0.088179
      12.210000       0.112139       0.085674      -0.090523
      12.220000       0.116043       0.081714      -0.092835
      12.230000       0.120344       0.076376      -0.094850
      12.240000       0.124676       0.070436      -0.096424
      12.250000       0.128632       0.064684      -0.097533
      12.260000       0.131779       0.059797      -0.098233
      12.270000       0.133696       0.056243      -0.098616
      12.280000       0.134006       0.054223      -0.098758
      12.290000       0.132441       0.053649      -0.098696
      12.300000       0.128896       0.054167      -0.098412
      12.310000       0.123465       0.055217      -0.097844
      12.320000       0.116444       0.056111      -0.096906
      12.330000       0.108276       0.056123      -0.095517
      12.340000       0.099472       0.054584      -0.093629
      12.350000       0.090526       0.050949      -0.091244
      12.360000       0.081853       0.044836      -0.088418
      12.370000       0.073769       0.036027      -0.085246
      12.380000       0.066495       0.024457      -0.081843
      12.390000       0.060158       0.010206      -0.078305
      12.400000       0.054789      -0.006484      -0.074690
      12.410000       0.050335      -0.025179      -0.070995
      12.420000       0.046679      -0.045243      -0.067155
      12.430000       0.043697      -0.065865      -0.063056
      12.440000       0.041307      -0.086135      -0.058562
      12.450000       0.039497      -0.105151      -0.053554
      12.460000       0.038308      -0.122113      -0.047955
      12.470000       0.037780      -0.136400      -0.041759
      12.480000       0.037890      -0.147615      -0.035032
      12.490000       0.038518      -0.155595      -0.027906
      12.500000       0.039461      -0.160409      -0.020557
      12.510000       0.040505      -0.162316      -0.013181
      12.520000       0.041508      -0.161718      -0.005977
      12.530000       0.042480      -0.159081       0.000877
      12.540000       0.043600      -0.154853       0.007242
      12.550000       0.045183      -0.149394       0.013037
      12.560000       0.047595      -0.142936       0.018252
      12.570000       0.051157      -0.135588       0.022943
      12.580000       0.056067      -0.127376       0.027221
      12.590000       0.062370      -0.118303       0.031227
      12.600000       0.069965      -0.108405       0.035103
      12.610000       0.078638      -0.097769       0.038979
      12.620000       0.088118      -0.086528       0.042949
      12.630000       0.098126      -0.074832       0.047073
      12.640000       0.108412      -0.062804       0.051380
      12.650000       0.118764      -0.050522       0.055873
      12.660000       0.129003      -0.038002       0.060552
      12.670000       0.138971      -0.025208       0.065421
      12.680000       0.148518      -0.012076       0.070494
      12.690000       0.157504       0.001444       0.075794
      12.700000       0.165798       0.015346       0.081339
      12.710000       0.173285       0.029538       0.087138
      12.720000       0.179862       0.043823       0.093184
      12.730000       0.185445       0.057921       0.099458
      12.740000       0.189972       0.071489       0.105940
      12.750000       0.193415       0.084165       0.112612
      12.760000       0.195782       0.095607       0.119460
      12.770000       0.197124       0.105530       0.126469
      12.780000       0.197509       0.113745       0.133619
      12.790000       0.197013       0.120167       0.140885
      12.800000       0.195700       0.124808       0.148234
      12.810000       0.193616       0.127728       0.155629
      12.820000       0.190785       0.128972       0.163028
      12.830000       0.187217       0.128504       0.170383
      12.840000       0.182910       0.126174       0.177639
      12.850000       0.177873       0.121741       0.184730
      12.860000       0.172133       0.114935       0.191584
      12.870000       0.165750       0.105543       0.198122
      12.880000       0.158814       0.093486       0.204268
      12.890000       0.151444       0.078885       0.209952
      12.900000       0.143782       0.062094       0.215117
      12.910000       0.135986       0.043729       0.219723
      12.920000       0.128233       0.024658       0.223750
      12.930000       0.120713       0.005934       0.227206
      12.940000       0.113635      -0.011330       0.230123
      12.950000       0.107228      -0.026133       0.232558
      12.960000       0.101731      -0.037735       0.234602
      12.970000       0.097385      -0.045750       0.236376
      12.980000       0.094402      -0.050155       0.238030
      12.990000       0.092934      -0.051224       0.239720
      13.000000       0.093045      -0.049435       0.241585
      13.010000       0.094700      -0.045371       0.243719
      13.020000       0.097768      -0.039637       0.246159
      13.030000       0.102047      -0.032815       0.248886
      13.040000       0.107288      -0.025441       0.251854
      13.050000       0.113224      -0.017994       0.255005
      13.060000       0.119598      -0.010876       0.258301
      13.070000       0.126188      -0.004392       0.261730
      13.080000       0.132819       0.001286       0.265306
      13.090000       0.139360       0.006131       0.269059
      13.100000       0.145720       0.010270       0.273026
      13.110000       0.151834       0.013951       0.277230
      13.120000       0.157660       0.017496       0.281679
      13.130000       0.163186       0.021228       0.286359
      13.140000       0.168437       0.025404       0.291241
      13.150000       0.173489       0.030170       0.296280
      13.160000       0.178455       0.035524       0.301425
      13.170000       0.183468       0.041328       0.306623
      13.180000       0.188660       0.047335       0.311829
      13.190000       0.194121       0.053242       0.317007
      13.200000       0.199881       0.058765       0.322142
      13.210000       0.205895       0.063714       0.327228
      13.220000       0.212049       0.068046       0.332272
      13.230000       0.218192       0.071879       0.337282
      13.240000       0.224159       0.075454       0.342266
      13.250000       0.229806       0.079061       0.347223
      13.260000       0.235027       0.082958       0.352144
      13.270000       0.239757       0.087309       0.357010
      13.280000       0.243981       0.092158       0.361800
      13.290000       0.247727       0.097433       0.366499
      13.300000       0.251054       0.102976       0.371099
      13.310000       0.254030       0.108594       0.375605
      13.320000       0.256702       0.114093       0.380025
      13.330000       0.259068       0.119308       0.384368
      13.340000       0.261058       0.124109       0.388636
      13.350000       0.262542       0.128389       0.392822
      13.360000       0.263357       0.132052       0.396907
      13.370000       0.263354       0.135018       0.400872
      13.380000       0.262449       0.137224       0.404699
      13.390000       0.260669       0.138639       0.408383
      13.400000       0.258170       0.139256       0.411942
      13.410000       0.255221       0.139078       0.415413
      13.420000       0.252157       0.138092       0.418858
      13.430000       0.249314       0.136274       0.422354
      13.440000       0.246969       0.133614       0.425987
      13.450000       0.245303       0.130179       0.429839
      13.460000       0.244392       0.126169       0.433983
      13.470000       0.244218       0.121943       0.438472
      13.480000       0.244677       0.117996       0.443336
      13.490000       0.245593       0.114876       0.448579
      13.500000       0.246728       0.113079       0.454188
      13.510000       0.247799       0.112954       0.460130
      13.520000       0.248515       0.114636       0.466369
      13.530000       0.248613       0.118038       0.472863
      13.540000       0.247899       0.122882       0.479567
      13.550000       0.246281       0.128757       0.486426
      13.560000       0.243774       0.135196       0.493380
      13.570000       0.240492       0.141745       0.500358
      13.580000       0.236607       0.148033       0.507290
      13.590000       0.232311       0.153809       0.514112
      13.600000       0.227784       0.158971       0.520778
      13.610000       0.223200       0.163553       0.527267
      13.620000       0.218733       0.167696       0.533582
      13.630000       0.214580       0.171606       0.539748
      13.640000       0.210963       0.175514       0.545804
      13.650000       0.208107       0.179649       0.551789
      13.660000       0.206202       0.184227       0.557737
      13.670000       0.205362       0.189432       0.563673
      13.680000       0.205591       0.195398       0.569611
      13.690000       0.206785       0.202173       0.575563
      13.700000       0.208759       0.209712       0.581537
      13.710000       0.211288       0.217868       0.587542
      13.720000       0.214157       0.226421       0.593588
      13.730000       0.217206       0.235114       0.599677
      13.740000       0.220349       0.243693       0.605804
      13.750000       0.223576       0.251951       0.611951
      13.760000       0.226934       0.259748       0.618091
      13.770000       0.230495       0.267021       0.624180
      13.780000       0.234327       0.273785       0.630164
      13.790000       0.238470       0.280106       0.635968
      13.800000       0.242933       0.286084       0.641494
      13.810000       0.247699       0.291819       0.646622
      13.820000       0.252729       0.297392       0.651206
      13.830000       0.257972       0.302852       0.655080
      13.840000       0.263377       0.308216       0.658071
      13.850000       0.268901       0.313468       0.660016
      13.860000       0.274520       0.318560       0.660785
      13.870000       0.280239       0.323414       0.660303
      13.880000       0.286094       0.327915       0.658563
      13.890000       0.292147       0.331923       0.655635
      13.900000       0.298462       0.335286       0.651653
      13.910000       0.305092       0.337861       0.646796
      13.920000       0.312058       0.339553       0.641259
      13.930000       0.319335       0.340334       0.635231
      13.940000       0.326859       0.340258       0.628889
      13.950000       0.334536       0.339445       0.622406
      13.960000       0.342256       0.338055       0.615971
      13.970000       0.349911       0.336244       0.609791
      13.980000       0.357412       0.334140       0.604091
      13.990000       0.364689       0.331842       0.599078
      14.000000       0.371701       0.329435       0.594904
      14.010000       0.378428       0.327025       0.591633
      14.020000       0.384861       0.324753       0.589223
      14.030000       0.390996       0.322795       0.587534
      14.040000       0.396810       0.321338       0.586359
      14.050000       0.402255       0.320542       0.585458
      14.060000       0.407246       0.320497       0.584598
      14.070000       0.411675       0.321204       0.583583
      14.080000       0.415422       0.322578       0.582260
      14.090000       0.418378       0.324486       0.580533
      14.100000       0.420466       0.326793       0.578345
      14.110000       0.421650       0.329412       0.575665
      14.120000       0.421952       0.332332       0.572473
      14.130000       0.421441       0.335609       0.568751
      14.140000       0.420230       0.339343       0.564496
      14.150000       0.418448       0.343637       0.559746
      14.160000       0.416218       0.348563       0.554604
      14.170000       0.413631       0.354140       0.549243
      14.180000       0.410737       0.360334       0.543891
      14.190000       0.407546       0.367063       0.538800
      14.200000       0.404047       0.374218       0.534195
      14.210000       0.400228       0.381667       0.530236
      14.220000       0.396088       0.389270       0.526995
      14.230000       0.391647       0.396884       0.524448
      14.240000       0.386933       0.404365       0.522494
      14.250000       0.381979       0.411575       0.520977
      14.260000       0.376809       0.418386       0.519727
      14.270000       0.371454       0.424694       0.518589
      14.280000       0.365966       0.430434       0.517446
      14.290000       0.360437       0.435596       0.516226
      14.300000       0.355005       0.440241       0.514894
      14.310000       0.349842       0.444497       0.513448
      14.320000       0.345122       0.448529       0.511910
      14.330000       0.340988       0.452504       0.510328
      14.340000       0.337527       0.456546       0.508778
      14.350000       0.334766       0.460714       0.507367
      14.360000       0.332680       0.465000       0.506220
      14.370000       0.331210       0.469339       0.505474
      14.380000       0.330286       0.473631       0.505262
      14.390000       0.329830       0.477754       0.505697
      14.400000       0.329753       0.481581       0.506862
      14.410000       0.329952       0.484994       0.508814
      14.420000       0.330313       0.487901       0.511573
      14.430000       0.330723       0.490254       0.515127
      14.440000       0.331088       0.492055       0.519436
      14.450000       0.331347       0.493358       0.524429
      14.460000       0.331473       0.494253       0.530024
      14.470000       0.331473       0.494854       0.536131
      14.480000       0.331383       0.495282       0.542666
      14.490000       0.331271       0.495650       0.549558
      14.500000       0.331233       0.496048       0.556744
      14.510000       0.331375       0.496536       0.564168
      14.520000       0.331794       0.497147       0.571776
      14.530000       0.332543       0.497889       0.579509
      14.540000       0.333604       0.498753       0.587311
      14.550000       0.334879       0.499698       0.595130
      14.560000       0.336201       0.500650       0.602930
      14.570000       0.337360       0.501482       0.610692
      14.580000       0.338140       0.502024       0.618415
      14.590000       0.338366       0.502083       0.626102
      14.600000       0.337939       0.501490       0.633756
      14.610000       0.336857       0.500144       0.641375
      14.620000       0.335231       0.498051       0.648946
      14.630000       0.333267       0.495330       0.656454
      14.640000       0.331230       0.492189       0.663879
      14.650000       0.329394       0.488875       0.671198
      14.660000       0.327977       0.485619       0.678379
      14.670000       0.327104       0.482585       0.685372
      14.680000       0.326794       0.479862       0.692106
      14.690000       0.326974       0.477471       0.698487
      14.700000       0.327515       0.475407       0.704407
      14.710000       0.328274       0.473667       0.709748
      14.720000       0.329116       0.472268       0.714403
      14.730000       0.329944       0.471234       0.718291
      14.740000       0.330703       0.470562       0.721376
      14.750000       0.331391       0.470188       0.723681
      14.760000       0.332058       0.469974       0.725285
      14.770000       0.332801       0.469717       0.726317
      14.780000       0.333747       0.469185       0.726932
      14.790000       0.335021       0.468159       0.727298
      14.800000       0.336720       0.466468       0.727567
      14.810000       0.338880       0.464018       0.727867
      14.820000       0.341473       0.460801       0.728280
      14.830000       0.344411       0.456882       0.728831
      14.840000       0.347577       0.452380       0.729476
      14.850000       0.350854       0.447444       0.730117
      14.860000       0.354159       0.442228       0.730622
      14.870000       0.357462       0.436874       0.730859
      14.880000       0.360785       0.431519       0.730730
      14.890000       0.364190       0.426304       0.730193
      14.900000       0.367755       0.421391       0.729260
      14.910000       0.371537       0.416955       0.727994
      14.920000       0.375562       0.413164       0.726489
      14.930000       0.379799       0.410134       0.724851
      14.940000       0.384177       0.407904       0.723185
      14.950000       0.388593       0.406412       0.721600
      14.960000       0.392941       0.405508       0.720209
      14.970000       0.397135       0.404968       0.719145
      14.980000       0.401125       0.404519       0.718559
      14.990000       0.404889       0.403858       0.718607
      15.000000       0.408422       0.402690       0.719427
      15.010000       0.411712       0.400767       0.721111
      15.020000       0.414722       0.397933       0.723678
      15.030000       0.417387       0.394165       0.727071
      15.040000       0.419627       0.389571       0.731155
      15.050000       0.421361       0.384364       0.735731
      15.060000       0.422534       0.378802       0.740545
      15.070000       0.423131       0.373125       0.745298
      15.080000       0.423193       0.367510       0.749652
      15.090000       0.422809       0.362047       0.753244
      15.100000       0.422103       0.356760       0.755698
      15.110000       0.421209       0.351630       0.756642
      15.120000       0.420242       0.346632       0.755740
      15.130000       0.419277       0.341752       0.752702
      15.140000       0.418339       0.336991       0.747314
      15.150000       0.417417       0.332365       0.739445
      15.160000       0.416479       0.327886       0.729062
      15.170000       0.415492       0.323566       0.716246
      15.180000       0.414438       0.319419       0.701203
      15.190000       0.413313       0.315477       0.684273
      15.200000       0.412120       0.311789       0.665914
      15.210000       0.410857       0.308405       0.646656
      15.220000       0.409495       0.305348       0.627036
      15.230000       0.407975       0.302589       0.607533
      15.240000       0.406214       0.300040       0.588517
      15.250000       0.404109       0.297578       0.570226
      15.260000       0.401568       0.295079       0.552781
      15.270000       0.398524       0.292461       0.536219
      15.280000       0.394959       0.289709       0.520524
      15.290000       0.390924       0.286866       0.505676
      15.300000       0.386547       0.284007       0.491676
      15.310000       0.382025       0.281210       0.478566
      15.320000       0.377597       0.278534       0.466424
      15.330000       0.373506       0.276023       0.455347
      15.340000       0.369962       0.273734       0.445417
      15.350000       0.367109       0.271754       0.436673
      15.360000       0.365017       0.270213       0.429095
      15.370000       0.363677       0.269262       0.422606
      15.380000       0.363021       0.269051       0.417097
      15.390000       0.362938       0.269687       0.412450
      15.400000       0.363305       0.271217       0.408557
      15.410000       0.364003       0.273605       0.405324
      15.420000       0.364937       0.276741       0.402663
      15.430000       0.366044       0.280457       0.400481
      15.440000       0.367287       0.284553       0.398674
      15.450000       0.368662       0.288816       0.397133
      15.460000       0.370194       0.293042       0.395754
      15.470000       0.371925       0.297046       0.394445
      15.480000       0.373909       0.300659       0.393141
      15.490000       0.376180       0.303737       0.391788
      15.500000       0.378731       0.306155       0.390335
      15.510000       0.381494       0.307811       0.388718
      15.520000       0.384334       0.308626       0.386847
      15.530000       0.387063       0.308552       0.384614
      15.540000       0.389469       0.307599       0.381907
      15.550000       0.391357       0.305846       0.378638
      15.560000       0.392588       0.303450       0.374772
      15.570000       0.393113       0.300639       0.370355
      15.580000       0.392979       0.297672       0.365531
      15.590000       0.392316       0.294804       0.360532
      15.600000       0.391296       0.292240       0.355645
      15.610000       0.390100       0.290120       0.351159
      15.620000       0.388883       0.288505       0.347314
      15.630000       0.387764       0.287404       0.344267
      15.640000       0.386828       0.286788       0.342093
      15.650000       0.386132       0.286617       0.340811
      15.660000       0.385712       0.286848       0.340414
      15.670000       0.385576       0.287438       0.340897
      15.680000       0.385703       0.288346       0.342268
      15.690000       0.386041       0.289536       0.344531
      15.700000       0.386518       0.290980       0.347679
      15.710000       0.387065       0.292659       0.351667
      15.720000       0.387647       0.294561       0.356414
      15.730000       0.388279       0.296672       0.361797
      15.740000       0.389040       0.298977       0.367669
      15.750000       0.390054       0.301456       0.373872
      15.760000       0.391463       0.304080       0.380251
      15.770000       0.393393       0.306813       0.386676
      15.780000       0.395926       0.309608       0.393046
      15.790000       0.399081       0.312412       0.399304
      15.800000       0.402818       0.315171       0.405434
      15.810000       0.407046       0.317837       0.411449
      15.820000       0.411641       0.320372       0.417374
      15.830000       0.416472       0.322742       0.423232
      15.840000       0.421415       0.324917       0.429025
      15.850000       0.426367       0.326865       0.434733
      15.860000       0.431250       0.328562       0.440319
      15.870000       0.436010       0.329987       0.445740
      15.880000       0.440604       0.331129       0.450959
      15.890000       0.444999       0.331982       0.455952
      15.900000       0.449161       0.332542       0.460711
      15.910000       0.453056       0.332801       0.465245
      15.920000       0.456657       0.332757       0.469572
      15.930000       0.459940       0.332425       0.473717
      15.940000       0.462890       0.331858       0.477705
      15.950000       0.465494       0.331154       0.481555
      15.960000       0.467741       0.330449       0.485274
      15.970000       0.469612       0.329886       0.488857
      15.980000       0.471081       0.329579       0.492286
      15.990000       0.472117       0.329597       0.495543
      16.000000       0.472692       0.329950       0.498611
      16.010000       0.472791       0.330616       0.501480
      16.020000       0.472423       0.331552       0.504149
      16.030000       0.471623       0.332719       0.506625
      16.040000       0.470452       0.334086       0.508922
      16.050000       0.468985       0.335620       0.511066
      16.060000       0.467300       0.337281       0.513098
      16.070000       0.465459       0.339015       0.515071
      16.080000       0.463502       0.340763       0.517052
      16.090000       0.461437       0.342476       0.519109
      16.100000       0.459247       0.344119       0.521308
      16.110000       0.456895       0.345676       0.523702
      16.120000       0.454346       0.347142       0.526325
      16.130000       0.451591       0.348511       0.529188
      16.140000       0.448663       0.349772       0.532278
      16.150000       0.445651       0.350907       0.535561
      16.160000       0.442684       0.351892       0.538987
      16.170000       0.439910       0.352704       0.542497
      16.180000       0.437454       0.353327       0.546031
      16.190000       0.435385       0.353747       0.549532
      16.200000       0.433700       0.353959       0.552949
      16.210000       0.432327       0.353967       0.556242
      16.220000       0.431154       0.353781       0.559381
      16.230000       0.430071       0.353422       0.562346
      16.240000       0.429004       0.352921       0.565126
      16.250000       0.427930       0.352313       0.567716
      16.260000       0.426872       0.351632       0.570127
      16.270000       0.425885       0.350908       0.572381
      16.280000       0.425032       0.350165       0.574522
      16.290000       0.424376       0.349434       0.576606
      16.300000       0.423979       0.348760       0.578698
      16.310000       0.423898       0.348210       0.580860
      16.320000       0.424183       0.347867       0.583145
      16.330000       0.424863       0.347813       0.585585
      16.340000       0.425936       0.348112       0.588193
      16.350000       0.427353       0.348792       0.590959
      16.360000       0.429030       0.349831       0.593858
      16.370000       0.430847       0.351161       0.596850
      16.380000       0.432674       0.352675       0.599889
      16.390000       0.434388       0.354250       0.602920
      16.400000       0.435889       0.355779       0.605885
      16.410000       0.437119       0.357189       0.608717
      16.420000       0.438061       0.358467       0.611342
      16.430000       0.438740       0.359648       0.613686
      16.440000       0.439209       0.360804       0.615679
      16.450000       0.439532       0.362016       0.617266
      16.460000       0.439768       0.363348       0.618417
      16.470000       0.439960       0.364836       0.619133
      16.480000       0.440129       0.366490       0.619441
      16.490000       0.440283       0.368308       0.619395
      16.500000       0.440426       0.370284       0.619062
      16.510000       0.440576       0.372426       0.618518
      16.520000       0.440774       0.374751       0.617836
      16.530000       0.441085       0.377281       0.617079
      16.540000       0.441590       0.380033       0.616297
      16.550000       0.442368       0.383009       0.615518
      16.560000       0.443473       0.386188       0.614747
      16.570000       0.444924       0.389522       0.613968
      16.580000       0.446695       0.392936       0.613148
      16.590000       0.448727       0.396335       0.612253
      16.600000       0.450933       0.399616       0.611260
      16.610000       0.453215       0.402680       0.610170
      16.620000       0.455481       0.405442       0.609017
      16.630000       0.457652       0.407849       0.607862
      16.640000       0.459671       0.409887       0.606784
      16.650000       0.461511       0.411591       0.605861
      16.660000       0.463171       0.413038       0.605168
      16.670000       0.464675       0.414338       0.604762
      16.680000       0.466063       0.415612       0.604686
      16.690000       0.467381       0.416966       0.604964
      16.700000       0.468676       0.418470       0.605599
      16.710000       0.469983       0.420143       0.606571
      16.720000       0.471320       0.421957       0.607835
      16.730000       0.472683       0.423845       0.609329
      16.740000       0.474046       0.425720       0.610976
      16.750000       0.475367       0.427497       0.612701
      16.760000       0.476599       0.429111       0.614437
      16.770000       0.477707       0.430528       0.616127
      16.780000       0.478672       0.431753       0.617729
      16.790000       0.479501       0.432821       0.619208
      16.800000       0.480220       0.433790       0.620535
      16.810000       0.480874       0.434724       0.621690
      16.820000       0.481518       0.435685       0.622658
      16.830000       0.482209       0.436716       0.623440
      16.840000       0.482999       0.437841       0.624049
      16.850000       0.483920       0.439057       0.624510
      16.860000       0.484984       0.440341       0.624856
      16.870000       0.486181       0.441655       0.625124
      16.880000       0.487488       0.442958       0.625348
      16.890000       0.488873       0.444218       0.625557
      16.900000       0.490306       0.445416       0.625786
      16.910000       0.491761       0.446551       0.626073
      16.920000       0.493215       0.447633       0.626464
      16.930000       0.494648       0.448673       0.627010
      16.940000       0.496040       0.449673       0.627759
      16.950000       0.497366       0.450625       0.628745
      16.960000       0.498594       0.451506       0.629978
      16.970000       0.499685       0.452293       0.631441
      16.980000       0.500599       0.452968       0.633092
      16.990000       0.501293       0.453532       0.634872
      17.000000       0.501736       0.453999       0.636716
      17.010000       0.501908       0.454400       0.638565
      17.020000       0.501807       0.454770       0.640372
      17.030000       0.501447       0.455145       0.642112
      17.040000       0.500853       0.455560       0.643778
      17.050000       0.500045       0.456041       0.645378
      17.060000       0.499031       0.456615       0.646936
      17.070000       0.497799       0.457301       0.648484
      17.080000       0.496320       0.458114       0.650061
      17.090000       0.494562       0.459065       0.651705
      17.100000       0.492500       0.460153       0.653452
      17.110000       0.490127       0.461369       0.655326
      17.120000       0.487447       0.462692       0.657340
      17.130000       0.484472       0.464090       0.659498
      17.140000       0.481212       0.465525       0.661793
      17.150000       0.477680       0.466953       0.664220
      17.160000       0.473894       0.468338       0.666773
      17.170000       0.469899       0.469650       0.669444
      17.180000       0.465777       0.470875       0.672231
      17.190000       0.461653       0.472013       0.675124
      17.200000       0.457684       0.473077       0.678113
      17.210000       0.454038       0.474091       0.681179
      17.220000       0.450866       0.475088       0.684301
      17.230000       0.448274       0.476105       0.687447
      17.240000       0.446314       0.477183       0.690583
      17.250000       0.444984       0.478357       0.693671
      17.260000       0.444243       0.479653       0.696670
      17.270000       0.444031       0.481079       0.699539
      17.280000       0.444279       0.482623       0.702241
      17.290000       0.444920       0.484255       0.704743
      17.300000       0.445892       0.485932       0.707024
      17.310000       0.447133       0.487602       0.709074
      17.320000       0.448590       0.489217       0.710893
      17.330000       0.450216       0.490734       0.712494
      17.340000       0.451979       0.492127       0.713895
      17.350000       0.453856       0.493380       0.715122
      17.360000       0.455832       0.494495       0.716205
      17.370000       0.457896       0.495485       0.717180
      17.380000       0.460034       0.496378       0.718084
      17.390000       0.462228       0.497212       0.718953
      17.400000       0.464453       0.498035       0.719815
      17.410000       0.466673       0.498889       0.720689
      17.420000       0.468847       0.499811       0.721577
      17.430000       0.470927       0.500823       0.722475
      17.440000       0.472870       0.501936       0.723373
      17.450000       0.474641       0.503152       0.724262
      17.460000       0.476222       0.504473       0.725144
      17.470000       0.477613       0.505900       0.726030
      17.480000       0.478835       0.507443       0.726939
      17.490000       0.479924       0.509113       0.727899
      17.500000       0.480926       0.510920       0.728933
      17.510000       0.481887       0.512863       0.730065
      17.520000       0.482847       0.514929       0.731309
      17.530000       0.483837       0.517088       0.732674
      17.540000       0.484879       0.519299       0.734163
      17.550000       0.485988       0.521522       0.735775
      17.560000       0.487177       0.523725       0.737510
      17.570000       0.488457       0.525892       0.739367
      17.580000       0.489837       0.528019       0.741348
      17.590000       0.491324       0.530110       0.743456
      17.600000       0.492916       0.532171       0.745691
      17.610000       0.494606       0.534207       0.748050
      17.620000       0.496375       0.536215       0.750524
      17.630000       0.498197       0.538191       0.753093
      17.640000       0.500043       0.540129       0.755734
      17.650000       0.501879       0.542021       0.758418
      17.660000       0.503678       0.543860       0.761114
      17.670000       0.505420       0.545637       0.763796
      17.680000       0.507096       0.547345       0.766436
      17.690000       0.508708       0.548976       0.769011
      17.700000       0.510264       0.550517       0.771503
      17.710000       0.511775       0.551950       0.773895
      17.720000       0.513250       0.553252       0.776181
      17.730000       0.514695       0.554394       0.778365
      17.740000       0.516114       0.555349       0.780464
      17.750000       0.517507       0.556095       0.782507
      17.760000       0.518877       0.556627       0.784535
      17.770000       0.520225       0.556960       0.786593
      17.780000       0.521554       0.557138       0.788723
      17.790000       0.522862       0.557217       0.790955
      17.800000       0.524145       0.557264       0.793307
      17.810000       0.525393       0.557335       0.795779
      17.820000       0.526595       0.557464       0.798358
      17.830000       0.527738       0.557656       0.801017
      17.840000       0.528809       0.557883       0.803724
      17.850000       0.529790       0.558091       0.806446
      17.860000       0.530653       0.558214       0.809153
      17.870000       0.531358       0.558184       0.811825
      17.880000       0.531850       0.557954       0.814450
      17.890000       0.532069       0.557507       0.817030
      17.900000       0.531956       0.556865       0.819575
      17.910000       0.531468       0.556086       0.822104
      17.920000       0.530591       0.555254       0.824633
      17.930000       0.529354       0.554466       0.827179
      17.940000       0.527830       0.553814       0.829748
      17.950000       0.526133       0.553373       0.832338
      17.960000       0.524397       0.553199       0.834942
      17.970000       0.522755       0.553321       0.837550
      17.980000       0.521310       0.553748       0.840154
      17.990000       0.520124       0.554463       0.842752
      18.000000       0.519210       0.555422       0.845348
      18.010000       0.518540       0.556559       0.847954
      18.020000       0.518059       0.557789       0.850589
      18.030000       0.517701       0.559017       0.853273
      18.040000       0.517407       0.560146       0.856026
      18.050000       0.517136       0.561089       0.858862
      18.060000       0.516880       0.561778       0.861789
      18.070000       0.516662       0.562178       0.864806
      18.080000       0.516530       0.562289       0.867899
      18.090000       0.516538       0.562151       0.871045
      18.100000       0.516734       0.561833       0.874210
      18.110000       0.517143       0.561424       0.877354
      18.120000       0.517765       0.561014       0.880438
      18.130000       0.518579       0.560686       0.883428
      18.140000       0.519552       0.560500       0.886297
      18.150000       0.520643       0.560493       0.889035
      18.160000       0.521816       0.560674       0.891643
      18.170000       0.523039       0.561030       0.894133
      18.180000       0.524289       0.561525       0.896525
      18.190000       0.525553       0.562107       0.898840
      18.200000       0.526826       0.562716       0.901086
      18.210000       0.528113       0.563289       0.903256
      18.220000       0.529421       0.563765       0.905326
      18.230000       0.530756       0.564093       0.907261
      18.240000       0.532120       0.564224       0.909025
      18.250000       0.533504       0.564118       0.910591
      18.260000       0.534893       0.563734       0.911948
      18.270000       0.536268       0.563040       0.913091
      18.280000       0.537608       0.562012       0.914018
      18.290000       0.538901       0.560655       0.914717
      18.300000       0.540144       0.559015       0.915159
      18.310000       0.541347       0.557184       0.915304
      18.320000       0.542531       0.555294       0.915117
      18.330000       0.543724       0.553499       0.914581
      18.340000       0.544951       0.551939       0.913713
      18.350000       0.546229       0.550720       0.912569
      18.360000       0.547563       0.549893       0.911235
      18.370000       0.548943       0.549460       0.909813
      18.380000       0.550347       0.549378       0.908404
      18.390000       0.551739       0.549577       0.907101
      18.400000       0.553080       0.549982       0.905977
      18.410000       0.554326       0.550518       0.905084
      18.420000       0.555433       0.551121       0.904450
      18.430000       0.556366       0.551743       0.904077
      18.440000       0.557101       0.552347       0.903950
      18.450000       0.557630       0.552912       0.904037
      18.460000       0.557969       0.553429       0.904302
      18.470000       0.558150       0.553911       0.904710
      18.480000       0.558224       0.554384       0.905240
      18.490000       0.558247       0.554887       0.905882
      18.500000       0.558273       0.555456       0.906636
      18.510000       0.558347       0.556114       0.907499
      18.520000       0.558504       0.556859       0.908456
      18.530000       0.558770       0.557664       0.909469
      18.540000       0.559163       0.558479       0.910488
      18.550000       0.559694       0.559240       0.911445
      18.560000       0.560365       0.559887       0.912267
      18.570000       0.561171       0.560364       0.912871
      18.580000       0.562098       0.560638       0.913172
      18.590000       0.563122       0.560694       0.913084
      18.600000       0.564209       0.560539       0.912539
      18.610000       0.565321       0.560193       0.911493
      18.620000       0.566417       0.559682       0.909942
      18.630000       0.567454       0.559026       0.907919
      18.640000       0.568400       0.558239       0.905492
      18.650000       0.569231       0.557331       0.902746
      18.660000       0.569937       0.556315       0.899771
      18.670000       0.570525       0.555215       0.896649
      18.680000       0.571008       0.554067       0.893451
      18.690000       0.571406       0.552916       0.890238
      18.700000       0.571733       0.551815       0.887060
      18.710000       0.571999       0.550822       0.883958
      18.720000       0.572209       0.549995       0.880961
      18.730000       0.572363       0.549389       0.878084
      18.740000       0.572462       0.549046       0.875330
      18.750000       0.572510       0.548991       0.872694
      18.760000       0.572516       0.549222       0.870169
      18.770000       0.572487       0.549711       0.867743
      18.780000       0.572426       0.550409       0.865396
      18.790000       0.572336       0.551252       0.863097
      18.800000       0.572217       0.552167       0.860811
      18.810000       0.572079       0.553085       0.858508
      18.820000       0.571939       0.553942       0.856182
      18.830000       0.571822       0.554689       0.853864
      18.840000       0.571759       0.555301       0.851619
      18.850000       0.571778       0.555770       0.849535
      18.860000       0.571895       0.556117       0.847696
      18.870000       0.572118       0.556377       0.846165
      18.880000       0.572443       0.556601       0.844967
      18.890000       0.572857       0.556844       0.844096
      18.900000       0.573347       0.557157       0.843533
      18.910000       0.573895       0.557575       0.843257
      18.920000       0.574488       0.558119       0.843266
      18.930000       0.575114       0.558792       0.843567
      18.940000       0.575761       0.559583       0.844168
      18.950000       0.576415       0.560472       0.845055
      18.960000       0.577061       0.561428       0.846195
      18.970000       0.577678       0.562415       0.847533
      18.980000       0.578247       0.563393       0.849011
      18.990000       0.578750       0.564329       0.850581
      19.000000       0.579176       0.565199       0.852211
      19.010000       0.579523       0.565997       0.853879
      19.020000       0.579799       0.566731       0.855565
      19.030000       0.580017       0.567421       0.857233
      19.040000       0.580198       0.568092       0.858825
      19.050000       0.580364       0.568770       0.860256
      19.060000       0.580531       0.569477       0.861424
      19.070000       0.580715       0.570229       0.862237
      19.080000       0.580925       0.571032       0.862636
      19.090000       0.581166       0.571888       0.862615
      19.100000       0.581442       0.572786       0.862224
      19.110000       0.581760       0.573715       0.861557
      19.120000       0.582127       0.574665       0.860724
      19.130000       0.582551       0.575633       0.859818
      19.140000       0.583043       0.576622       0.858888
      19.150000       0.583613       0.577649       0.857930
      19.160000       0.584269       0.578731       0.856894
      19.170000       0.585018       0.579886       0.855703
      19.180000       0.585864       0.581123       0.854282
      19.190000       0.586811       0.582440       0.852584
      19.200000       0.587856       0.583824       0.850604
      19.210000       0.588988       0.585248       0.848385
      19.220000       0.590189       0.586684       0.846004
      19.230000       0.591431       0.588103       0.843555
      19.240000       0.592680       0.589486       0.841137
      19.250000       0.593896       0.590825       0.838833
      19.260000       0.595043       0.592125       0.836705
      19.270000       0.596089       0.593398       0.834781
      19.280000       0.597013       0.594661       0.833058
      19.290000       0.597803       0.595929       0.831508
      19.300000       0.598464       0.597212       0.830093
      19.310000       0.599010       0.598514       0.828782
      19.320000       0.599464       0.599832       0.827569
      19.330000       0.599853       0.601159       0.826475
      19.340000       0.600206       0.602488       0.825543
      19.350000       0.600543       0.603809       0.824834
      19.360000       0.600877       0.605115       0.824412
      19.370000       0.601203       0.606400       0.824326
      19.380000       0.601511       0.607661       0.824602
      19.390000       0.601787       0.608899       0.825223
      19.400000       0.602019       0.610115       0.826127
      19.410000       0.602210       0.611315       0.827212
      19.420000       0.602372       0.612506       0.828350
      19.430000       0.602525       0.613691       0.829409
      19.440000       0.602691       0.614875       0.830276
      19.450000       0.602887       0.616056       0.830884
      19.460000       0.603121       0.617229       0.831220
      19.470000       0.603395       0.618385       0.831327
      19.480000       0.603707       0.619513       0.831292
      19.490000       0.604059       0.620606       0.831220
      19.500000       0.604456       0.621659       0.831206
      19.510000       0.604909       0.622670       0.831313
      19.520000       0.605429       0.623641       0.831573
      19.530000       0.606022       0.624577       0.831985
      19.540000       0.606690       0.625481       0.832540
      19.550000       0.607429       0.626356       0.833226
      19.560000       0.608229       0.627203       0.834036
      19.570000       0.609076       0.628024       0.834969
      19.580000       0.609959       0.628818       0.836029
      19.590000       0.610866       0.629584       0.837230
      19.600000       0.611789       0.630319       0.838601
      19.610000       0.612719       0.631021       0.840189
      19.620000       0.613653       0.631690       0.842051
      19.630000       0.614587       0.632330       0.844237
      19.640000       0.615516       0.632949       0.846767
      19.650000       0.616437       0.633556       0.849609
      19.660000       0.617344       0.634160       0.852683
      19.670000       0.618232       0.634772       0.855859
      19.680000       0.619102       0.635398       0.858984
      19.690000       0.619962       0.636048       0.861908
      19.700000       0.620827       0.636729       0.864512
      19.710000       0.621715       0.637447       0.866718
      19.720000       0.622646       0.638202       0.868501
      19.730000       0.623630       0.638983       0.869878
      19.740000       0.624672       0.639768       0.870902
      19.750000       0.625765       0.640525       0.871638
      19.760000       0.626893       0.641214       0.872153
      19.770000       0.628033       0.641794       0.872495
      19.780000       0.629159       0.642229       0.872697
      19.790000       0.630246       0.642494       0.872767
      19.800000       0.631271       0.642576       0.872699
      19.810000       0.632216       0.642481       0.872490
      19.820000       0.633068       0.642233       0.872148
      19.830000       0.633818       0.641870       0.871708
      19.840000       0.634464       0.641440       0.871233
      19.850000       0.635008       0.640994       0.870814
      19.860000       0.635462       0.640578       0.870554
      19.870000       0.635844       0.640231       0.870549
      19.880000       0.636176       0.639984       0.870868
      19.890000       0.636489       0.639858       0.871533
      19.900000       0.636811       0.639867       0.872514
      19.910000       0.637166       0.640016       0.873728
      19.920000       0.637572       0.640304       0.875053
      19.930000       0.638036       0.640719       0.876343
      19.940000       0.638559       0.641237       0.877435
      19.950000       0.639134       0.641828       0.878155
      19.960000       0.639750       0.642452       0.878325
      19.970000       0.640395       0.643071       0.877767
      19.980000       0.641050       0.643648       0.876318
      19.990000       0.641694       0.644155       0.873849
      20.000000       0.642306       0.644576       0.870289
