  # energy grid [eV]     epsi_x  epsi_y  epsi_z
       0.000000            NaN            NaN            NaN
       0.010000       0.000133       0.000013       0.000176
       0.020000       0.000266       0.000025       0.000352
       0.030000       0.000400       0.000038       0.000528
       0.040000       0.000533       0.000050       0.000706
       0.050000       0.000666       0.000063       0.000884
       0.060000       0.000800       0.000076       0.001064
       0.070000       0.000933       0.000088       0.001245
       0.080000       0.001066       0.000101       0.001429
       0.090000       0.001200       0.000113       0.001615
       0.100000       0.001333       0.000126       0.001803
       0.110000       0.001467       0.000139       0.001994
       0.120000       0.001601       0.000151       0.002189
       0.130000       0.001734       0.000164       0.002388
       0.140000       0.001868       0.000177       0.002591
       0.150000       0.002002       0.000189       0.002798
       0.160000       0.002136       0.000202       0.003011
       0.170000       0.002270       0.000214       0.003229
       0.180000       0.002404       0.000227       0.003454
       0.190000       0.002538       0.000240       0.003686
       0.200000       0.002673       0.000252       0.003926
       0.210000       0.002807       0.000265       0.004174
       0.220000       0.002942       0.000278       0.004432
       0.230000       0.003077       0.000290       0.004700
       0.240000       0.003212       0.000303       0.004980
       0.250000       0.003347       0.000316       0.005273
       0.260000       0.003482       0.000328       0.005580
       0.270000       0.003617       0.000341       0.005902
       0.280000       0.003753       0.000354       0.006242
       0.290000       0.003888       0.000366       0.006602
       0.300000       0.004024       0.000379       0.006983
       0.310000       0.004160       0.000392       0.007388
       0.320000       0.004297       0.000404       0.007820
       0.330000       0.004433       0.000417       0.008283
       0.340000       0.004570       0.000430       0.008780
       0.350000       0.004707       0.000443       0.009315
       0.360000       0.004844       0.000455       0.009893
       0.370000       0.004981       0.000468       0.010520
       0.380000       0.005119       0.000481       0.011203
       0.390000       0.005256       0.000493       0.011948
       0.400000       0.005395       0.000506       0.012765
       0.410000       0.005533       0.000519       0.013663
       0.420000       0.005671       0.000532       0.014654
       0.430000       0.005810       0.000545       0.015751
       0.440000       0.005949       0.000557       0.016968
       0.450000       0.006089       0.000570       0.018321
       0.460000       0.006228       0.000583       0.019829
       0.470000       0.006368       0.000596       0.021510
       0.480000       0.006509       0.000609       0.023384
       0.490000       0.006649       0.000621       0.025468
       0.500000       0.006790       0.000634       0.027777
       0.510000       0.006931       0.000647       0.030318
       0.520000       0.007073       0.000660       0.033081
       0.530000       0.007215       0.000673       0.036040
       0.540000       0.007357       0.000686       0.039136
       0.550000       0.007500       0.000699       0.042268
       0.560000       0.007643       0.000712       0.045296
       0.570000       0.007786       0.000724       0.048034
       0.580000       0.007930       0.000737       0.050274
       0.590000       0.008074       0.000750       0.051817
       0.600000       0.008218       0.000763       0.052514
       0.610000       0.008363       0.000776       0.052303
       0.620000       0.008508       0.000789       0.051229
       0.630000       0.008653       0.000802       0.049429
       0.640000       0.008799       0.000815       0.047097
       0.650000       0.008945       0.000828       0.044443
       0.660000       0.009092       0.000841       0.041657
       0.670000       0.009239       0.000854       0.038891
       0.680000       0.009386       0.000867       0.036251
       0.690000       0.009534       0.000880       0.033801
       0.700000       0.009683       0.000894       0.031577
       0.710000       0.009832       0.000907       0.029589
       0.720000       0.009981       0.000920       0.027833
       0.730000       0.010131       0.000933       0.026297
       0.740000       0.010281       0.000946       0.024963
       0.750000       0.010432       0.000959       0.023814
       0.760000       0.010584       0.000972       0.022831
       0.770000       0.010736       0.000986       0.021997
       0.780000       0.010888       0.000999       0.021296
       0.790000       0.011041       0.001012       0.020715
       0.800000       0.011195       0.001025       0.020241
       0.810000       0.011349       0.001038       0.019865
       0.820000       0.011504       0.001052       0.019577
       0.830000       0.011659       0.001065       0.019371
       0.840000       0.011815       0.001078       0.019240
       0.850000       0.011972       0.001092       0.019180
       0.860000       0.012129       0.001105       0.019188
       0.870000       0.012287       0.001118       0.019260
       0.880000       0.012445       0.001132       0.019396
       0.890000       0.012604       0.001145       0.019594
       0.900000       0.012764       0.001159       0.019855
       0.910000       0.012924       0.001172       0.020180
       0.920000       0.013085       0.001185       0.020571
       0.930000       0.013247       0.001199       0.021030
       0.940000       0.013409       0.001212       0.021563
       0.950000       0.013572       0.001226       0.022174
       0.960000       0.013736       0.001240       0.022869
       0.970000       0.013900       0.001253       0.023656
       0.980000       0.014065       0.001267       0.024544
       0.990000       0.014231       0.001280       0.025545
       1.000000       0.014398       0.001294       0.026669
       1.010000       0.014566       0.001308       0.027934
       1.020000       0.014734       0.001321       0.029356
       1.030000       0.014903       0.001335       0.030954
       1.040000       0.015073       0.001349       0.032752
       1.050000       0.015243       0.001362       0.034776
       1.060000       0.015415       0.001376       0.037053
       1.070000       0.015587       0.001390       0.039614
       1.080000       0.015760       0.001404       0.042491
       1.090000       0.015934       0.001417       0.045714
       1.100000       0.016109       0.001431       0.049307
       1.110000       0.016285       0.001445       0.053286
       1.120000       0.016461       0.001459       0.057643
       1.130000       0.016639       0.001473       0.062343
       1.140000       0.016817       0.001487       0.067303
       1.150000       0.016997       0.001501       0.072378
       1.160000       0.017177       0.001515       0.077355
       1.170000       0.017358       0.001529       0.081949
       1.180000       0.017540       0.001543       0.085827
       1.190000       0.017724       0.001557       0.088653
       1.200000       0.017908       0.001571       0.090153
       1.210000       0.018093       0.001585       0.090181
       1.220000       0.018280       0.001599       0.088752
       1.230000       0.018467       0.001614       0.086044
       1.240000       0.018655       0.001628       0.082348
       1.250000       0.018845       0.001642       0.078005
       1.260000       0.019035       0.001656       0.073341
       1.270000       0.019227       0.001671       0.068628
       1.280000       0.019420       0.001685       0.064067
       1.290000       0.019614       0.001699       0.059789
       1.300000       0.019809       0.001714       0.055866
       1.310000       0.020005       0.001728       0.052330
       1.320000       0.020203       0.001743       0.049182
       1.330000       0.020402       0.001757       0.046406
       1.340000       0.020602       0.001772       0.043975
       1.350000       0.020803       0.001786       0.041860
       1.360000       0.021005       0.001801       0.040031
       1.370000       0.021209       0.001815       0.038457
       1.380000       0.021414       0.001830       0.037111
       1.390000       0.021620       0.001845       0.035970
       1.400000       0.021828       0.001859       0.035012
       1.410000       0.022037       0.001874       0.034220
       1.420000       0.022248       0.001889       0.033576
       1.430000       0.022460       0.001904       0.033068
       1.440000       0.022673       0.001919       0.032686
       1.450000       0.022888       0.001933       0.032420
       1.460000       0.023104       0.001948       0.032263
       1.470000       0.023322       0.001963       0.032210
       1.480000       0.023541       0.001978       0.032257
       1.490000       0.023761       0.001993       0.032403
       1.500000       0.023984       0.002008       0.032645
       1.510000       0.024208       0.002024       0.032985
       1.520000       0.024433       0.002039       0.033425
       1.530000       0.024660       0.002054       0.033968
       1.540000       0.024889       0.002069       0.034619
       1.550000       0.025119       0.002084       0.035384
       1.560000       0.025351       0.002100       0.036273
       1.570000       0.025585       0.002115       0.037294
       1.580000       0.025821       0.002130       0.038461
       1.590000       0.026058       0.002146       0.039789
       1.600000       0.026297       0.002161       0.041295
       1.610000       0.026538       0.002177       0.043000
       1.620000       0.026781       0.002192       0.044927
       1.630000       0.027026       0.002208       0.047104
       1.640000       0.027272       0.002223       0.049562
       1.650000       0.027521       0.002239       0.052335
       1.660000       0.027772       0.002255       0.055460
       1.670000       0.028024       0.002271       0.058976
       1.680000       0.028279       0.002286       0.062920
       1.690000       0.028536       0.002302       0.067324
       1.700000       0.028794       0.002318       0.072206
       1.710000       0.029055       0.002334       0.077564
       1.720000       0.029318       0.002350       0.083358
       1.730000       0.029584       0.002366       0.089496
       1.740000       0.029851       0.002382       0.095814
       1.750000       0.030121       0.002398       0.102068
       1.760000       0.030393       0.002414       0.107928
       1.770000       0.030667       0.002431       0.113004
       1.780000       0.030944       0.002447       0.116894
       1.790000       0.031224       0.002463       0.119251
       1.800000       0.031505       0.002479       0.119860
       1.810000       0.031790       0.002496       0.118686
       1.820000       0.032076       0.002512       0.115885
       1.830000       0.032366       0.002529       0.111764
       1.840000       0.032658       0.002545       0.106713
       1.850000       0.032952       0.002562       0.101136
       1.860000       0.033250       0.002579       0.095386
       1.870000       0.033550       0.002595       0.089742
       1.880000       0.033853       0.002612       0.084396
       1.890000       0.034158       0.002629       0.079466
       1.900000       0.034467       0.002646       0.075010
       1.910000       0.034779       0.002663       0.071043
       1.920000       0.035093       0.002680       0.067555
       1.930000       0.035411       0.002697       0.064519
       1.940000       0.035732       0.002714       0.061901
       1.950000       0.036056       0.002731       0.059664
       1.960000       0.036383       0.002749       0.057772
       1.970000       0.036713       0.002766       0.056190
       1.980000       0.037047       0.002783       0.054889
       1.990000       0.037384       0.002801       0.053843
       2.000000       0.037725       0.002818       0.053028
       2.010000       0.038069       0.002836       0.052425
       2.020000       0.038416       0.002853       0.052019
       2.030000       0.038768       0.002871       0.051798
       2.040000       0.039123       0.002889       0.051751
       2.050000       0.039481       0.002906       0.051871
       2.060000       0.039844       0.002924       0.052156
       2.070000       0.040210       0.002942       0.052602
       2.080000       0.040581       0.002960       0.053210
       2.090000       0.040955       0.002978       0.053983
       2.100000       0.041334       0.002996       0.054928
       2.110000       0.041717       0.003015       0.056051
       2.120000       0.042104       0.003033       0.057365
       2.130000       0.042495       0.003051       0.058882
       2.140000       0.042891       0.003070       0.060620
       2.150000       0.043292       0.003088       0.062599
       2.160000       0.043697       0.003107       0.064845
       2.170000       0.044107       0.003125       0.067385
       2.180000       0.044521       0.003144       0.070254
       2.190000       0.044941       0.003163       0.073491
       2.200000       0.045365       0.003182       0.077138
       2.210000       0.045795       0.003201       0.081244
       2.220000       0.046230       0.003220       0.085859
       2.230000       0.046670       0.003239       0.091038
       2.240000       0.047115       0.003258       0.096828
       2.250000       0.047566       0.003277       0.103271
       2.260000       0.048023       0.003297       0.110386
       2.270000       0.048485       0.003316       0.118160
       2.280000       0.048953       0.003336       0.126527
       2.290000       0.049427       0.003355       0.135348
       2.300000       0.049908       0.003375       0.144393
       2.310000       0.050394       0.003395       0.153329
       2.320000       0.050887       0.003415       0.161728
       2.330000       0.051387       0.003435       0.169103
       2.340000       0.051893       0.003455       0.174962
       2.350000       0.052406       0.003475       0.178892
       2.360000       0.052925       0.003495       0.180621
       2.370000       0.053452       0.003515       0.180078
       2.380000       0.053987       0.003536       0.177398
       2.390000       0.054528       0.003556       0.172903
       2.400000       0.055077       0.003577       0.167037
       2.410000       0.055634       0.003598       0.160299
       2.420000       0.056199       0.003619       0.153171
       2.430000       0.056772       0.003639       0.146062
       2.440000       0.057354       0.003661       0.139287
       2.450000       0.057944       0.003682       0.133063
       2.460000       0.058542       0.003703       0.127519
       2.470000       0.059150       0.003724       0.122720
       2.480000       0.059766       0.003746       0.118682
       2.490000       0.060392       0.003767       0.115393
       2.500000       0.061028       0.003789       0.112827
       2.510000       0.061673       0.003811       0.110950
       2.520000       0.062329       0.003833       0.109728
       2.530000       0.062995       0.003855       0.109132
       2.540000       0.063671       0.003877       0.109139
       2.550000       0.064358       0.003899       0.109733
       2.560000       0.065057       0.003922       0.110907
       2.570000       0.065766       0.003944       0.112658
       2.580000       0.066488       0.003967       0.114993
       2.590000       0.067221       0.003990       0.117921
       2.600000       0.067967       0.004012       0.121455
       2.610000       0.068726       0.004036       0.125605
       2.620000       0.069497       0.004059       0.130377
       2.630000       0.070282       0.004082       0.135762
       2.640000       0.071081       0.004105       0.141734
       2.650000       0.071894       0.004129       0.148244
       2.660000       0.072721       0.004153       0.155221
       2.670000       0.073563       0.004177       0.162580
       2.680000       0.074421       0.004201       0.170243
       2.690000       0.075294       0.004225       0.178161
       2.700000       0.076184       0.004249       0.186334
       2.710000       0.077091       0.004274       0.194816
       2.720000       0.078014       0.004298       0.203695
       2.730000       0.078956       0.004323       0.213063
       2.740000       0.079916       0.004348       0.222976
       2.750000       0.080894       0.004373       0.233430
       2.760000       0.081892       0.004399       0.244358
       2.770000       0.082911       0.004424       0.255661
       2.780000       0.083949       0.004450       0.267244
       2.790000       0.085010       0.004476       0.279058
       2.800000       0.086092       0.004502       0.291103
       2.810000       0.087197       0.004528       0.303401
       2.820000       0.088326       0.004555       0.315928
       2.830000       0.089479       0.004581       0.328553
       2.840000       0.090657       0.004608       0.340997
       2.850000       0.091861       0.004635       0.352849
       2.860000       0.093092       0.004662       0.363623
       2.870000       0.094351       0.004690       0.372841
       2.880000       0.095639       0.004717       0.380121
       2.890000       0.096957       0.004745       0.385230
       2.900000       0.098306       0.004774       0.388107
       2.910000       0.099687       0.004802       0.388841
       2.920000       0.101101       0.004830       0.387643
       2.930000       0.102550       0.004859       0.384805
       2.940000       0.104035       0.004888       0.380668
       2.950000       0.105557       0.004918       0.375600
       2.960000       0.107117       0.004947       0.369973
       2.970000       0.108719       0.004977       0.364149
       2.980000       0.110362       0.005007       0.358455
       2.990000       0.112048       0.005038       0.353152
       3.000000       0.113781       0.005069       0.348402
       3.010000       0.115560       0.005100       0.344247
       3.020000       0.117389       0.005131       0.340625
       3.030000       0.119270       0.005163       0.337415
       3.040000       0.121204       0.005195       0.334508
       3.050000       0.123195       0.005227       0.331864
       3.060000       0.125244       0.005260       0.329536
       3.070000       0.127355       0.005293       0.327645
       3.080000       0.129530       0.005326       0.326330
       3.090000       0.131772       0.005360       0.325696
       3.100000       0.134085       0.005394       0.325787
       3.110000       0.136472       0.005429       0.326590
       3.120000       0.138936       0.005464       0.328076
       3.130000       0.141482       0.005499       0.330235
       3.140000       0.144114       0.005535       0.333098
       3.150000       0.146836       0.005571       0.336742
       3.160000       0.149654       0.005608       0.341263
       3.170000       0.152571       0.005646       0.346752
       3.180000       0.155594       0.005683       0.353261
       3.190000       0.158729       0.005722       0.360787
       3.200000       0.161982       0.005761       0.369259
       3.210000       0.165359       0.005800       0.378551
       3.220000       0.168869       0.005840       0.388523
       3.230000       0.172518       0.005881       0.399062
       3.240000       0.176317       0.005922       0.410132
       3.250000       0.180273       0.005965       0.421795
       3.260000       0.184398       0.006007       0.434214
       3.270000       0.188702       0.006051       0.447616
       3.280000       0.193197       0.006095       0.462223
       3.290000       0.197896       0.006141       0.478171
       3.300000       0.202813       0.006187       0.495426
       3.310000       0.207964       0.006234       0.513726
       3.320000       0.213365       0.006282       0.532569
       3.330000       0.219036       0.006331       0.551262
       3.340000       0.224997       0.006381       0.569012
       3.350000       0.231269       0.006432       0.585047
       3.360000       0.237879       0.006485       0.598734
       3.370000       0.244854       0.006538       0.609638
       3.380000       0.252223       0.006593       0.617541
       3.390000       0.260022       0.006650       0.622387
       3.400000       0.268286       0.006708       0.624219
       3.410000       0.277059       0.006768       0.623114
       3.420000       0.286387       0.006830       0.619166
       3.430000       0.296323       0.006893       0.612515
       3.440000       0.306926       0.006959       0.603388
       3.450000       0.318262       0.007027       0.592136
       3.460000       0.330407       0.007097       0.579217
       3.470000       0.343445       0.007171       0.565138
       3.480000       0.357472       0.007246       0.550376
       3.490000       0.372598       0.007325       0.535324
       3.500000       0.388948       0.007408       0.520283
       3.510000       0.406662       0.007494       0.505490
       3.520000       0.425904       0.007584       0.491159
       3.530000       0.446859       0.007679       0.477513
       3.540000       0.469737       0.007779       0.464785
       3.550000       0.494779       0.007884       0.453196
       3.560000       0.522261       0.007996       0.442924
       3.570000       0.552490       0.008114       0.434065
       3.580000       0.585817       0.008240       0.426607
       3.590000       0.622626       0.008375       0.420447
       3.600000       0.663338       0.008519       0.415430
       3.610000       0.708396       0.008674       0.411411
       3.620000       0.758247       0.008841       0.408316
       3.630000       0.813310       0.009021       0.406172
       3.640000       0.873918       0.009216       0.405090
       3.650000       0.940238       0.009428       0.405235
       3.660000       1.012170       0.009658       0.406773
       3.670000       1.089215       0.009908       0.409838
       3.680000       1.170350       0.010179       0.414517
       3.690000       1.253955       0.010472       0.420850
       3.700000       1.337836       0.010786       0.428821
       3.710000       1.419418       0.011120       0.438342
       3.720000       1.496104       0.011471       0.449220
       3.730000       1.565722       0.011833       0.461137
       3.740000       1.626925       0.012201       0.473643
       3.750000       1.679369       0.012564       0.486184
       3.760000       1.723642       0.012916       0.498152
       3.770000       1.760975       0.013245       0.508965
       3.780000       1.792898       0.013543       0.518144
       3.790000       1.820977       0.013803       0.525371
       3.800000       1.846720       0.014023       0.530506
       3.810000       1.871634       0.014203       0.533559
       3.820000       1.897328       0.014351       0.534630
       3.830000       1.925526       0.014480       0.533848
       3.840000       1.957927       0.014604       0.531316
       3.850000       1.995915       0.014739       0.527098
       3.860000       2.040213       0.014901       0.521228
       3.870000       2.090587       0.015101       0.513754
       3.880000       2.145737       0.015346       0.504795
       3.890000       2.203455       0.015642       0.494589
       3.900000       2.261115       0.015992       0.483514
       3.910000       2.316354       0.016398       0.472055
       3.920000       2.367743       0.016860       0.460728
       3.930000       2.415103       0.017378       0.449993
       3.940000       2.459304       0.017949       0.440185
       3.950000       2.501608       0.018570       0.431495
       3.960000       2.542862       0.019229       0.423993
       3.970000       2.582891       0.019912       0.417681
       3.980000       2.620325       0.020600       0.412562
       3.990000       2.652869       0.021269       0.408679
       4.000000       2.677885       0.021897       0.406141
       4.010000       2.693080       0.022463       0.405107
       4.020000       2.697114       0.022955       0.405758
       4.030000       2.690015       0.023370       0.408262
       4.040000       2.673278       0.023713       0.412738
       4.050000       2.649617       0.023991       0.419237
       4.060000       2.622382       0.024211       0.427748
       4.070000       2.594810       0.024374       0.438199
       4.080000       2.569346       0.024469       0.450458
       4.090000       2.547212       0.024480       0.464325
       4.100000       2.528325       0.024390       0.479511
       4.110000       2.511496       0.024187       0.495618
       4.120000       2.494805       0.023875       0.512147
       4.130000       2.476062       0.023469       0.528522
       4.140000       2.453290       0.022995       0.544154
       4.150000       2.425208       0.022484       0.558503
       4.160000       2.391597       0.021964       0.571145
       4.170000       2.353404       0.021458       0.581807
       4.180000       2.312530       0.020982       0.590375
       4.190000       2.271409       0.020546       0.596859
       4.200000       2.232551       0.020156       0.601341
       4.210000       2.198254       0.019813       0.603901
       4.220000       2.170492       0.019518       0.604574
       4.230000       2.150909       0.019272       0.603315
       4.240000       2.140782       0.019078       0.600020
       4.250000       2.140893       0.018938       0.594565
       4.260000       2.151339       0.018855       0.586895
       4.270000       2.171329       0.018830       0.577110
       4.280000       2.199068       0.018860       0.565537
       4.290000       2.231749       0.018941       0.552749
       4.300000       2.265715       0.019065       0.539509
       4.310000       2.296829       0.019218       0.526669
       4.320000       2.321057       0.019386       0.515048
       4.330000       2.335197       0.019554       0.505336
       4.340000       2.337521       0.019708       0.498035
       4.350000       2.328080       0.019837       0.493456
       4.360000       2.308509       0.019939       0.491739
       4.370000       2.281382       0.020017       0.492892
       4.380000       2.249412       0.020078       0.496848
       4.390000       2.214797       0.020130       0.503505
       4.400000       2.178961       0.020184       0.512767
       4.410000       2.142725       0.020248       0.524553
       4.420000       2.106750       0.020330       0.538779
       4.430000       2.072000       0.020437       0.555316
       4.440000       2.039985       0.020578       0.573942
       4.450000       2.012684       0.020762       0.594297
       4.460000       1.992240       0.020999       0.615882
       4.470000       1.980556       0.021298       0.638093
       4.480000       1.978969       0.021664       0.660286
       4.490000       1.988025       0.022105       0.681853
       4.500000       2.007384       0.022621       0.702271
       4.510000       2.035829       0.023213       0.721119
       4.520000       2.071395       0.023878       0.738048
       4.530000       2.111650       0.024606       0.752735
       4.540000       2.154108       0.025388       0.764837
       4.550000       2.196721       0.026211       0.773996
       4.560000       2.238285       0.027060       0.779879
       4.570000       2.278611       0.027925       0.782275
       4.580000       2.318392       0.028799       0.781193
       4.590000       2.358821       0.029675       0.776940
       4.600000       2.401123       0.030551       0.770133
       4.610000       2.446164       0.031423       0.761647
       4.620000       2.494219       0.032283       0.752494
       4.630000       2.544893       0.033116       0.743709
       4.640000       2.597155       0.033907       0.736232
       4.650000       2.649466       0.034634       0.730857
       4.660000       2.699997       0.035279       0.728210
       4.670000       2.746922       0.035830       0.728751
       4.680000       2.788672       0.036292       0.732785
       4.690000       2.824050       0.036686       0.740451
       4.700000       2.852171       0.037047       0.751700
       4.710000       2.872364       0.037416       0.766276
       4.720000       2.884185       0.037835       0.783707
       4.730000       2.887590       0.038338       0.803332
       4.740000       2.883149       0.038947       0.824347
       4.750000       2.872083       0.039666       0.845887
       4.760000       2.856021       0.040489       0.867102
       4.770000       2.836541       0.041390       0.887220
       4.780000       2.814687       0.042330       0.905591
       4.790000       2.790675       0.043257       0.921711
       4.800000       2.763895       0.044110       0.935255
       4.810000       2.733231       0.044832       0.946110
       4.820000       2.697618       0.045384       0.954422
       4.830000       2.656664       0.045754       0.960637
       4.840000       2.611102       0.045967       0.965484
       4.850000       2.562849       0.046078       0.969906
       4.860000       2.514642       0.046164       0.974926
       4.870000       2.469372       0.046307       0.981484
       4.880000       2.429413       0.046582       0.990295
       4.890000       2.396148       0.047048       1.001730
       4.900000       2.369824       0.047746       1.015751
       4.910000       2.349727       0.048691       1.031866
       4.920000       2.334562       0.049878       1.049133
       4.930000       2.322893       0.051276       1.066214
       4.940000       2.313485       0.052828       1.081499
       4.950000       2.305461       0.054454       1.093292
       4.960000       2.298330       0.056057       1.100039
       4.970000       2.291993       0.057537       1.100554
       4.980000       2.286799       0.058810       1.094192
       4.990000       2.283624       0.059822       1.080919
       5.000000       2.283832       0.060561       1.061242
       5.010000       2.289061       0.061047       1.036018
       5.020000       2.300827       0.061315       1.006222
       5.030000       2.320089       0.061396       0.972749
       5.040000       2.346883       0.061300       0.936348
       5.050000       2.380124       0.061013       0.897668
       5.060000       2.417623       0.060511       0.857371
       5.070000       2.456304       0.059777       0.816223
       5.080000       2.492635       0.058821       0.775098
       5.090000       2.523225       0.057685       0.734917
       5.100000       2.545512       0.056439       0.696532
       5.110000       2.558369       0.055165       0.660637
       5.120000       2.562420       0.053946       0.627712
       5.130000       2.559912       0.052850       0.598009
       5.140000       2.554156       0.051929       0.571570
       5.150000       2.548723       0.051214       0.548275
       5.160000       2.546660       0.050716       0.527889
       5.170000       2.549927       0.050438       0.510105
       5.180000       2.559163       0.050369       0.494577
       5.190000       2.573786       0.050498       0.480925
       5.200000       2.592358       0.050816       0.468746
       5.210000       2.613092       0.051323       0.457620
       5.220000       2.634359       0.052024       0.447139
       5.230000       2.655034       0.052934       0.436949
       5.240000       2.674581       0.054068       0.426796
       5.250000       2.692888       0.055439       0.416567
       5.260000       2.710002       0.057052       0.406297
       5.270000       2.725946       0.058903       0.396148
       5.280000       2.740736       0.060975       0.386361
       5.290000       2.754567       0.063244       0.377196
       5.300000       2.768022       0.065683       0.368888
       5.310000       2.782176       0.068270       0.361613
       5.320000       2.798511       0.070989       0.355479
       5.330000       2.818651       0.073829       0.350525
       5.340000       2.844000       0.076776       0.346730
       5.350000       2.875403       0.079794       0.344017
       5.360000       2.912938       0.082812       0.342266
       5.370000       2.955894       0.085713       0.341323
       5.380000       3.002907       0.088339       0.341021
       5.390000       3.052159       0.090509       0.341200
       5.400000       3.101540       0.092048       0.341742
       5.410000       3.148761       0.092820       0.342589
       5.420000       3.191470       0.092758       0.343758
       5.430000       3.227472       0.091877       0.345329
       5.440000       3.255113       0.090273       0.347421
       5.450000       3.273749       0.088111       0.350169
       5.460000       3.284107       0.085591       0.353689
       5.470000       3.288311       0.082922       0.358069
       5.480000       3.289491       0.080293       0.363360
       5.490000       3.291115       0.077858       0.369570
       5.500000       3.296315       0.075727       0.376670
       5.510000       3.307427       0.073968       0.384604
       5.520000       3.325835       0.072615       0.393304
       5.530000       3.352032       0.071673       0.402715
       5.540000       3.385759       0.071120       0.412824
       5.550000       3.426117       0.070911       0.423681
       5.560000       3.471638       0.070981       0.435409
       5.570000       3.520414       0.071239       0.448194
       5.580000       3.570410       0.071578       0.462259
       5.590000       3.620027       0.071889       0.477842
       5.600000       3.668787       0.072071       0.495167
       5.610000       3.717863       0.072063       0.514436
       5.620000       3.770196       0.071846       0.535829
       5.630000       3.830104       0.071457       0.559513
       5.640000       3.902540       0.070971       0.585662
       5.650000       3.992257       0.070482       0.614487
       5.660000       4.103136       0.070085       0.646258
       5.670000       4.237761       0.069861       0.681314
       5.680000       4.397252       0.069868       0.720056
       5.690000       4.581303       0.070143       0.762903
       5.700000       4.788346       0.070709       0.810240
       5.710000       5.015773       0.071575       0.862348
       5.720000       5.260138       0.072745       0.919328
       5.730000       5.517302       0.074211       0.981046
       5.740000       5.782541       0.075954       1.047073
       5.750000       6.050722       0.077936       1.116675
       5.760000       6.316621       0.080096       1.188829
       5.770000       6.575368       0.082356       1.262292
       5.780000       6.822860       0.084626       1.335703
       5.790000       7.055939       0.086824       1.407703
       5.800000       7.272265       0.088892       1.477030
       5.810000       7.469948       0.090807       1.542599
       5.820000       7.647171       0.092578       1.603548
       5.830000       7.801991       0.094227       1.659279
       5.840000       7.932406       0.095770       1.709481
       5.850000       8.036627       0.097195       1.754131
       5.860000       8.113433       0.098461       1.793439
       5.870000       8.162418       0.099504       1.827745
       5.880000       8.184033       0.100259       1.857408
       5.890000       8.179365       0.100681       1.882709
       5.900000       8.149753       0.100753       1.903821
       5.910000       8.096466       0.100486       1.920830
       5.920000       8.020644       0.099913       1.933814
       5.930000       7.923588       0.099081       1.942955
       5.940000       7.807261       0.098056       1.948680
       5.950000       7.674747       0.096921       1.951768
       5.960000       7.530440       0.095780       1.953349
       5.970000       7.379889       0.094744       1.954735
       5.980000       7.229334       0.093916       1.957098
       5.990000       7.085022       0.093381       1.961100
       6.000000       6.952415       0.093191       1.966657
       6.010000       6.835397       0.093366       1.972934
       6.020000       6.735679       0.093888       1.978599
       6.030000       6.652603       0.094716       1.982250
       6.040000       6.583473       0.095788       1.982848
       6.050000       6.524374       0.097034       1.980030
       6.060000       6.471248       0.098387       1.974227
       6.070000       6.420857       0.099787       1.966580
       6.080000       6.371289       0.101191       1.958707
       6.090000       6.321863       0.102577       1.952375
       6.100000       6.272574       0.103958       1.949146
       6.110000       6.223379       0.105379       1.950058
       6.120000       6.173628       0.106918       1.955405
       6.130000       6.121774       0.108673       1.964667
       6.140000       6.065426       0.110736       1.976606
       6.150000       6.001690       0.113174       1.989544
       6.160000       5.927776       0.116006       2.001766
       6.170000       5.841741       0.119184       2.011967
       6.180000       5.743143       0.122587       2.019626
       6.190000       5.633343       0.126018       2.025171
       6.200000       5.515293       0.129220       2.029893
       6.210000       5.392898       0.131909       2.035648
       6.220000       5.270232       0.133820       2.044476
       6.230000       5.150951       0.134765       2.058290
       6.240000       5.038044       0.134665       2.078716
       6.250000       4.933846       0.133570       2.107060
       6.260000       4.840120       0.131641       2.144344
       6.270000       4.758017       0.129118       2.191295
       6.280000       4.687918       0.126276       2.248267
       6.290000       4.629279       0.123385       2.315094
       6.300000       4.580651       0.120683       2.390958
       6.310000       4.539974       0.118353       2.474370
       6.320000       4.505071       0.116527       2.563318
       6.330000       4.474213       0.115282       2.655571
       6.340000       4.446507       0.114650       2.748994
       6.350000       4.421958       0.114623       2.841734
       6.360000       4.401156       0.115155       2.932145
       6.370000       4.384733       0.116165       3.018518
       6.380000       4.372822       0.117541       3.098827
       6.390000       4.364748       0.119146       3.170684
       6.400000       4.359028       0.120824       3.231642
       6.410000       4.353625       0.122412       3.279701
       6.420000       4.346309       0.123763       3.313802
       6.430000       4.335000       0.124759       3.334086
       6.440000       4.318018       0.125328       3.341848
       6.450000       4.294282       0.125457       3.339238
       6.460000       4.263468       0.125185       3.328824
       6.470000       4.226120       0.124589       3.313062
       6.480000       4.183614       0.123771       3.293739
       6.490000       4.137896       0.122844       3.271517
       6.500000       4.091020       0.121928       3.245775
       6.510000       4.044645       0.121139       3.214896
       6.520000       3.999701       0.120589       3.176974
       6.530000       3.956366       0.120378       3.130681
       6.540000       3.914314       0.120585       3.075951
       6.550000       3.873087       0.121268       3.014196
       6.560000       3.832427       0.122453       2.948010
       6.570000       3.792476       0.124133       2.880527
       6.580000       3.753783       0.126267       2.814701
       6.590000       3.717155       0.128779       2.752727
       6.600000       3.683438       0.131566       2.695735
       6.610000       3.653380       0.134516       2.643790
       6.620000       3.627712       0.137531       2.596153
       6.630000       3.607405       0.140546       2.551728
       6.640000       3.593954       0.143544       2.509555
       6.650000       3.589465       0.146545       2.469194
       6.660000       3.596451       0.149588       2.430884
       6.670000       3.617404       0.152696       2.395435
       6.680000       3.654287       0.155850       2.363928
       6.690000       3.708129       0.158984       2.337335
       6.700000       3.778785       0.161990       2.316185
       6.710000       3.864870       0.164754       2.300330
       6.720000       3.963801       0.167184       2.288886
       6.730000       4.071900       0.169238       2.280339
       6.740000       4.184543       0.170938       2.272767
       6.750000       4.296365       0.172362       2.264105
       6.760000       4.401571       0.173633       2.252362
       6.770000       4.494391       0.174907       2.235797
       6.780000       4.569664       0.176346       2.213097
       6.790000       4.623454       0.178101       2.183571
       6.800000       4.653547       0.180284       2.147309
       6.810000       4.659671       0.182951       2.105204
       6.820000       4.643438       0.186089       2.058801
       6.830000       4.608079       0.189622       2.010027
       6.840000       4.558118       0.193426       1.960904
       6.850000       4.499011       0.197359       1.913352
       6.860000       4.436712       0.201292       1.869110
       6.870000       4.377099       0.205131       1.829733
       6.880000       4.325285       0.208831       1.796647
       6.890000       4.284933       0.212387       1.771156
       6.900000       4.257754       0.215823       1.754385
       6.910000       4.243317       0.219185       1.747152
       6.920000       4.239265       0.222542       1.749784
       6.930000       4.241913       0.225993       1.761937
       6.940000       4.247130       0.229685       1.782451
       6.950000       4.251328       0.233805       1.809278
       6.960000       4.252288       0.238566       1.839529
       6.970000       4.249597       0.244176       1.869682
       6.980000       4.244538       0.250804       1.895967
       6.990000       4.239514       0.258547       1.914881
       7.000000       4.237263       0.267412       1.923730
       7.010000       4.240225       0.277300       1.921032
       7.020000       4.250244       0.288008       1.906678
       7.030000       4.268612       0.299234       1.881822
       7.040000       4.296245       0.310616       1.848564
       7.050000       4.333802       0.321788       1.809534
       7.060000       4.381681       0.332445       1.767492
       7.070000       4.439916       0.342411       1.725013
       7.080000       4.508107       0.351671       1.684278
       7.090000       4.585480       0.360357       1.646955
       7.100000       4.671110       0.368689       1.614162
       7.110000       4.764271       0.376913       1.586500
       7.120000       4.864727       0.385244       1.564149
       7.130000       4.972795       0.393857       1.547022
       7.140000       5.089054       0.402899       1.534926
       7.150000       5.213790       0.412528       1.527697
       7.160000       5.346389       0.422935       1.525256
       7.170000       5.484946       0.434341       1.527588
       7.180000       5.626201       0.446958       1.534648
       7.190000       5.765794       0.460921       1.546238
       7.200000       5.898698       0.476207       1.561903
       7.210000       6.019725       0.492564       1.580848
       7.220000       6.123985       0.509465       1.601915
       7.230000       6.207269       0.526127       1.623618
       7.240000       6.266356       0.541591       1.644242
       7.250000       6.299241       0.554877       1.661984
       7.260000       6.305349       0.565171       1.675090
       7.270000       6.285756       0.571992       1.681974
       7.280000       6.243366       0.575301       1.681339
       7.290000       6.182891       0.575501       1.672330
       7.300000       6.110477       0.573340       1.654725
       7.310000       6.032923       0.569741       1.629072
       7.320000       5.956667       0.565614       1.596687
       7.330000       5.886854       0.561687       1.559469
       7.340000       5.826793       0.558411       1.519583
       7.350000       5.777914       0.555940       1.479120
       7.360000       5.740127       0.554199       1.439827
       7.370000       5.712321       0.553014       1.402979
       7.380000       5.692797       0.552255       1.369384
       7.390000       5.679535       0.551933       1.339489
       7.400000       5.670342       0.552214       1.313518
       7.410000       5.662930       0.553367       1.291572
       7.420000       5.654975       0.555661       1.273651
       7.430000       5.644198       0.559284       1.259614
       7.440000       5.628511       0.564308       1.249111
       7.450000       5.606227       0.570716       1.241535
       7.460000       5.576275       0.578466       1.236057
       7.470000       5.538316       0.587563       1.231755
       7.480000       5.492669       0.598087       1.227829
       7.490000       5.440080       0.610159       1.223825
       7.500000       5.381369       0.623851       1.219773
       7.510000       5.317093       0.639078       1.216185
       7.520000       5.247349       0.655497       1.213888
       7.530000       5.171845       0.672465       1.213785
       7.540000       5.090262       0.689063       1.216618
       7.550000       5.002776       0.704191       1.222820
       7.560000       4.910496       0.716739       1.232485
       7.570000       4.815605       0.725797       1.245437
       7.580000       4.721158       0.730845       1.261347
       7.590000       4.630625       0.731881       1.279834
       7.600000       4.547397       0.729412       1.300492
       7.610000       4.474360       0.724317       1.322862
       7.620000       4.413606       0.717624       1.346345
       7.630000       4.366253       0.710278       1.370128
       7.640000       4.332340       0.702970       1.393167
       7.650000       4.310804       0.696072       1.414236
       7.660000       4.299597       0.689657       1.432062
       7.670000       4.295965       0.683601       1.445480
       7.680000       4.296874       0.677721       1.453572
       7.690000       4.299498       0.671917       1.455756
       7.700000       4.301620       0.666260       1.451823
       7.710000       4.301785       0.661017       1.441931
       7.720000       4.299144       0.656591       1.426577
       7.730000       4.293021       0.653420       1.406533
       7.740000       4.282416       0.651859       1.382754
       7.750000       4.265718       0.652108       1.356271
       7.760000       4.240864       0.654183       1.328096
       7.770000       4.205965       0.657963       1.299155
       7.780000       4.160170       0.663274       1.270255
       7.790000       4.104365       0.669981       1.242057
       7.800000       4.041319       0.678037       1.215076
       7.810000       3.975133       0.687466       1.189685
       7.820000       3.910226       0.698264       1.166163
       7.830000       3.850246       0.710270       1.144752
       7.840000       3.797319       0.723034       1.125713
       7.850000       3.751802       0.735756       1.109356
       7.860000       3.712513       0.747324       1.096022
       7.870000       3.677225       0.756465       1.086024
       7.880000       3.643203       0.761990       1.079579
       7.890000       3.607618       0.763064       1.076737
       7.900000       3.567832       0.759423       1.077355
       7.910000       3.521608       0.751454       1.081107
       7.920000       3.467291       0.740125       1.087522
       7.930000       3.403968       0.726778       1.096032
       7.940000       3.331570       0.712872       1.106020
       7.950000       3.250900       0.699747       1.116877
       7.960000       3.163610       0.688461       1.128066
       7.970000       3.072098       0.679713       1.139207
       7.980000       2.979260       0.673840       1.150147
       7.990000       2.888103       0.670853       1.161002
       8.000000       2.801282       0.670502       1.172128
       8.010000       2.720701       0.672368       1.184037
       8.020000       2.647286       0.675956       1.197283
       8.030000       2.580967       0.680797       1.212342
       8.040000       2.520844       0.686517       1.229519
       8.050000       2.465477       0.692859       1.248869
       8.060000       2.413248       0.699645       1.270129
       8.070000       2.362743       0.706707       1.292677
       8.080000       2.313068       0.713822       1.315526
       8.090000       2.264053       0.720693       1.337393
       8.100000       2.216293       0.726987       1.356840
       8.110000       2.171030       0.732413       1.372462
       8.120000       2.129912       0.736803       1.383091
       8.130000       2.094703       0.740144       1.387955
       8.140000       2.067006       0.742555       1.386768
       8.150000       2.048046       0.744223       1.379740
       8.160000       2.038536       0.745341       1.367509
       8.170000       2.038621       0.746089       1.351018
       8.180000       2.047903       0.746647       1.331379
       8.190000       2.065518       0.747219       1.309746
       8.200000       2.090282       0.748022       1.287216
       8.210000       2.120877       0.749251       1.264762
       8.220000       2.156062       0.751015       1.243188
       8.230000       2.194847       0.753298       1.223088
       8.240000       2.236544       0.755954       1.204838
       8.250000       2.280664       0.758721       1.188596
       8.260000       2.326657       0.761267       1.174337
       8.270000       2.373602       0.763238       1.161911
       8.280000       2.419946       0.764305       1.151134
       8.290000       2.463400       0.764190       1.141879
       8.300000       2.501056       0.762658       1.134130
       8.310000       2.529723       0.759497       1.127958
       8.320000       2.546458       0.754503       1.123423
       8.330000       2.549173       0.747519       1.120446
       8.340000       2.537180       0.738512       1.118740
       8.350000       2.511477       0.727661       1.117817
       8.360000       2.474651       0.715394       1.117097
       8.370000       2.430393       0.702361       1.116072
       8.380000       2.382792       0.689357       1.114470
       8.390000       2.335628       0.677226       1.112365
       8.400000       2.291880       0.666787       1.110203
       8.410000       2.253506       0.658778       1.108726
       8.420000       2.221505       0.653832       1.108818
       8.430000       2.196142       0.652469       1.111324
       8.440000       2.177279       0.655096       1.116881
       8.450000       2.164692       0.662026       1.125815
       8.460000       2.158278       0.673477       1.138095
       8.470000       2.158083       0.689579       1.153355
       8.480000       2.164136       0.710348       1.170950
       8.490000       2.176179       0.735638       1.190067
       8.500000       2.193454       0.765081       1.209879
       8.510000       2.214631       0.798030       1.229723
       8.520000       2.237950       0.833520       1.249256
       8.530000       2.261483       0.870287       1.268510
       8.540000       2.283389       0.906836       1.287814
       8.550000       2.302045       0.941569       1.307593
       8.560000       2.316020       0.972954       1.328119
       8.570000       2.323985       0.999672       1.349289
       8.580000       2.324666       1.020760       1.370514
       8.590000       2.316913       1.035694       1.390738
       8.600000       2.299892       1.044425       1.408615
       8.610000       2.273342       1.047334       1.422794
       8.620000       2.237801       1.045129       1.432233
       8.630000       2.194679       1.038712       1.436442
       8.640000       2.146111       1.029056       1.435587
       8.650000       2.094598       1.017122       1.430431
       8.660000       2.042567       1.003801       1.422154
       8.670000       1.991972       0.989876       1.412120
       8.680000       1.944076       0.975979       1.401658
       8.690000       1.899404       0.962580       1.391899
       8.700000       1.857866       0.949978       1.383680
       8.710000       1.819005       0.938327       1.377518
       8.720000       1.782304       0.927662       1.373624
       8.730000       1.747492       0.917935       1.371949
       8.740000       1.714760       0.909048       1.372232
       8.750000       1.684820       0.900909       1.374070
       8.760000       1.658802       0.893498       1.376999
       8.770000       1.638026       0.886940       1.380598
       8.780000       1.623749       0.881534       1.384583
       8.790000       1.616948       0.877727       1.388877
       8.800000       1.618180       0.876008       1.393621
       8.810000       1.627519       0.876770       1.399127
       8.820000       1.644559       0.880173       1.405782
       8.830000       1.668426       0.886053       1.413927
       8.840000       1.697798       0.893891       1.423757
       8.850000       1.730911       0.902845       1.435274
       8.860000       1.765565       0.911850       1.448300
       8.870000       1.799191       0.919776       1.462538
       8.880000       1.828984       0.925611       1.477681
       8.890000       1.852148       0.928630       1.493517
       8.900000       1.866211       0.928495       1.510017
       8.910000       1.869379       0.925264       1.527361
       8.920000       1.860849       0.919310       1.545893
       8.930000       1.841001       0.911191       1.566023
       8.940000       1.811401       0.901507       1.588116
       8.950000       1.774562       0.890792       1.612433
       8.960000       1.733520       0.879484       1.639144
       8.970000       1.691320       0.867960       1.668403
       8.980000       1.650554       0.856611       1.700427
       8.990000       1.613069       0.845882       1.735515
       9.000000       1.579849       0.836265       1.774011
       9.010000       1.551069       0.828243       1.816226
       9.020000       1.526261       0.822231       1.862400
       9.030000       1.504560       0.818526       1.912686
       9.040000       1.484979       0.817269       1.967176
       9.050000       1.466684       0.818413       2.025909
       9.060000       1.449195       0.821702       2.088843
       9.070000       1.432485       0.826669       2.155797
       9.080000       1.416923       0.832699       2.226391
       9.090000       1.403116       0.839149       2.300007
       9.100000       1.391695       0.845512       2.375833
       9.110000       1.383104       0.851574       2.452984
       9.120000       1.377450       0.857479       2.530694
       9.130000       1.374435       0.863690       2.608495
       9.140000       1.373392       0.870844       2.686322
       9.150000       1.373449       0.879579       2.764494
       9.160000       1.373779       0.890385       2.843566
       9.170000       1.373870       0.903517       2.924129
       9.180000       1.373704       0.918972       3.006623
       9.190000       1.373776       0.936520       3.091252
       9.200000       1.374946       0.955769       3.178020
       9.210000       1.378184       0.976244       3.266868
       9.220000       1.384323       0.997460       3.357826
       9.230000       1.393899       1.018958       3.451131
       9.240000       1.407124       1.040311       3.547275
       9.250000       1.423971       1.061134       3.646986
       9.260000       1.444333       1.081134       3.751159
       9.270000       1.468182       1.100198       3.860768
       9.280000       1.495651       1.118483       3.976790
       9.290000       1.526988       1.136431       4.100183
       9.300000       1.562373       1.154670       4.231907
       9.310000       1.601668       1.173803       4.372983
       9.320000       1.644202       1.194172       4.524572
       9.330000       1.688678       1.215671       4.688014
       9.340000       1.733260       1.237680       4.864814
       9.350000       1.775802       1.259127       5.056537
       9.360000       1.814143       1.278669       5.264648
       9.370000       1.846386       1.294932       5.490288
       9.380000       1.871068       1.306712       5.734054
       9.390000       1.887242       1.313120       5.995759
       9.400000       1.894478       1.313629       6.274184
       9.410000       1.892833       1.308097       6.566789
       9.420000       1.882834       1.296794       6.869383
       9.430000       1.865469       1.280450       7.175800
       9.440000       1.842170       1.260252       7.477754
       9.450000       1.814748       1.237742       7.765086
       9.460000       1.785236       1.214598       8.026584
       9.470000       1.755645       1.192366       8.251357
       9.480000       1.727707       1.172225       8.430466
       9.490000       1.702633       1.154857       8.558335
       9.500000       1.680952       1.140421       8.633521
       9.510000       1.662432       1.128644       8.658574
       9.520000       1.646115       1.119004       8.639090
       9.530000       1.630475       1.110963       8.582296
       9.540000       1.613709       1.104205       8.495679
       9.550000       1.594132       1.098783       8.386126
       9.560000       1.570567       1.095142       8.259721
       9.570000       1.542634       1.093992       8.121994
       9.580000       1.510805       1.096096       7.978191
       9.590000       1.476225       1.102040       7.833209
       9.600000       1.440377       1.112041       7.691122
       9.610000       1.404719       1.125843       7.554515
       9.620000       1.370408       1.142683       7.423995
       9.630000       1.338171       1.161348       7.298172
       9.640000       1.308307       1.180318       7.174210
       9.650000       1.280792       1.197981       7.048790
       9.660000       1.255415       1.212875       6.919179
       9.670000       1.231909       1.223898       6.784035
       9.680000       1.210021       1.230419       6.643745
       9.690000       1.189527       1.232278       6.500223
       9.700000       1.170206       1.229707       6.356320
       9.710000       1.151815       1.223241       6.215099
       9.720000       1.134098       1.213678       6.079253
       9.730000       1.116829       1.202067       5.950813
       9.740000       1.099888       1.189693       5.831107
       9.750000       1.083335       1.178005       5.720833
       9.760000       1.067463       1.168472       5.620076
       9.770000       1.052793       1.162406       5.528235
       9.780000       1.040021       1.160804       5.443944
       9.790000       1.029912       1.164241       5.365148
       9.800000       1.023179       1.172843       5.289396
       9.810000       1.020372       1.186315       5.214296
       9.820000       1.021795       1.204048       5.137949
       9.830000       1.027464       1.225274       5.059219
       9.840000       1.037095       1.249218       4.977790
       9.850000       1.050121       1.275218       4.894074
       9.860000       1.065744       1.302764       4.809077
       9.870000       1.083027       1.331470       4.724239
       9.880000       1.101031       1.361040       4.641248
       9.890000       1.118980       1.391234       4.561783
       9.900000       1.136390       1.421843       4.487216
       9.910000       1.153131       1.452645       4.418330
       9.920000       1.169371       1.483321       4.355131
       9.930000       1.185455       1.513375       4.296801
       9.940000       1.201740       1.542111       4.241774
       9.950000       1.218467       1.568701       4.187925
       9.960000       1.235670       1.592311       4.132877
       9.970000       1.253143       1.612244       4.074406
       9.980000       1.270451       1.628013       4.010889
       9.990000       1.286999       1.639369       3.941665
      10.000000       1.302150       1.646267       3.867169
      10.010000       1.315388       1.648813       3.788778
      10.020000       1.326455       1.647204       3.708462
      10.030000       1.335435       1.641691       3.628361
      10.040000       1.342742       1.632610       3.550465
      10.050000       1.349023       1.620459       3.476448
      10.060000       1.355032       1.606000       3.407630
      10.070000       1.361498       1.590300       3.345000
      10.080000       1.369024       1.574674       3.289236
      10.090000       1.378037       1.560502       3.240668
      10.100000       1.388772       1.549001       3.199223
      10.110000       1.401312       1.540997       3.164347
      10.120000       1.415622       1.536788       3.134955
      10.130000       1.431571       1.536117       3.109454
      10.140000       1.448887       1.538260       3.085847
      10.150000       1.467077       1.542209       3.061909
      10.160000       1.485340       1.546917       3.035424
      10.170000       1.502547       1.551559       3.004430
      10.180000       1.517336       1.555738       2.967471
      10.190000       1.528312       1.559569       2.923837
      10.200000       1.534323       1.563604       2.873744
      10.210000       1.534699       1.568641       2.818381
      10.220000       1.529391       1.575502       2.759767
      10.230000       1.518930       1.584847       2.700424
      10.240000       1.504242       1.597065       2.642961
      10.250000       1.486395       1.612253       2.589682
      10.260000       1.466396       1.630289       2.542299
      10.270000       1.445099       1.650985       2.501810
      10.280000       1.423239       1.674286       2.468515
      10.290000       1.401527       1.700419       2.442164
      10.300000       1.380719       1.729909       2.422171
      10.310000       1.361612       1.763438       2.407819
      10.320000       1.344966       1.801619       2.398396
      10.330000       1.331385       1.844754       2.393226
      10.340000       1.321241       1.892684       2.391629
      10.350000       1.314644       1.944729       2.392849
      10.360000       1.311467       1.999684       2.395998
      10.370000       1.311390       2.055864       2.400037
      10.380000       1.313939       2.111220       2.403781
      10.390000       1.318519       2.163533       2.405936
      10.400000       1.324452       2.210713       2.405173
      10.410000       1.331022       2.251077       2.400241
      10.420000       1.337534       2.283550       2.390123
      10.430000       1.343377       2.307742       2.374209
      10.440000       1.348117       2.323935       2.352440
      10.450000       1.351580       2.333064       2.325375
      10.460000       1.353908       2.336672       2.294131
      10.470000       1.355542       2.336774       2.260204
      10.480000       1.357105       2.335597       2.225207
      10.490000       1.359217       2.335179       2.190615
      10.500000       1.362275       2.336952       2.157621
      10.510000       1.366300       2.341411       2.127107
      10.520000       1.370876       2.347992       2.099698
      10.530000       1.375220       2.355189       2.075849
      10.540000       1.378348       2.360906       2.055895
      10.550000       1.379299       2.362936       2.040067
      10.560000       1.377353       2.359411       2.028462
      10.570000       1.372166       2.349094       2.020982
      10.580000       1.363803       2.331452       2.017270
      10.590000       1.352659       2.306562       2.016665
      10.600000       1.339307       2.274977       2.018235
      10.610000       1.324356       2.237647       2.020876
      10.620000       1.308349       2.195895       2.023472
      10.630000       1.291736       2.151397       2.025061
      10.640000       1.274907       2.106096       2.024952
      10.650000       1.258226       2.062023       2.022761
      10.660000       1.242040       2.021047       2.018368
      10.670000       1.226660       1.984642       2.011820
      10.680000       1.212311       1.953740       2.003242
      10.690000       1.199125       1.928699       1.992773
      10.700000       1.187148       1.909372       1.980587
      10.710000       1.176385       1.895225       1.966972
      10.720000       1.166848       1.885477       1.952432
      10.730000       1.158585       1.879246       1.937752
      10.740000       1.151713       1.875733       1.923960
      10.750000       1.146431       1.874410       1.912208
      10.760000       1.143021       1.875173       1.903595
      10.770000       1.141824       1.878387       1.899018
      10.780000       1.143169       1.884773       1.899086
      10.790000       1.147272       1.895162       1.904066
      10.800000       1.154120       1.910195       1.913866
      10.810000       1.163369       1.930065       1.928012
      10.820000       1.174293       1.954370       1.945647
      10.830000       1.185785       1.982087       1.965567
      10.840000       1.196418       2.011628       1.986339
      10.850000       1.204575       2.040941       2.006465
      10.860000       1.208632       2.067646       2.024556
      10.870000       1.207198       2.089195       2.039469
      10.880000       1.199332       2.103071       2.050379
      10.890000       1.184690       2.107047       2.056796
      10.900000       1.163560       2.099485       2.058557
      10.910000       1.136785       2.079645       2.055784
      10.920000       1.105631       2.047914       2.048803
      10.930000       1.071625       2.005875       2.038014
      10.940000       1.036397       1.956150       2.023744
      10.950000       1.001522       1.902034       2.006151
      10.960000       0.968385       1.847015       1.985238
      10.970000       0.938093       1.794311       1.960961
      10.980000       0.911430       1.746518       1.933387
      10.990000       0.888872       1.705426       1.902795
      11.000000       0.870624       1.671980       1.869697
      11.010000       0.856659       1.646372       1.834752
      11.020000       0.846767       1.628206       1.798629
      11.030000       0.840588       1.616706       1.761851
      11.040000       0.837641       1.610928       1.724696
      11.050000       0.837347       1.609888       1.687174
      11.060000       0.839045       1.612614       1.649103
      11.070000       0.842025       1.618100       1.610267
      11.080000       0.845557       1.625235       1.570589
      11.090000       0.848937       1.632770       1.530285
      11.100000       0.851538       1.639393       1.489909
      11.110000       0.852851       1.643889       1.450287
      11.120000       0.852521       1.645349       1.412366
      11.130000       0.850384       1.643358       1.377029
      11.140000       0.846490       1.638069       1.344967
      11.150000       0.841097       1.630162       1.316620
      11.160000       0.834643       1.620663       1.292177
      11.170000       0.827671       1.610706       1.271604
      11.180000       0.820758       1.601336       1.254665
      11.190000       0.814450       1.593411       1.240939
      11.200000       0.809224       1.587637       1.229851
      11.210000       0.805468       1.584640       1.220744
      11.220000       0.803471       1.585018       1.212990
      11.230000       0.803418       1.589282       1.206117
      11.240000       0.805383       1.597727       1.199904
      11.250000       0.809342       1.610315       1.194395
      11.260000       0.815190       1.626633       1.189844
      11.270000       0.822760       1.645986       1.186602
      11.280000       0.831860       1.667553       1.185009
      11.290000       0.842288       1.690559       1.185320
      11.300000       0.853846       1.714361       1.187681
      11.310000       0.866340       1.738449       1.192146
      11.320000       0.879556       1.762342       1.198712
      11.330000       0.893241       1.785444       1.207344
      11.340000       0.907083       1.806913       1.217955
      11.350000       0.920708       1.825606       1.230365
      11.360000       0.933690       1.840132       1.244246
      11.370000       0.945590       1.849021       1.259098
      11.380000       0.955998       1.850965       1.274267
      11.390000       0.964589       1.845089       1.289022
      11.400000       0.971184       1.831166       1.302671
      11.410000       0.975787       1.809720       1.314698
      11.420000       0.978584       1.781947       1.324880
      11.430000       0.979901       1.749499       1.333348
      11.440000       0.980128       1.714206       1.340586
      11.450000       0.979625       1.677836       1.347347
      11.460000       0.978654       1.641954       1.354523
      11.470000       0.977330       1.607888       1.363000
      11.480000       0.975606       1.576754       1.373519
      11.490000       0.973266       1.549498       1.386583
      11.500000       0.969948       1.526924       1.402412
      11.510000       0.965170       1.509661       1.420930
      11.520000       0.958395       1.498095       1.441798
      11.530000       0.949136       1.492284       1.464457
      11.540000       0.937074       1.491923       1.488167
      11.550000       0.922138       1.496396       1.512048
      11.560000       0.904537       1.504916       1.535088
      11.570000       0.884721       1.516697       1.556156
      11.580000       0.863314       1.531073       1.574000
      11.590000       0.841047       1.547496       1.587303
      11.600000       0.818683       1.565418       1.594778
      11.610000       0.796943       1.584136       1.595337
      11.620000       0.776428       1.602711       1.588275
      11.630000       0.757552       1.620029       1.573429
      11.640000       0.740513       1.634983       1.551244
      11.650000       0.725299       1.646693       1.522733
      11.660000       0.711729       1.654685       1.489315
      11.670000       0.699523       1.658954       1.452609
      11.680000       0.688375       1.659932       1.414199
      11.690000       0.678013       1.658368       1.375446
      11.700000       0.668240       1.655138       1.337359
      11.710000       0.658940       1.651033       1.300544
      11.720000       0.650073       1.646557       1.265238
      11.730000       0.641653       1.641803       1.231392
      11.740000       0.633742       1.636435       1.198810
      11.750000       0.626433       1.629796       1.167298
      11.760000       0.619839       1.621137       1.136792
      11.770000       0.614069       1.609888       1.107438
      11.780000       0.609198       1.595875       1.079589
      11.790000       0.605228       1.579396       1.053727
      11.800000       0.602055       1.561137       1.030345
      11.810000       0.599471       1.542008       1.009832
      11.820000       0.597183       1.522973       0.992396
      11.830000       0.594874       1.504951       0.978050
      11.840000       0.592268       1.488766       0.966625
      11.850000       0.589184       1.475088       0.957825
      11.860000       0.585560       1.464358       0.951280
      11.870000       0.581463       1.456705       0.946605
      11.880000       0.577058       1.451906       0.943442
      11.890000       0.572585       1.449448       0.941478
      11.900000       0.568319       1.448674       0.940421
      11.910000       0.564527       1.448964       0.939961
      11.920000       0.561432       1.449878       0.939727
      11.930000       0.559183       1.451193       0.939290
      11.940000       0.557834       1.452832       0.938208
      11.950000       0.557341       1.454717       0.936110
      11.960000       0.557574       1.456615       0.932796
      11.970000       0.558350       1.458067       0.928309
      11.980000       0.559469       1.458428       0.922959
      11.990000       0.560766       1.457013       0.917272
      12.000000       0.562144       1.453283       0.911884
      12.010000       0.563595       1.446994       0.907399
      12.020000       0.565207       1.438260       0.904258
      12.030000       0.567135       1.427549       0.902652
      12.040000       0.569578       1.415659       0.902513
      12.050000       0.572748       1.403697       0.903562
      12.060000       0.576838       1.393046       0.905404
      12.070000       0.581986       1.385278       0.907617
      12.080000       0.588223       1.381989       0.909837
      12.090000       0.595437       1.384586       0.911803
      12.100000       0.603345       1.394082       0.913374
      12.110000       0.611514       1.410925       0.914524
      12.120000       0.619416       1.434913       0.915314
      12.130000       0.626521       1.465177       0.915856
      12.140000       0.632396       1.500257       0.916280
      12.150000       0.636781       1.538244       0.916709
      12.160000       0.639616       1.576980       0.917238
      12.170000       0.641009       1.614265       0.917937
      12.180000       0.641166       1.648023       0.918847
      12.190000       0.640302       1.676408       0.919995
      12.200000       0.638575       1.697855       0.921391
      12.210000       0.636055       1.711110       0.923018
      12.220000       0.632741       1.715295       0.924811
      12.230000       0.628610       1.710025       0.926616
      12.240000       0.623685       1.695551       0.928150
      12.250000       0.618084       1.672827       0.928978
      12.260000       0.612026       1.643440       0.928538
      12.270000       0.605791       1.609388       0.926213
      12.280000       0.599652       1.572785       0.921443
      12.290000       0.593818       1.535612       0.913841
      12.300000       0.588407       1.499568       0.903266
      12.310000       0.583453       1.466026       0.889834
      12.320000       0.578956       1.436042       0.873870
      12.330000       0.574933       1.410350       0.855835
      12.340000       0.571451       1.389314       0.836256
      12.350000       0.568622       1.372858       0.815686
      12.360000       0.566555       1.360413       0.794668
      12.370000       0.565299       1.350941       0.773705
      12.380000       0.564795       1.343076       0.753231
      12.390000       0.564877       1.335379       0.733572
      12.400000       0.565304       1.326649       0.714939
      12.410000       0.565839       1.316187       0.697437
      12.420000       0.566314       1.303929       0.681091
      12.430000       0.566676       1.290370       0.665877
      12.440000       0.566987       1.276344       0.651753
      12.450000       0.567388       1.262732       0.638673
      12.460000       0.568050       1.250222       0.626593
      12.470000       0.569134       1.239209       0.615477
      12.480000       0.570775       1.229826       0.605295
      12.490000       0.573074       1.222058       0.596026
      12.500000       0.576119       1.215885       0.587657
      12.510000       0.579989       1.211381       0.580196
      12.520000       0.584769       1.208757       0.573679
      12.530000       0.590531       1.208322       0.568178
      12.540000       0.597326       1.210399       0.563796
      12.550000       0.605157       1.215197       0.560660
      12.560000       0.613960       1.222680       0.558894
      12.570000       0.623580       1.232507       0.558602
      12.580000       0.633751       1.244045       0.559845
      12.590000       0.644082       1.256499       0.562631
      12.600000       0.654075       1.269089       0.566901
      12.610000       0.663154       1.281206       0.572530
      12.620000       0.670717       1.292490       0.579318
      12.630000       0.676186       1.302790       0.587010
      12.640000       0.679069       1.312059       0.595324
      12.650000       0.679021       1.320240       0.603994
      12.660000       0.675910       1.327210       0.612827
      12.670000       0.669859       1.332760       0.621731
      12.680000       0.661253       1.336622       0.630730
      12.690000       0.650689       1.338514       0.639953
      12.700000       0.638890       1.338218       0.649606
      12.710000       0.626606       1.335686       0.659949
      12.720000       0.614532       1.331145       0.671270
      12.730000       0.603242       1.325143       0.683872
      12.740000       0.593156       1.318489       0.698059
      12.750000       0.584528       1.312088       0.714119
      12.760000       0.577457       1.306750       0.732316
      12.770000       0.571915       1.303023       0.752858
      12.780000       0.567777       1.301131       0.775874
      12.790000       0.564858       1.301019       0.801356
      12.800000       0.562954       1.302475       0.829094
      12.810000       0.561858       1.305275       0.858603
      12.820000       0.561374       1.309269       0.889081
      12.830000       0.561321       1.314380       0.919415
      12.840000       0.561527       1.320537       0.948287
      12.850000       0.561831       1.327545       0.974347
      12.860000       0.562084       1.334974       0.996438
      12.870000       0.562149       1.342119       1.013790
      12.880000       0.561916       1.348067       1.026105
      12.890000       0.561309       1.351871       1.033510
      12.900000       0.560289       1.352763       1.036401
      12.910000       0.558856       1.350320       1.035261
      12.920000       0.557034       1.344541       1.030508
      12.930000       0.554857       1.335807       1.022446
      12.940000       0.552361       1.324771       1.011294
      12.950000       0.549578       1.312222       0.997275
      12.960000       0.546546       1.298957       0.980707
      12.970000       0.543313       1.285681       0.962060
      12.980000       0.539932       1.272956       0.941978
      12.990000       0.536444       1.261194       0.921252
      13.000000       0.532866       1.250696       0.900768
      13.010000       0.529186       1.241678       0.881425
      13.020000       0.525375       1.234270       0.864046
      13.030000       0.521408       1.228452       0.849298
      13.040000       0.517284       1.223958       0.837640
      13.050000       0.513026       1.220201       0.829311
      13.060000       0.508682       1.216287       0.824357
      13.070000       0.504304       1.211176       0.822673
      13.080000       0.499954       1.203946       0.824056
      13.090000       0.495711       1.194064       0.828227
      13.100000       0.491671       1.181541       0.834819
      13.110000       0.487937       1.166879       0.843325
      13.120000       0.484597       1.150850       0.853031
      13.130000       0.481689       1.134217       0.862958
      13.140000       0.479186       1.117513       0.871877
      13.150000       0.476999       1.100965       0.878418
      13.160000       0.474991       1.084559       0.881291
      13.170000       0.473003       1.068192       0.879557
      13.180000       0.470876       1.051832       0.872867
      13.190000       0.468470       1.035618       0.861565
      13.200000       0.465674       1.019852       0.846604
      13.210000       0.462409       1.004909       0.829320
      13.220000       0.458632       0.991106       0.811135
      13.230000       0.454333       0.978608       0.793319
      13.240000       0.449542       0.967405       0.776822
      13.250000       0.444341       0.957350       0.762217
      13.260000       0.438862       0.948238       0.749703
      13.270000       0.433268       0.939864       0.739160
      13.280000       0.427729       0.932054       0.730229
      13.290000       0.422390       0.924666       0.722417
      13.300000       0.417344       0.917571       0.715213
      13.310000       0.412630       0.910639       0.708190
      13.320000       0.408248       0.903734       0.701066
      13.330000       0.404181       0.896721       0.693719
      13.340000       0.400411       0.889496       0.686162
      13.350000       0.396928       0.882020       0.678510
      13.360000       0.393731       0.874350       0.670943
      13.370000       0.390825       0.866664       0.663693
      13.380000       0.388213       0.859257       0.657031
      13.390000       0.385901       0.852509       0.651260
      13.400000       0.383904       0.846838       0.646689
      13.410000       0.382242       0.842654       0.643606
      13.420000       0.380949       0.840327       0.642251
      13.430000       0.380054       0.840177       0.642798
      13.440000       0.379561       0.842456       0.645368
      13.450000       0.379426       0.847337       0.650047
      13.460000       0.379543       0.854893       0.656919
      13.470000       0.379745       0.865079       0.666091
      13.480000       0.379836       0.877732       0.677700
      13.490000       0.379622       0.892594       0.691911
      13.500000       0.378961       0.909365       0.708889
      13.510000       0.377783       0.927774       0.728770
      13.520000       0.376098       0.947654       0.751621
      13.530000       0.373984       0.968994       0.777400
      13.540000       0.371554       0.991932       0.805926
      13.550000       0.368938       1.016702       0.836868
      13.560000       0.366264       1.043509       0.869747
      13.570000       0.363643       1.072394       0.903938
      13.580000       0.361158       1.103075       0.938679
      13.590000       0.358856       1.134824       0.973057
      13.600000       0.356725       1.166395       1.006005
      13.610000       0.354688       1.196047       1.036324
      13.620000       0.352596       1.221712       1.062746
      13.630000       0.350249       1.241286       1.084075
      13.640000       0.347423       1.252998       1.099383
      13.650000       0.343911       1.255719       1.108228
      13.660000       0.339564       1.249160       1.110811
      13.670000       0.334327       1.233873       1.107994
      13.680000       0.328245       1.211097       1.101139
      13.690000       0.321462       1.182484       1.091835
      13.700000       0.314180       1.149785       1.081587
      13.710000       0.306628       1.114589       1.071607
      13.720000       0.299022       1.078160       1.062716
      13.730000       0.291551       1.041414       1.055363
      13.740000       0.284371       1.004995       1.049705
      13.750000       0.277612       0.969387       1.045702
      13.760000       0.271385       0.935022       1.043186
      13.770000       0.265779       0.902330       1.041913
      13.780000       0.260857       0.871731       1.041577
      13.790000       0.256640       0.843602       1.041823
      13.800000       0.253104       0.818234       1.042259
      13.810000       0.250185       0.795815       1.042495
      13.820000       0.247790       0.776452       1.042193
      13.830000       0.245825       0.760197       1.041129
      13.840000       0.244213       0.747088       1.039226
      13.850000       0.242911       0.737158       1.036560
      13.860000       0.241913       0.730425       1.033319
      13.870000       0.241244       0.726874       1.029749
      13.880000       0.240945       0.726421       1.026088
      13.890000       0.241057       0.728892       1.022512
      13.900000       0.241606       0.733985       1.019098
      13.910000       0.242601       0.741246       1.015826
      13.920000       0.244024       0.750066       1.012606
      13.930000       0.245833       0.759709       1.009338
      13.940000       0.247959       0.769386       1.005980
      13.950000       0.250318       0.778357       1.002581
      13.960000       0.252830       0.786037       0.999270
      13.970000       0.255440       0.792080       0.996205
      13.980000       0.258127       0.796410       0.993500
      13.990000       0.260910       0.799193       0.991172
      14.000000       0.263831       0.800750       0.989124
      14.010000       0.266932       0.801462       0.987173
      14.020000       0.270235       0.801683       0.985098
      14.030000       0.273725       0.801679       0.982707
      14.040000       0.277341       0.801593       0.979876
      14.050000       0.280968       0.801434       0.976567
      14.060000       0.284445       0.801084       0.972824
      14.070000       0.287574       0.800327       0.968750
      14.080000       0.290142       0.798907       0.964492
      14.090000       0.291950       0.796575       0.960219
      14.100000       0.292844       0.793141       0.956118
      14.110000       0.292735       0.788473       0.952395
      14.120000       0.291609       0.782491       0.949262
      14.130000       0.289514       0.775140       0.946918
      14.140000       0.286551       0.766394       0.945511
      14.150000       0.282860       0.756286       0.945077
      14.160000       0.278609       0.744940       0.945484
      14.170000       0.273983       0.732591       0.946381
      14.180000       0.269164       0.719581       0.947183
      14.190000       0.264313       0.706318       0.947113
      14.200000       0.259561       0.693230       0.945310
      14.210000       0.255004       0.680712       0.940981
      14.220000       0.250713       0.669081       0.933563
      14.230000       0.246742       0.658564       0.922839
      14.240000       0.243130       0.649300       0.908962
      14.250000       0.239898       0.641354       0.892391
      14.260000       0.237045       0.634735       0.873748
      14.270000       0.234534       0.629421       0.853673
      14.280000       0.232304       0.625387       0.832708
      14.290000       0.230277       0.622649       0.811260
      14.300000       0.228377       0.621309       0.789620
      14.310000       0.226550       0.621571       0.768021
      14.320000       0.224781       0.623724       0.746677
      14.330000       0.223100       0.628082       0.725804
      14.340000       0.221574       0.634919       0.705598
      14.350000       0.220293       0.644402       0.686201
      14.360000       0.219349       0.656554       0.667676
      14.370000       0.218825       0.671251       0.650002
      14.380000       0.218779       0.688253       0.633100
      14.390000       0.219245       0.707257       0.616869
      14.400000       0.220224       0.727959       0.601231
      14.410000       0.221693       0.750108       0.586156
      14.420000       0.223601       0.773535       0.571670
      14.430000       0.225873       0.798149       0.557849
      14.440000       0.228404       0.823906       0.544795
      14.450000       0.231055       0.850730       0.532629
      14.460000       0.233651       0.878438       0.521470
      14.470000       0.235988       0.906657       0.511420
      14.480000       0.237855       0.934788       0.502555
      14.490000       0.239071       0.962028       0.494919
      14.500000       0.239515       0.987455       0.488522
      14.510000       0.239155       1.010190       0.483343
      14.520000       0.238047       1.029591       0.479323
      14.530000       0.236313       1.045420       0.476365
      14.540000       0.234101       1.057917       0.474336
      14.550000       0.231560       1.067722       0.473074
      14.560000       0.228811       1.075678       0.472401
      14.570000       0.225945       1.082593       0.472146
      14.580000       0.223026       1.089051       0.472160
      14.590000       0.220101       1.095335       0.472339
      14.600000       0.217207       1.101472       0.472623
      14.610000       0.214379       1.107359       0.472984
      14.620000       0.211656       1.112884       0.473401
      14.630000       0.209082       1.118005       0.473834
      14.640000       0.206705       1.122733       0.474218
      14.650000       0.204561       1.127052       0.474467
      14.660000       0.202663       1.130833       0.474498
      14.670000       0.200988       1.133782       0.474254
      14.680000       0.199482       1.135462       0.473723
      14.690000       0.198077       1.135378       0.472949
      14.700000       0.196706       1.133086       0.472038
      14.710000       0.195332       1.128300       0.471152
      14.720000       0.193944       1.120937       0.470501
      14.730000       0.192560       1.111120       0.470323
      14.740000       0.191209       1.099124       0.470862
      14.750000       0.189921       1.085324       0.472326
      14.760000       0.188718       1.070131       0.474853
      14.770000       0.187616       1.053943       0.478468
      14.780000       0.186630       1.037097       0.483048
      14.790000       0.185780       1.019842       0.488308
      14.800000       0.185093       1.002330       0.493803
      14.810000       0.184608       0.984656       0.498962
      14.820000       0.184362       0.966895       0.503148
      14.830000       0.184376       0.949161       0.505745
      14.840000       0.184645       0.931648       0.506251
      14.850000       0.185121       0.914656       0.504377
      14.860000       0.185727       0.898579       0.500105
      14.870000       0.186362       0.883859       0.493703
      14.880000       0.186935       0.870898       0.485671
      14.890000       0.187387       0.859974       0.476642
      14.900000       0.187714       0.851185       0.467263
      14.910000       0.187974       0.844428       0.458099
      14.920000       0.188273       0.839432       0.449575
      14.930000       0.188750       0.835819       0.441962
      14.940000       0.189557       0.833185       0.435400
      14.950000       0.190843       0.831190       0.429929
      14.960000       0.192732       0.829638       0.425519
      14.970000       0.195316       0.828522       0.422091
      14.980000       0.198639       0.828023       0.419530
      14.990000       0.202688       0.828465       0.417693
      15.000000       0.207388       0.830201       0.416427
      15.010000       0.212598       0.833494       0.415597
      15.020000       0.218116       0.838396       0.415105
      15.030000       0.223693       0.844691       0.414904
      15.040000       0.229045       0.851898       0.415000
      15.050000       0.233884       0.859363       0.415435
      15.060000       0.237937       0.866385       0.416270
      15.070000       0.240967       0.872361       0.417566
      15.080000       0.242788       0.876897       0.419370
      15.090000       0.243282       0.879864       0.421699
      15.100000       0.242415       0.881385       0.424539
      15.110000       0.240239       0.881770       0.427840
      15.120000       0.236899       0.881417       0.431529
      15.130000       0.232615       0.880706       0.435518
      15.140000       0.227661       0.879920       0.439708
      15.150000       0.222330       0.879184       0.443993
      15.160000       0.216902       0.878465       0.448248
      15.170000       0.211621       0.877620       0.452317
      15.180000       0.206679       0.876486       0.456011
      15.190000       0.202210       0.874984       0.459126
      15.200000       0.198292       0.873190       0.461468
      15.210000       0.194948       0.871349       0.462896
      15.220000       0.192152       0.869848       0.463341
      15.230000       0.189837       0.869144       0.462819
      15.240000       0.187910       0.869688       0.461420
      15.250000       0.186258       0.871840       0.459295
      15.260000       0.184768       0.875805       0.456631
      15.270000       0.183328       0.881581       0.453634
      15.280000       0.181841       0.888929       0.450507
      15.290000       0.180229       0.897384       0.447435
      15.300000       0.178441       0.906307       0.444573
      15.310000       0.176457       0.914972       0.442036
      15.320000       0.174289       0.922680       0.439893
      15.330000       0.171988       0.928858       0.438164
      15.340000       0.169628       0.933106       0.436830
      15.350000       0.167298       0.935180       0.435853
      15.360000       0.165084       0.934944       0.435197
      15.370000       0.163056       0.932299       0.434850
      15.380000       0.161259       0.927155       0.434831
      15.390000       0.159708       0.919443       0.435181
      15.400000       0.158392       0.909170       0.435941
      15.410000       0.157275       0.896498       0.437125
      15.420000       0.156307       0.881792       0.438694
      15.430000       0.155430       0.865616       0.440542
      15.440000       0.154589       0.848664       0.442495
      15.450000       0.153737       0.831659       0.444323
      15.460000       0.152841       0.815257       0.445758
      15.470000       0.151890       0.799981       0.446515
      15.480000       0.150887       0.786192       0.446309
      15.490000       0.149850       0.774076       0.444870
      15.500000       0.148796       0.763652       0.441981
      15.510000       0.147736       0.754802       0.437510
      15.520000       0.146671       0.747323       0.431450
      15.530000       0.145597       0.741000       0.423948
      15.540000       0.144510       0.735679       0.415296
      15.550000       0.143422       0.731292       0.405897
      15.560000       0.142356       0.727841       0.396194
      15.570000       0.141352       0.725348       0.386608
      15.580000       0.140458       0.723801       0.377476
      15.590000       0.139721       0.723118       0.369026
      15.600000       0.139182       0.723147       0.361374
      15.610000       0.138864       0.723676       0.354537
      15.620000       0.138769       0.724461       0.348463
      15.630000       0.138876       0.725272       0.343058
      15.640000       0.139144       0.725928       0.338205
      15.650000       0.139514       0.726321       0.333783
      15.660000       0.139922       0.726404       0.329675
      15.670000       0.140298       0.726141       0.325773
      15.680000       0.140576       0.725448       0.321988
      15.690000       0.140696       0.724157       0.318255
      15.700000       0.140612       0.722041       0.314537
      15.710000       0.140303       0.718889       0.310829
      15.720000       0.139783       0.714618       0.307153
      15.730000       0.139105       0.709347       0.303541
      15.740000       0.138358       0.703431       0.300025
      15.750000       0.137653       0.697420       0.296624
      15.760000       0.137111       0.691967       0.293337
      15.770000       0.136843       0.687712       0.290157
      15.780000       0.136937       0.685167       0.287079
      15.790000       0.137449       0.684630       0.284111
      15.800000       0.138402       0.686147       0.281282
      15.810000       0.139782       0.689518       0.278635
      15.820000       0.141553       0.694362       0.276218
      15.830000       0.143656       0.700197       0.274072
      15.840000       0.146028       0.706523       0.272217
      15.850000       0.148600       0.712881       0.270647
      15.860000       0.151311       0.718884       0.269327
      15.870000       0.154108       0.724239       0.268203
      15.880000       0.156959       0.728753       0.267215
      15.890000       0.159848       0.732332       0.266317
      15.900000       0.162772       0.734957       0.265484
      15.910000       0.165733       0.736652       0.264720
      15.920000       0.168716       0.737454       0.264057
      15.930000       0.171691       0.737387       0.263542
      15.940000       0.174601       0.736468       0.263231
      15.950000       0.177375       0.734718       0.263173
      15.960000       0.179936       0.732196       0.263403
      15.970000       0.182216       0.729034       0.263938
      15.980000       0.184171       0.725448       0.264775
      15.990000       0.185786       0.721725       0.265906
      16.000000       0.187079       0.718180       0.267320
      16.010000       0.188094       0.715101       0.269021
      16.020000       0.188890       0.712710       0.271022
      16.030000       0.189528       0.711152       0.273345
      16.040000       0.190063       0.710513       0.276002
      16.050000       0.190529       0.710842       0.278983
      16.060000       0.190940       0.712173       0.282246
      16.070000       0.191285       0.714537       0.285712
      16.080000       0.191533       0.717959       0.289280
      16.090000       0.191638       0.722443       0.292832
      16.100000       0.191540       0.727941       0.296252
      16.110000       0.191171       0.734317       0.299430
      16.120000       0.190458       0.741304       0.302256
      16.130000       0.189326       0.748475       0.304615
      16.140000       0.187702       0.755229       0.306371
      16.150000       0.185524       0.760821       0.307364
      16.160000       0.182753       0.764439       0.307426
      16.170000       0.179389       0.765332       0.306393
      16.180000       0.175484       0.762957       0.304146
      16.190000       0.171137       0.757106       0.300639
      16.200000       0.166481       0.747960       0.295916
      16.210000       0.161666       0.736059       0.290115
      16.220000       0.156830       0.722198       0.283448
      16.230000       0.152095       0.707284       0.276161
      16.240000       0.147559       0.692220       0.268508
      16.250000       0.143302       0.677811       0.260720
      16.260000       0.139393       0.664720       0.252993
      16.270000       0.135893       0.653457       0.245485
      16.280000       0.132852       0.644382       0.238320
      16.290000       0.130304       0.637699       0.231590
      16.300000       0.128266       0.633452       0.225359
      16.310000       0.126730       0.631519       0.219659
      16.320000       0.125666       0.631611       0.214495
      16.330000       0.125026       0.633302       0.209846
      16.340000       0.124749       0.636076       0.205675
      16.350000       0.124772       0.639396       0.201941
      16.360000       0.125032       0.642779       0.198607
      16.370000       0.125477       0.645866       0.195646
      16.380000       0.126065       0.648458       0.193042
      16.390000       0.126761       0.650503       0.190780
      16.400000       0.127530       0.652031       0.188842
      16.410000       0.128329       0.653065       0.187200
      16.420000       0.129105       0.653544       0.185824
      16.430000       0.129792       0.653290       0.184683
      16.440000       0.130319       0.652043       0.183758
      16.450000       0.130626       0.649546       0.183041
      16.460000       0.130674       0.645655       0.182534
      16.470000       0.130460       0.640398       0.182240
      16.480000       0.130014       0.633983       0.182154
      16.490000       0.129395       0.626745       0.182265
      16.500000       0.128676       0.619070       0.182553
      16.510000       0.127928       0.611335       0.182996
      16.520000       0.127205       0.603877       0.183570
      16.530000       0.126541       0.596976       0.184250
      16.540000       0.125949       0.590851       0.185010
      16.550000       0.125422       0.585642       0.185828
      16.560000       0.124942       0.581398       0.186688
      16.570000       0.124490       0.578054       0.187593
      16.580000       0.124050       0.575442       0.188564
      16.590000       0.123611       0.573328       0.189641
      16.600000       0.123165       0.571483       0.190876
      16.610000       0.122711       0.569761       0.192319
      16.620000       0.122244       0.568159       0.194004
      16.630000       0.121763       0.566814       0.195938
      16.640000       0.121268       0.565944       0.198093
      16.650000       0.120760       0.565752       0.200407
      16.660000       0.120247       0.566343       0.202802
      16.670000       0.119745       0.567681       0.205197
      16.680000       0.119277       0.569585       0.207530
      16.690000       0.118868       0.571776       0.209771
      16.700000       0.118537       0.573919       0.211918
      16.710000       0.118296       0.575662       0.213988
      16.720000       0.118144       0.576660       0.215995
      16.730000       0.118065       0.576592       0.217939
      16.740000       0.118038       0.575178       0.219792
      16.750000       0.118041       0.572210       0.221498
      16.760000       0.118056       0.567584       0.222964
      16.770000       0.118079       0.561318       0.224068
      16.780000       0.118119       0.553560       0.224660
      16.790000       0.118196       0.544577       0.224580
      16.800000       0.118337       0.534735       0.223674
      16.810000       0.118575       0.524462       0.221827
      16.820000       0.118937       0.514231       0.218984
      16.830000       0.119443       0.504517       0.215182
      16.840000       0.120095       0.495766       0.210551
      16.850000       0.120879       0.488352       0.205310
      16.860000       0.121758       0.482543       0.199731
      16.870000       0.122682       0.478483       0.194111
      16.880000       0.123593       0.476201       0.188722
      16.890000       0.124441       0.475623       0.183791
      16.900000       0.125188       0.476592       0.179478
      16.910000       0.125811       0.478873       0.175876
      16.920000       0.126306       0.482169       0.173012
      16.930000       0.126680       0.486125       0.170860
      16.940000       0.126949       0.490363       0.169355
      16.950000       0.127134       0.494519       0.168408
      16.960000       0.127258       0.498275       0.167925
      16.970000       0.127345       0.501381       0.167822
      16.980000       0.127417       0.503653       0.168035
      16.990000       0.127493       0.504972       0.168529
      17.000000       0.127584       0.505281       0.169288
      17.010000       0.127691       0.504598       0.170307
      17.020000       0.127802       0.503014       0.171583
      17.030000       0.127893       0.500672       0.173100
      17.040000       0.127927       0.497727       0.174829
      17.050000       0.127856       0.494296       0.176720
      17.060000       0.127627       0.490442       0.178706
      17.070000       0.127198       0.486177       0.180719
      17.080000       0.126546       0.481503       0.182700
      17.090000       0.125680       0.476448       0.184622
      17.100000       0.124646       0.471094       0.186495
      17.110000       0.123517       0.465577       0.188368
      17.120000       0.122376       0.460064       0.190316
      17.130000       0.121298       0.454731       0.192419
      17.140000       0.120333       0.449736       0.194738
      17.150000       0.119495       0.445211       0.197299
      17.160000       0.118765       0.441255       0.200089
      17.170000       0.118096       0.437920       0.203045
      17.180000       0.117428       0.435211       0.206073
      17.190000       0.116700       0.433071       0.209061
      17.200000       0.115865       0.431383       0.211903
      17.210000       0.114895       0.429975       0.214517
      17.220000       0.113788       0.428645       0.216851
      17.230000       0.112562       0.427176       0.218887
      17.240000       0.111250       0.425369       0.220634
      17.250000       0.109893       0.423068       0.222122
      17.260000       0.108531       0.420177       0.223390
      17.270000       0.107203       0.416668       0.224476
      17.280000       0.105941       0.412580       0.225395
      17.290000       0.104772       0.408014       0.226126
      17.300000       0.103721       0.403109       0.226606
      17.310000       0.102810       0.398017       0.226735
      17.320000       0.102058       0.392877       0.226395
      17.330000       0.101481       0.387803       0.225482
      17.340000       0.101090       0.382887       0.223941
      17.350000       0.100894       0.378209       0.221794
      17.360000       0.100896       0.373856       0.219144
      17.370000       0.101097       0.369917       0.216165
      17.380000       0.101490       0.366466       0.213065
      17.390000       0.102055       0.363542       0.210043
      17.400000       0.102764       0.361132       0.207257
      17.410000       0.103581       0.359178       0.204808
      17.420000       0.104465       0.357598       0.202743
      17.430000       0.105384       0.356309       0.201070
      17.440000       0.106309       0.355241       0.199778
      17.450000       0.107218       0.354341       0.198849
      17.460000       0.108088       0.353565       0.198268
      17.470000       0.108891       0.352874       0.198020
      17.480000       0.109592       0.352220       0.198087
      17.490000       0.110152       0.351554       0.198446
      17.500000       0.110534       0.350831       0.199066
      17.510000       0.110713       0.350016       0.199906
      17.520000       0.110677       0.349100       0.200921
      17.530000       0.110437       0.348091       0.202065
      17.540000       0.110020       0.347016       0.203295
      17.550000       0.109470       0.345899       0.204582
      17.560000       0.108838       0.344742       0.205929
      17.570000       0.108183       0.343512       0.207368
      17.580000       0.107555       0.342125       0.208969
      17.590000       0.106996       0.340458       0.210826
      17.600000       0.106534       0.338375       0.213040
      17.610000       0.106184       0.335769       0.215706
      17.620000       0.105950       0.332608       0.218889
      17.630000       0.105822       0.328954       0.222620
      17.640000       0.105778       0.324962       0.226893
      17.650000       0.105790       0.320833       0.231670
      17.660000       0.105815       0.316767       0.236888
      17.670000       0.105810       0.312914       0.242461
      17.680000       0.105735       0.309360       0.248282
      17.690000       0.105559       0.306134       0.254217
      17.700000       0.105273       0.303225       0.260106
      17.710000       0.104888       0.300604       0.265753
      17.720000       0.104430       0.298234       0.270947
      17.730000       0.103937       0.296089       0.275472
      17.740000       0.103442       0.294149       0.279135
      17.750000       0.102963       0.292413       0.281789
      17.760000       0.102502       0.290887       0.283359
      17.770000       0.102048       0.289579       0.283845
      17.780000       0.101577       0.288478       0.283324
      17.790000       0.101069       0.287536       0.281932
      17.800000       0.100507       0.286663       0.279847
      17.810000       0.099886       0.285740       0.277259
      17.820000       0.099208       0.284648       0.274358
      17.830000       0.098487       0.283307       0.271308
      17.840000       0.097743       0.281697       0.268243
      17.850000       0.097005       0.279860       0.265260
      17.860000       0.096306       0.277881       0.262427
      17.870000       0.095679       0.275863       0.259784
      17.880000       0.095156       0.273918       0.257360
      17.890000       0.094761       0.272159       0.255171
      17.900000       0.094510       0.270698       0.253223
      17.910000       0.094406       0.269636       0.251501
      17.920000       0.094434       0.269045       0.249967
      17.930000       0.094565       0.268957       0.248556
      17.940000       0.094750       0.269358       0.247175
      17.950000       0.094932       0.270188       0.245721
      17.960000       0.095047       0.271356       0.244096
      17.970000       0.095035       0.272747       0.242231
      17.980000       0.094845       0.274234       0.240103
      17.990000       0.094433       0.275669       0.237754
      18.000000       0.093766       0.276883       0.235289
      18.010000       0.092821       0.277687       0.232858
      18.020000       0.091585       0.277887       0.230629
      18.030000       0.090061       0.277312       0.228750
      18.040000       0.088272       0.275849       0.227326
      18.050000       0.086260       0.273468       0.226394
      18.060000       0.084084       0.270233       0.225926
      18.070000       0.081814       0.266282       0.225826
      18.080000       0.079523       0.261809       0.225950
      18.090000       0.077284       0.257029       0.226124
      18.100000       0.075156       0.252159       0.226174
      18.110000       0.073187       0.247402       0.225961
      18.120000       0.071408       0.242940       0.225403
      18.130000       0.069836       0.238927       0.224488
      18.140000       0.068478       0.235487       0.223271
      18.150000       0.067333       0.232705       0.221855
      18.160000       0.066395       0.230626       0.220360
      18.170000       0.065660       0.229252       0.218906
      18.180000       0.065119       0.228538       0.217587
      18.190000       0.064764       0.228401       0.216468
      18.200000       0.064584       0.228717       0.215580
      18.210000       0.064572       0.229338       0.214928
      18.220000       0.064719       0.230110       0.214496
      18.230000       0.065021       0.230898       0.214252
      18.240000       0.065472       0.231610       0.214157
      18.250000       0.066069       0.232217       0.214168
      18.260000       0.066807       0.232751       0.214249
      18.270000       0.067679       0.233283       0.214375
      18.280000       0.068673       0.233901       0.214539
      18.290000       0.069765       0.234673       0.214752
      18.300000       0.070923       0.235627       0.215028
      18.310000       0.072106       0.236743       0.215379
      18.320000       0.073266       0.237962       0.215805
      18.330000       0.074361       0.239204       0.216299
      18.340000       0.075354       0.240396       0.216849
      18.350000       0.076225       0.241487       0.217438
      18.360000       0.076968       0.242462       0.218045
      18.370000       0.077584       0.243333       0.218630
      18.380000       0.078079       0.244133       0.219128
      18.390000       0.078457       0.244912       0.219457
      18.400000       0.078725       0.245723       0.219531
      18.410000       0.078895       0.246601       0.219286
      18.420000       0.078984       0.247547       0.218707
      18.430000       0.079011       0.248502       0.217830
      18.440000       0.078996       0.249335       0.216733
      18.450000       0.078948       0.249852       0.215507
      18.460000       0.078864       0.249827       0.214236
      18.470000       0.078730       0.249053       0.212968
      18.480000       0.078528       0.247388       0.211713
      18.490000       0.078240       0.244795       0.210438
      18.500000       0.077861       0.241352       0.209083
      18.510000       0.077397       0.237229       0.207570
      18.520000       0.076874       0.232654       0.205826
      18.530000       0.076323       0.227858       0.203801
      18.540000       0.075776       0.223038       0.201484
      18.550000       0.075249       0.218316       0.198912
      18.560000       0.074741       0.213731       0.196164
      18.570000       0.074229       0.209258       0.193350
      18.580000       0.073670       0.204838       0.190591
      18.590000       0.073016       0.200425       0.187991
      18.600000       0.072223       0.196014       0.185628
      18.610000       0.071267       0.191659       0.183544
      18.620000       0.070149       0.187456       0.181755
      18.630000       0.068894       0.183517       0.180251
      18.640000       0.067550       0.179946       0.179015
      18.650000       0.066172       0.176818       0.178026
      18.660000       0.064817       0.174164       0.177269
      18.670000       0.063530       0.171976       0.176738
      18.680000       0.062346       0.170208       0.176437
      18.690000       0.061285       0.168796       0.176372
      18.700000       0.060357       0.167662       0.176546
      18.710000       0.059559       0.166734       0.176953
      18.720000       0.058883       0.165952       0.177571
      18.730000       0.058311       0.165269       0.178360
      18.740000       0.057825       0.164651       0.179260
      18.750000       0.057403       0.164074       0.180198
      18.760000       0.057027       0.163518       0.181083
      18.770000       0.056689       0.162978       0.181819
      18.780000       0.056387       0.162453       0.182309
      18.790000       0.056135       0.161955       0.182461
      18.800000       0.055951       0.161499       0.182207
      18.810000       0.055857       0.161107       0.181510
      18.820000       0.055870       0.160802       0.180372
      18.830000       0.055996       0.160613       0.178843
      18.840000       0.056225       0.160573       0.177012
      18.850000       0.056536       0.160710       0.174994
      18.860000       0.056896       0.161053       0.172916
      18.870000       0.057271       0.161625       0.170892
      18.880000       0.057629       0.162451       0.169017
      18.890000       0.057950       0.163561       0.167358
      18.900000       0.058227       0.164993       0.165954
      18.910000       0.058474       0.166780       0.164824
      18.920000       0.058716       0.168948       0.163971
      18.930000       0.058990       0.171503       0.163394
      18.940000       0.059332       0.174423       0.163088
      18.950000       0.059774       0.177653       0.163047
      18.960000       0.060331       0.181099       0.163268
      18.970000       0.061001       0.184638       0.163740
      18.980000       0.061766       0.188123       0.164444
      18.990000       0.062589       0.191400       0.165349
      19.000000       0.063428       0.194313       0.166410
      19.010000       0.064233       0.196724       0.167574
      19.020000       0.064967       0.198525       0.168790
      19.030000       0.065604       0.199651       0.170013
      19.040000       0.066139       0.200093       0.171208
      19.050000       0.066589       0.199902       0.172343
      19.060000       0.066988       0.199177       0.173380
      19.070000       0.067381       0.198057       0.174258
      19.080000       0.067816       0.196696       0.174889
      19.090000       0.068336       0.195246       0.175159
      19.100000       0.068972       0.193846       0.174950
      19.110000       0.069746       0.192603       0.174167
      19.120000       0.070663       0.191596       0.172764
      19.130000       0.071713       0.190864       0.170772
      19.140000       0.072873       0.190405       0.168296
      19.150000       0.074111       0.190174       0.165496
      19.160000       0.075385       0.190088       0.162567
      19.170000       0.076654       0.190047       0.159699
      19.180000       0.077879       0.189951       0.157057
      19.190000       0.079031       0.189731       0.154764
      19.200000       0.080088       0.189357       0.152897
      19.210000       0.081038       0.188839       0.151487
      19.220000       0.081869       0.188208       0.150526
      19.230000       0.082573       0.187495       0.149977
      19.240000       0.083138       0.186717       0.149779
      19.250000       0.083555       0.185869       0.149863
      19.260000       0.083815       0.184923       0.150165
      19.270000       0.083919       0.183841       0.150634
      19.280000       0.083882       0.182577       0.151235
      19.290000       0.083734       0.181102       0.151947
      19.300000       0.083522       0.179416       0.152749
      19.310000       0.083305       0.177562       0.153615
      19.320000       0.083149       0.175624       0.154509
      19.330000       0.083112       0.173717       0.155388
      19.340000       0.083247       0.171971       0.156206
      19.350000       0.083588       0.170508       0.156922
      19.360000       0.084156       0.169430       0.157503
      19.370000       0.084951       0.168808       0.157925
      19.380000       0.085953       0.168673       0.158173
      19.390000       0.087123       0.169012       0.158244
      19.400000       0.088408       0.169772       0.158135
      19.410000       0.089746       0.170864       0.157846
      19.420000       0.091072       0.172177       0.157373
      19.430000       0.092326       0.173594       0.156711
      19.440000       0.093454       0.175008       0.155854
      19.450000       0.094413       0.176328       0.154806
      19.460000       0.095171       0.177482       0.153584
      19.470000       0.095713       0.178414       0.152222
      19.480000       0.096044       0.179077       0.150775
      19.490000       0.096188       0.179431       0.149315
      19.500000       0.096186       0.179438       0.147918
      19.510000       0.096087       0.179074       0.146665
      19.520000       0.095940       0.178335       0.145624
      19.530000       0.095782       0.177241       0.144853
      19.540000       0.095637       0.175833       0.144399
      19.550000       0.095507       0.174161       0.144293
      19.560000       0.095381       0.172275       0.144554
      19.570000       0.095241       0.170221       0.145189
      19.580000       0.095072       0.168043       0.146191
      19.590000       0.094872       0.165791       0.147534
      19.600000       0.094649       0.163517       0.149176
      19.610000       0.094423       0.161278       0.151054
      19.620000       0.094213       0.159123       0.153081
      19.630000       0.094036       0.157096       0.155149
      19.640000       0.093899       0.155240       0.157134
      19.650000       0.093803       0.153597       0.158909
      19.660000       0.093742       0.152215       0.160360
      19.670000       0.093706       0.151143       0.161409
      19.680000       0.093683       0.150423       0.162033
      19.690000       0.093664       0.150082       0.162268
      19.700000       0.093645       0.150116       0.162209
      19.710000       0.093628       0.150480       0.161986
      19.720000       0.093621       0.151084       0.161742
      19.730000       0.093633       0.151797       0.161608
      19.740000       0.093674       0.152460       0.161689
      19.750000       0.093747       0.152905       0.162057
      19.760000       0.093850       0.152987       0.162745
      19.770000       0.093982       0.152605       0.163750
      19.780000       0.094143       0.151723       0.165025
      19.790000       0.094345       0.150376       0.166480
      19.800000       0.094611       0.148659       0.167985
      19.810000       0.094980       0.146711       0.169375
      19.820000       0.095495       0.144692       0.170476
      19.830000       0.096197       0.142756       0.171123
      19.840000       0.097116       0.141034       0.171191
      19.850000       0.098256       0.139629       0.170613
      19.860000       0.099590       0.138605       0.169387
      19.870000       0.101063       0.138001       0.167572
      19.880000       0.102597       0.137831       0.165267
      19.890000       0.104100       0.138098       0.162593
      19.900000       0.105488       0.138797       0.159679
      19.910000       0.106692       0.139915       0.156655
      19.920000       0.107674       0.141431       0.153644
      19.930000       0.108422       0.143314       0.150764
      19.940000       0.108955       0.145517       0.148112
      19.950000       0.109302       0.147986       0.145762
      19.960000       0.109500       0.150665       0.143757
      19.970000       0.109581       0.153510       0.142111
      19.980000       0.109569       0.156491       0.140811
      19.990000       0.109472       0.159591       0.139827
      20.000000       0.109291       0.162790       0.139111
