  # energy grid [eV]     epsi_x  epsi_y  epsi_z
       0.000000            NaN            NaN            NaN
       0.010000       0.139814       0.000907       0.001386
       0.020000       0.280345       0.001814       0.002788
       0.030000       0.422319       0.002723       0.004220
       0.040000       0.566479       0.003632       0.005700
       0.050000       0.713598       0.004544       0.007242
       0.060000       0.864485       0.005457       0.008866
       0.070000       1.019996       0.006373       0.010587
       0.080000       1.181050       0.007292       0.012424
       0.090000       1.348640       0.008214       0.014393
       0.100000       1.523846       0.009141       0.016508
       0.110000       1.707854       0.010071       0.018779
       0.120000       1.901975       0.011007       0.021209
       0.130000       2.107670       0.011948       0.023787
       0.140000       2.326567       0.012894       0.026487
       0.150000       2.560503       0.013847       0.029262
       0.160000       2.811547       0.014807       0.032044
       0.170000       3.082046       0.015774       0.034744
       0.180000       3.374668       0.016749       0.037267
       0.190000       3.692456       0.017732       0.039526
       0.200000       4.038884       0.018724       0.041461
       0.210000       4.417925       0.019726       0.043054
       0.220000       4.834122       0.020738       0.044330
       0.230000       5.292663       0.021760       0.045349
       0.240000       5.799452       0.022794       0.046183
       0.250000       6.361173       0.023840       0.046899
       0.260000       6.985324       0.024899       0.047555
       0.270000       7.680202       0.025972       0.048190
       0.280000       8.454795       0.027058       0.048835
       0.290000       9.318528       0.028160       0.049517
       0.300000      10.280784       0.029277       0.050257
       0.310000      11.350091       0.030412       0.051064
       0.320000      12.532872       0.031564       0.051933
       0.330000      13.831650       0.032734       0.052844
       0.340000      15.242711       0.033924       0.053763
       0.350000      16.753378       0.035135       0.054661
       0.360000      18.339348       0.036367       0.055524
       0.370000      19.962865       0.037622       0.056365
       0.380000      21.572703       0.038901       0.057226
       0.390000      23.106816       0.040206       0.058167
       0.400000      24.497974       0.041538       0.059244
       0.410000      25.681888       0.042897       0.060493
       0.420000      26.606325       0.044287       0.061911
       0.430000      27.238989       0.045708       0.063443
       0.440000      27.571732       0.047162       0.064987
       0.450000      27.619475       0.048651       0.066402
       0.460000      27.414012       0.050177       0.067535
       0.470000      26.994788       0.051742       0.068251
       0.480000      26.399884       0.053349       0.068456
       0.490000      25.660348       0.055000       0.068115
       0.500000      24.799433       0.056697       0.067252
       0.510000      23.836025       0.058444       0.065937
       0.520000      22.789669       0.060243       0.064270
       0.530000      21.684243       0.062098       0.062367
       0.540000      20.548409       0.064013       0.060346
       0.550000      19.412731       0.065991       0.058313
       0.560000      18.304876       0.068037       0.056355
       0.570000      17.244963       0.070156       0.054530
       0.580000      16.242834       0.072351       0.052861
       0.590000      15.298126       0.074630       0.051346
       0.600000      14.403021       0.076998       0.049964
       0.610000      13.546721       0.079462       0.048689
       0.620000      12.720095       0.082030       0.047506
       0.630000      11.918914       0.084709       0.046410
       0.640000      11.144705       0.087508       0.045413
       0.650000      10.403395       0.090439       0.044538
       0.660000       9.702823       0.093511       0.043810
       0.670000       9.050359       0.096739       0.043252
       0.680000       8.451376       0.100135       0.042889
       0.690000       7.908727       0.103716       0.042744
       0.700000       7.422934       0.107500       0.042839
       0.710000       6.992742       0.111506       0.043196
       0.720000       6.615753       0.115757       0.043834
       0.730000       6.288982       0.120280       0.044761
       0.740000       6.009285       0.125104       0.045972
       0.750000       5.773647       0.130261       0.047438
       0.760000       5.579367       0.135791       0.049109
       0.770000       5.424167       0.141735       0.050902
       0.780000       5.306240       0.148143       0.052712
       0.790000       5.224265       0.155070       0.054412
       0.800000       5.177397       0.162578       0.055876
       0.810000       5.165243       0.170736       0.056991
       0.820000       5.187816       0.179621       0.057680
       0.830000       5.245473       0.189314       0.057912
       0.840000       5.338812       0.199900       0.057700
       0.850000       5.468528       0.211461       0.057089
       0.860000       5.635162       0.224071       0.056151
       0.870000       5.838753       0.237782       0.054965
       0.880000       6.078337       0.252610       0.053615
       0.890000       6.351353       0.268512       0.052183
       0.900000       6.653040       0.285363       0.050746
       0.910000       6.976024       0.302942       0.049372
       0.920000       7.310348       0.320917       0.048120
       0.930000       7.644164       0.338864       0.047037
       0.940000       7.965123       0.356301       0.046158
       0.950000       8.262189       0.372755       0.045511
       0.960000       8.527332       0.387835       0.045113
       0.970000       8.756521       0.401294       0.044969
       0.980000       8.949718       0.413062       0.045074
       0.990000       9.110015       0.423245       0.045406
       1.000000       9.242386       0.432086       0.045932
       1.010000       9.352585       0.439925       0.046605
       1.020000       9.446410       0.447156       0.047370
       1.030000       9.529287       0.454201       0.048169
       1.040000       9.605957       0.461483       0.048946
       1.050000       9.680233       0.469410       0.049648
       1.060000       9.754932       0.478364       0.050232
       1.070000       9.832046       0.488699       0.050666
       1.080000       9.913019       0.500752       0.050937
       1.090000       9.998866       0.514843       0.051051
       1.100000      10.090054       0.531278       0.051030
       1.110000      10.186281       0.550338       0.050910
       1.120000      10.286374       0.572252       0.050731
       1.130000      10.388335       0.597179       0.050537
       1.140000      10.489358       0.625162       0.050375
       1.150000      10.585685       0.656083       0.050290
       1.160000      10.672296       0.689604       0.050324
       1.170000      10.742632       0.725135       0.050507
       1.180000      10.788457       0.761836       0.050846
       1.190000      10.799934       0.798697       0.051328
       1.200000      10.765964       0.834708       0.051911
       1.210000      10.674932       0.869081       0.052537
       1.220000      10.515993       0.901441       0.053141
       1.230000      10.280876       0.931895       0.053667
       1.240000       9.965873       0.960905       0.054075
       1.250000       9.573462       0.989012       0.054349
       1.260000       9.112904       1.016518       0.054489
       1.270000       8.599421       1.043263       0.054503
       1.280000       8.052074       1.068597       0.054393
       1.290000       7.490947       1.091599       0.054152
       1.300000       6.934489       1.111448       0.053763
       1.310000       6.397656       1.127837       0.053208
       1.320000       5.891118       1.141225       0.052477
       1.330000       5.421366       1.152831       0.051576
       1.340000       4.991384       1.164349       0.050539
       1.350000       4.601538       1.177535       0.049422
       1.360000       4.250438       1.193796       0.048297
       1.370000       3.935649       1.213922       0.047243
       1.380000       3.654215       1.237980       0.046335
       1.390000       3.403023       1.265400       0.045637
       1.400000       3.179021       1.295215       0.045196
       1.410000       2.979357       1.326401       0.045042
       1.420000       2.801433       1.358207       0.045190
       1.430000       2.642936       1.390331       0.045638
       1.440000       2.501835       1.422857       0.046370
       1.450000       2.376363       1.455959       0.047356
       1.460000       2.264993       1.489519       0.048548
       1.470000       2.166414       1.522841       0.049885
       1.480000       2.079500       1.554617       0.051292
       1.490000       2.003280       1.583199       0.052686
       1.500000       1.936906       1.607076       0.053978
       1.510000       1.879631       1.625374       0.055081
       1.520000       1.830776       1.638168       0.055915
       1.530000       1.789728       1.646504       0.056421
       1.540000       1.755927       1.652173       0.056575
       1.550000       1.728891       1.657380       0.056398
       1.560000       1.708230       1.664390       0.055955
       1.570000       1.693664       1.675206       0.055348
       1.580000       1.685012       1.691252       0.054696
       1.590000       1.682147       1.713086       0.054114
       1.600000       1.684915       1.740201       0.053696
       1.610000       1.693056       1.770984       0.053510
       1.620000       1.706133       1.802908       0.053586
       1.630000       1.723528       1.832977       0.053924
       1.640000       1.744494       1.858360       0.054490
       1.650000       1.768259       1.877045       0.055221
       1.660000       1.794136       1.888251       0.056031
       1.670000       1.821598       1.892453       0.056815
       1.680000       1.850301       1.891025       0.057465
       1.690000       1.880050       1.885699       0.057888
       1.700000       1.910757       1.878101       0.058020
       1.710000       1.942378       1.869542       0.057846
       1.720000       1.974869       1.861080       0.057394
       1.730000       2.008147       1.853731       0.056728
       1.740000       2.042088       1.848634       0.055929
       1.750000       2.076554       1.847067       0.055077
       1.760000       2.111413       1.850249       0.054238
       1.770000       2.146503       1.859053       0.053465
       1.780000       2.181557       1.873732       0.052797
       1.790000       2.216111       1.893781       0.052268
       1.800000       2.249425       1.917993       0.051907
       1.810000       2.280440       1.944670       0.051737
       1.820000       2.307752       1.971937       0.051770
       1.830000       2.329608       1.998050       0.052002
       1.840000       2.343935       2.021640       0.052411
       1.850000       2.348410       2.041896       0.052955
       1.860000       2.340599       2.058688       0.053576
       1.870000       2.318200       2.072649       0.054198
       1.880000       2.279404       2.085128       0.054742
       1.890000       2.223328       2.097982       0.055135
       1.900000       2.150395       2.113203       0.055324
       1.910000       2.062505       2.132510       0.055293
       1.920000       1.962881       2.157011       0.055070
       1.930000       1.855601       2.187015       0.054718
       1.940000       1.744962       2.221971       0.054325
       1.950000       1.634877       2.260477       0.053987
       1.960000       1.528472       2.300327       0.053788
       1.970000       1.427915       2.338671       0.053794
       1.980000       1.334465       2.372327       0.054046
       1.990000       1.248638       2.398248       0.054558
       2.000000       1.170420       2.414038       0.055325
       2.010000       1.099472       2.418325       0.056322
       2.020000       1.035294       2.410905       0.057514
       2.030000       0.977335       2.392636       0.058859
       2.040000       0.925066       2.365156       0.060312
       2.050000       0.878000       2.330521       0.061830
       2.060000       0.835701       2.290887       0.063360
       2.070000       0.797773       2.248294       0.064843
       2.080000       0.763848       2.204568       0.066206
       2.090000       0.733577       2.161280       0.067373
       2.100000       0.706624       2.119692       0.068280
       2.110000       0.682657       2.080678       0.068896
       2.120000       0.661350       2.044707       0.069233
       2.130000       0.642375       2.011919       0.069349
       2.140000       0.625406       1.982278       0.069336
       2.150000       0.610131       1.955721       0.069294
       2.160000       0.596267       1.932244       0.069315
       2.170000       0.583581       1.911899       0.069462
       2.180000       0.571912       1.894753       0.069770
       2.190000       0.561177       1.880849       0.070250
       2.200000       0.551360       1.870201       0.070898
       2.210000       0.542479       1.862843       0.071708
       2.220000       0.534555       1.858938       0.072679
       2.230000       0.527586       1.858901       0.073806
       2.240000       0.521536       1.863457       0.075076
       2.250000       0.516340       1.873584       0.076456
       2.260000       0.511920       1.890381       0.077881
       2.270000       0.508198       1.914912       0.079263
       2.280000       0.505108       1.948093       0.080501
       2.290000       0.502592       1.990638       0.081503
       2.300000       0.500586       2.043000       0.082210
       2.310000       0.499014       2.105303       0.082610
       2.320000       0.497781       2.177222       0.082738
       2.330000       0.496792       2.257859       0.082659
       2.340000       0.495988       2.345645       0.082455
       2.350000       0.495380       2.438235       0.082201
       2.360000       0.495062       2.532409       0.081965
       2.370000       0.495209       2.623954       0.081806
       2.380000       0.496032       2.707642       0.081786
       2.390000       0.497738       2.777438       0.081966
       2.400000       0.500486       2.827083       0.082407
       2.410000       0.504369       2.851009       0.083156
       2.420000       0.509398       2.845410       0.084236
       2.430000       0.515511       2.809116       0.085638
       2.440000       0.522595       2.743974       0.087310
       2.450000       0.530522       2.654528       0.089169
       2.460000       0.539200       2.547114       0.091106
       2.470000       0.548613       2.428662       0.093009
       2.480000       0.558833       2.305593       0.094783
       2.490000       0.569989       2.183095       0.096371
       2.500000       0.582210       2.064872       0.097755
       2.510000       0.595554       1.953283       0.098955
       2.520000       0.609960       1.849689       0.100007
       2.530000       0.625240       1.754813       0.100948
       2.540000       0.641088       1.668981       0.101799
       2.550000       0.657110       1.592215       0.102563
       2.560000       0.672827       1.524225       0.103232
       2.570000       0.687672       1.464381       0.103802
       2.580000       0.700980       1.411732       0.104280
       2.590000       0.712008       1.365111       0.104687
       2.600000       0.719981       1.323314       0.105062
       2.610000       0.724178       1.285322       0.105448
       2.620000       0.724027       1.250476       0.105888
       2.630000       0.719211       1.218545       0.106425
       2.640000       0.709752       1.189663       0.107100
       2.650000       0.696071       1.164164       0.107954
       2.660000       0.678960       1.142408       0.109029
       2.670000       0.659494       1.124636       0.110353
       2.680000       0.638865       1.110893       0.111936
       2.690000       0.618219       1.101012       0.113753
       2.700000       0.598519       1.094641       0.115738
       2.710000       0.580468       1.091313       0.117788
       2.720000       0.564499       1.090529       0.119779
       2.730000       0.550803       1.091831       0.121588
       2.740000       0.539382       1.094830       0.123116
       2.750000       0.530116       1.099187       0.124301
       2.760000       0.522825       1.104552       0.125121
       2.770000       0.517327       1.110537       0.125590
       2.780000       0.513485       1.116730       0.125750
       2.790000       0.511230       1.122777       0.125654
       2.800000       0.510572       1.128464       0.125364
       2.810000       0.511593       1.133770       0.124935
       2.820000       0.514427       1.138848       0.124413
       2.830000       0.519235       1.143980       0.123829
       2.840000       0.526180       1.149529       0.123190
       2.850000       0.535404       1.155940       0.122487
       2.860000       0.547013       1.163755       0.121696
       2.870000       0.561068       1.173634       0.120795
       2.880000       0.577571       1.186333       0.119778
       2.890000       0.596452       1.202654       0.118659
       2.900000       0.617539       1.223366       0.117481
       2.910000       0.640547       1.249120       0.116310
       2.920000       0.665071       1.280372       0.115222
       2.930000       0.690637       1.317348       0.114300
       2.940000       0.716790       1.360030       0.113620
       2.950000       0.743212       1.408172       0.113238
       2.960000       0.769822       1.461346       0.113188
       2.970000       0.796794       1.518989       0.113476
       2.980000       0.824466       1.580476       0.114089
       2.990000       0.853158       1.645169       0.114996
       3.000000       0.882977       1.712450       0.116160
       3.010000       0.913662       1.781691       0.117532
       3.020000       0.944559       1.852203       0.119059
       3.030000       0.974722       1.923172       0.120676
       3.040000       1.003133       1.993608       0.122310
       3.050000       1.028937       2.062285       0.123891
       3.060000       1.051615       2.127705       0.125353
       3.070000       1.071015       2.188094       0.126650
       3.080000       1.087276       2.241515       0.127753
       3.090000       1.100736       2.286126       0.128660
       3.100000       1.111871       2.320569       0.129388
       3.110000       1.121284       2.344362       0.129971
       3.120000       1.129651       2.358112       0.130456
       3.130000       1.137572       2.363399       0.130891
       3.140000       1.145355       2.362333       0.131322
       3.150000       1.152819       2.356947       0.131795
       3.160000       1.159224       2.348683       0.132346
       3.170000       1.163433       2.338202       0.133011
       3.180000       1.164258       2.325540       0.133817
       3.190000       1.160896       2.310535       0.134778
       3.200000       1.153282       2.293278       0.135889
       3.210000       1.142171       2.274377       0.137118
       3.220000       1.128939       2.254925       0.138407
       3.230000       1.115179       2.236225       0.139678
       3.240000       1.102275       2.219466       0.140833
       3.250000       1.091103       2.205513       0.141775
       3.260000       1.081928       2.194893       0.142409
       3.270000       1.074485       2.187873       0.142664
       3.280000       1.068229       2.184502       0.142502
       3.290000       1.062632       2.184517       0.141920
       3.300000       1.057454       2.187145       0.140951
       3.310000       1.052885       2.190957       0.139654
       3.320000       1.049504       2.193948       0.138104
       3.330000       1.048103       2.193905       0.136374
       3.340000       1.049457       2.188983       0.134534
       3.350000       1.054112       2.178227       0.132645
       3.360000       1.062243       2.161794       0.130762
       3.370000       1.073570       2.140766       0.128947
       3.380000       1.087320       2.116682       0.127272
       3.390000       1.102247       2.091057       0.125819
       3.400000       1.116741       2.065126       0.124670
       3.410000       1.129057       2.039855       0.123898
       3.420000       1.137646       2.016137       0.123546
       3.430000       1.141507       1.994964       0.123623
       3.440000       1.140429       1.977463       0.124096
       3.450000       1.134998       1.964764       0.124896
       3.460000       1.126362       1.957762       0.125925
       3.470000       1.115871       1.956854       0.127072
       3.480000       1.104731       1.961735       0.128227
       3.490000       1.093823       1.971332       0.129295
       3.500000       1.083697       1.983913       0.130215
       3.510000       1.074697       1.997386       0.130968
       3.520000       1.067119       2.009735       0.131582
       3.530000       1.061309       2.019463       0.132118
       3.540000       1.057643       2.025883       0.132656
       3.550000       1.056425       2.029171       0.133269
       3.560000       1.057734       2.030188       0.133998
       3.570000       1.061291       2.030190       0.134843
       3.580000       1.066414       2.030545       0.135766
       3.590000       1.072070       2.032552       0.136711
       3.600000       1.077053       2.037349       0.137631
       3.610000       1.080243       2.045880       0.138506
       3.620000       1.080889       2.058865       0.139351
       3.630000       1.078825       2.076754       0.140205
       3.640000       1.074550       2.099686       0.141106
       3.650000       1.069136       2.127496       0.142071
       3.660000       1.064011       2.159781       0.143080
       3.670000       1.060667       2.195965       0.144078
       3.680000       1.060388       2.235291       0.144989
       3.690000       1.064029       2.276703       0.145735
       3.700000       1.071870       2.318704       0.146260
       3.710000       1.083522       2.359333       0.146542
       3.720000       1.097920       2.396379       0.146606
       3.730000       1.113383       2.427845       0.146515
       3.740000       1.127798       2.452476       0.146361
       3.750000       1.138936       2.470118       0.146252
       3.760000       1.144835       2.481717       0.146290
       3.770000       1.144188       2.488954       0.146561
       3.780000       1.136594       2.493695       0.147116
       3.790000       1.122611       2.497449       0.147974
       3.800000       1.103597       2.501015       0.149128
       3.810000       1.081422       2.504321       0.150547
       3.820000       1.058126       2.506496       0.152194
       3.830000       1.035631       2.506126       0.154023
       3.840000       1.015566       2.501710       0.155980
       3.850000       0.999198       2.492204       0.157993
       3.860000       0.987451       2.477477       0.159980
       3.870000       0.980969       2.458485       0.161847
       3.880000       0.980181       2.437051       0.163507
       3.890000       0.985351       2.415327       0.164904
       3.900000       0.996613       2.395176       0.166019
       3.910000       1.013986       2.377690       0.166881
       3.920000       1.037397       2.362992       0.167548
       3.930000       1.066691       2.350351       0.168090
       3.940000       1.101652       2.338552       0.168574
       3.950000       1.142011       2.326396       0.169047
       3.960000       1.187460       2.313163       0.169538
       3.970000       1.237669       2.298882       0.170068
       3.980000       1.292319       2.284316       0.170650
       3.990000       1.351136       2.270715       0.171291
       4.000000       1.413915       2.259451       0.171993
       4.010000       1.480491       2.251675       0.172737
       4.020000       1.550638       2.248143       0.173490
       4.030000       1.623949       2.249229       0.174208
       4.040000       1.699720       2.255115       0.174853
       4.050000       1.776900       2.266027       0.175409
       4.060000       1.854107       2.282378       0.175896
       4.070000       1.929702       2.304723       0.176367
       4.080000       2.001905       2.333532       0.176899
       4.090000       2.068928       2.368905       0.177575
       4.100000       2.129132       2.410360       0.178465
       4.110000       2.181186       2.456759       0.179620
       4.120000       2.224214       2.506389       0.181068
       4.130000       2.257861       2.557120       0.182828
       4.140000       2.282247       2.606614       0.184914
       4.150000       2.297799       2.652558       0.187337
       4.160000       2.305037       2.692911       0.190097
       4.170000       2.304413       2.726125       0.193172
       4.180000       2.296247       2.751267       0.196504
       4.190000       2.280815       2.768024       0.199991
       4.200000       2.258517       2.776629       0.203503
       4.210000       2.230054       2.777786       0.206890
       4.220000       2.196521       2.772609       0.210008
       4.230000       2.159374       2.762527       0.212739
       4.240000       2.120284       2.749071       0.215001
       4.250000       2.080960       2.733583       0.216771
       4.260000       2.043016       2.716962       0.218083
       4.270000       2.007898       2.699593       0.219026
       4.280000       1.976862       2.681489       0.219730
       4.290000       1.950922       2.662577       0.220338
       4.300000       1.930787       2.642957       0.220985
       4.310000       1.916793       2.623047       0.221772
       4.320000       1.908890       2.603580       0.222757
       4.330000       1.906722       2.585514       0.223958
       4.340000       1.909750       2.569887       0.225357
       4.350000       1.917396       2.557662       0.226911
       4.360000       1.929153       2.549601       0.228556
       4.370000       1.944640       2.546180       0.230214
       4.380000       1.963586       2.547551       0.231793
       4.390000       1.985730       2.553542       0.233203
       4.400000       2.010646       2.563649       0.234363
       4.410000       2.037518       2.577033       0.235211
       4.420000       2.064995       2.592527       0.235704
       4.430000       2.091163       2.608692       0.235821
       4.440000       2.113726       2.623908       0.235561
       4.450000       2.130325       2.636527       0.234950
       4.460000       2.138931       2.645049       0.234048
       4.470000       2.138199       2.648357       0.232941
       4.480000       2.127729       2.645951       0.231732
       4.490000       2.108170       2.638127       0.230521
       4.500000       2.081186       2.625996       0.229391
       4.510000       2.049240       2.611317       0.228396
       4.520000       2.015246       2.596152       0.227563
       4.530000       1.982128       2.582450       0.226900
       4.540000       1.952400       2.571703       0.226409
       4.550000       1.927856       2.564752       0.226079
       4.560000       1.909413       2.561792       0.225889
       4.570000       1.897096       2.562535       0.225794
       4.580000       1.890114       2.566421       0.225723
       4.590000       1.886971       2.572776       0.225588
       4.600000       1.885619       2.580843       0.225298
       4.610000       1.883688       2.589714       0.224782
       4.620000       1.878861       2.598232       0.223998
       4.630000       1.869328       2.604961       0.222936
       4.640000       1.854221       2.608286       0.221614
       4.650000       1.833826       2.606635       0.220060
       4.660000       1.809504       2.598806       0.218312
       4.670000       1.783340       2.584317       0.216414
       4.680000       1.757681       2.563672       0.214428
       4.690000       1.734720       2.538439       0.212438
       4.700000       1.716218       2.511036       0.210548
       4.710000       1.703372       2.484269       0.208871
       4.720000       1.696822       2.460746       0.207523
       4.730000       1.696725       2.442338       0.206604
       4.740000       1.702877       2.429833       0.206189
       4.750000       1.714802       2.422859       0.206319
       4.760000       1.731808       2.420090       0.206997
       4.770000       1.753008       2.419645       0.208179
       4.780000       1.777317       2.419577       0.209771
       4.790000       1.803445       2.418298       0.211634
       4.800000       1.829907       2.414817       0.213583
       4.810000       1.855060       2.408749       0.215398
       4.820000       1.877207       2.400143       0.216844
       4.830000       1.894780       2.389240       0.217700
       4.840000       1.906557       2.376234       0.217788
       4.850000       1.911829       2.361090       0.217005
       4.860000       1.910438       2.343422       0.215333
       4.870000       1.902686       2.322500       0.212834
       4.880000       1.889177       2.297415       0.209627
       4.890000       1.870654       2.267378       0.205862
       4.900000       1.847896       2.232067       0.201698
       4.910000       1.821647       2.191832       0.197285
       4.920000       1.792596       2.147729       0.192760
       4.930000       1.761416       2.101363       0.188246
       4.940000       1.728860       2.054662       0.183851
       4.950000       1.695858       2.009637       0.179670
       4.960000       1.663565       1.968182       0.175784
       4.970000       1.633294       1.931921       0.172254
       4.980000       1.606369       1.902120       0.169126
       4.990000       1.583950       1.879648       0.166428
       5.000000       1.566893       1.864979       0.164178
       5.010000       1.555681       1.858205       0.162386
       5.020000       1.550414       1.859044       0.161060
       5.030000       1.550838       1.866853       0.160205
       5.040000       1.556385       1.880659       0.159823
       5.050000       1.566225       1.899220       0.159912
       5.060000       1.579353       1.921142       0.160459
       5.070000       1.594711       1.945050       0.161436
       5.080000       1.611333       1.969784       0.162795
       5.090000       1.628490       1.994570       0.164476
       5.100000       1.645777       2.019112       0.166412
       5.110000       1.663111       2.043583       0.168541
       5.120000       1.680655       2.068482       0.170816
       5.130000       1.698697       2.094422       0.173205
       5.140000       1.717513       2.121904       0.175684
       5.150000       1.737241       2.151145       0.178231
       5.160000       1.757768       2.182017       0.180825
       5.170000       1.778679       2.214081       0.183444
       5.180000       1.799279       2.246661       0.186065
       5.190000       1.818704       2.278905       0.188662
       5.200000       1.836083       2.309825       0.191201
       5.210000       1.850692       2.338345       0.193633
       5.220000       1.862049       2.363392       0.195892
       5.230000       1.869924       2.384020       0.197895
       5.240000       1.874300       2.399509       0.199546
       5.250000       1.875292       2.409406       0.200752
       5.260000       1.873079       2.413499       0.201429
       5.270000       1.867843       2.411777       0.201516
       5.280000       1.859745       2.404391       0.200981
       5.290000       1.848957       2.391650       0.199827
       5.300000       1.835732       2.374027       0.198097
       5.310000       1.820495       2.352177       0.195873
       5.320000       1.803883       2.326938       0.193271
       5.330000       1.786677       2.299325       0.190431
       5.340000       1.769639       2.270476       0.187499
       5.350000       1.753341       2.241567       0.184617
       5.360000       1.738049       2.213668       0.181906
       5.370000       1.723733       2.187610       0.179456
       5.380000       1.710192       2.163903       0.177326
       5.390000       1.697222       2.142765       0.175547
       5.400000       1.684765       2.124255       0.174132
       5.410000       1.672992       2.108459       0.173091
       5.420000       1.662341       2.095661       0.172434
       5.430000       1.653504       2.086430       0.172178
       5.440000       1.647378       2.081558       0.172337
       5.450000       1.644959       2.081891       0.172916
       5.460000       1.647184       2.088080       0.173908
       5.470000       1.654749       2.100353       0.175292
       5.480000       1.667953       2.118357       0.177037
       5.490000       1.686594       2.141115       0.179108
       5.500000       1.709971       2.167116       0.181466
       5.510000       1.736964       2.194526       0.184065
       5.520000       1.766202       2.221463       0.186849
       5.530000       1.796254       2.246251       0.189740
       5.540000       1.825826       2.267568       0.192647
       5.550000       1.853908       2.284474       0.195464
       5.560000       1.879882       2.296380       0.198091
       5.570000       1.903559       2.303033       0.200443
       5.580000       1.925162       2.304545       0.202457
       5.590000       1.945268       2.301426       0.204104
       5.600000       1.964720       2.294574       0.205383
       5.610000       1.984522       2.285161       0.206314
       5.620000       2.005695       2.274424       0.206936
       5.630000       2.029105       2.263423       0.207300
       5.640000       2.055332       2.252897       0.207460
       5.650000       2.084617       2.243276       0.207471
       5.660000       2.116917       2.234873       0.207382
       5.670000       2.152000       2.228130       0.207231
       5.680000       2.189507       2.223784       0.207035
       5.690000       2.228935       2.222849       0.206795
       5.700000       2.269602       2.226449       0.206491
       5.710000       2.310658       2.235596       0.206096
       5.720000       2.351214       2.250998       0.205583
       5.730000       2.390564       2.272964       0.204933
       5.740000       2.428397       2.301389       0.204141
       5.750000       2.464909       2.335790       0.203231
       5.760000       2.500758       2.375385       0.202253
       5.770000       2.536872       2.419191       0.201290
       5.780000       2.574181       2.466111       0.200449
       5.790000       2.613376       2.515000       0.199843
       5.800000       2.654759       2.564671       0.199573
       5.810000       2.698221       2.613867       0.199709
       5.820000       2.743296       2.661212       0.200285
       5.830000       2.789196       2.705184       0.201300
       5.840000       2.834782       2.744147       0.202731
       5.850000       2.878501       2.776440       0.204550
       5.860000       2.918423       2.800542       0.206737
       5.870000       2.952473       2.815308       0.209283
       5.880000       2.978864       2.820255       0.212185
       5.890000       2.996579       2.815808       0.215437
       5.900000       3.005688       2.803399       0.219024
       5.910000       3.007346       2.785353       0.222917
       5.920000       3.003460       2.764542       0.227084
       5.930000       2.996188       2.743907       0.231489
       5.940000       2.987468       2.725998       0.236093
       5.950000       2.978742       2.712657       0.240839
       5.960000       2.970919       2.704934       0.245647
       5.970000       2.964503       2.703173       0.250399
       5.980000       2.959756       2.707207       0.254947
       5.990000       2.956785       2.716555       0.259127
       6.000000       2.955564       2.730577       0.262786
       6.010000       2.955931       2.748600       0.265804
       6.020000       2.957645       2.769998       0.268117
       6.030000       2.960518       2.794229       0.269727
       6.040000       2.964548       2.820820       0.270694
       6.050000       2.970022       2.849336       0.271127
       6.060000       2.977525       2.879414       0.271170
       6.070000       2.987875       2.910896       0.270981
       6.080000       3.002017       2.944029       0.270718
       6.090000       3.020925       2.979625       0.270521
       6.100000       3.045528       3.019058       0.270496
       6.110000       3.076691       3.064077       0.270702
       6.120000       3.115205       3.116466       0.271152
       6.130000       3.161734       3.177670       0.271817
       6.140000       3.216666       3.248456       0.272635
       6.150000       3.279877       3.328627       0.273533
       6.160000       3.350496       3.416810       0.274439
       6.170000       3.426776       3.510364       0.275306
       6.180000       3.506119       3.605458       0.276123
       6.190000       3.585252       3.697367       0.276911
       6.200000       3.660528       3.781006       0.277720
       6.210000       3.728286       3.851627       0.278614
       6.220000       3.785241       3.905526       0.279653
       6.230000       3.828800       3.940567       0.280893
       6.240000       3.857258       3.956386       0.282373
       6.250000       3.869841       3.954242       0.284124
       6.260000       3.866669       3.936615       0.286162
       6.270000       3.848663       3.906711       0.288490
       6.280000       3.817406       3.867986       0.291096
       6.290000       3.774895       3.823692       0.293954
       6.300000       3.723216       3.776471       0.297021
       6.310000       3.664216       3.728029       0.300230
       6.320000       3.599330       3.678997       0.303488
       6.330000       3.529619       3.629076       0.306675
       6.340000       3.455974       3.577425       0.309661
       6.350000       3.379354       3.523155       0.312322
       6.360000       3.300951       3.465729       0.314566
       6.370000       3.222219       3.405148       0.316344
       6.380000       3.144756       3.341901       0.317656
       6.390000       3.070112       3.276776       0.318545
       6.400000       2.999551       3.210627       0.319077
       6.410000       2.933884       3.144200       0.319321
       6.420000       2.873397       3.078037       0.319331
       6.430000       2.817893       3.012462       0.319128
       6.440000       2.766841       2.947634       0.318702
       6.450000       2.719575       2.883664       0.318020
       6.460000       2.675536       2.820770       0.317045
       6.470000       2.634450       2.759442       0.315755
       6.480000       2.596417       2.700525       0.314159
       6.490000       2.561860       2.645179       0.312302
       6.500000       2.531363       2.594728       0.310271
       6.510000       2.505452       2.550447       0.308185
       6.520000       2.484382       2.513357       0.306192
       6.530000       2.467965       2.484091       0.304456
       6.540000       2.455480       2.462816       0.303144
       6.550000       2.445673       2.449188       0.302416
       6.560000       2.436862       2.442329       0.302410
       6.570000       2.427128       2.440822       0.303225
       6.580000       2.414590       2.442789       0.304895
       6.590000       2.397714       2.446080       0.307382
       6.600000       2.375587       2.448563       0.310561
       6.610000       2.348083       2.448421       0.314234
       6.620000       2.315832       2.444384       0.318148
       6.630000       2.279994       2.435826       0.322041
       6.640000       2.241910       2.422729       0.325681
       6.650000       2.202747       2.405550       0.328898
       6.660000       2.163256       2.385012       0.331601
       6.670000       2.123703       2.361901       0.333768
       6.680000       2.084002       2.336931       0.335433
       6.690000       2.043964       2.310744       0.336661
       6.700000       2.003576       2.284024       0.337533
       6.710000       1.963163       2.257622       0.338138
       6.720000       1.923380       2.232595       0.338568
       6.730000       1.885059       2.210098       0.338917
       6.740000       1.848999       2.191173       0.339281
       6.750000       1.815793       2.176509       0.339751
       6.760000       1.785761       2.166276       0.340407
       6.770000       1.758976       2.160086       0.341308
       6.780000       1.735382       2.157078       0.342494
       6.790000       1.714915       2.156099       0.343990
       6.800000       1.697606       2.155942       0.345813
       6.810000       1.683622       2.155584       0.347980
       6.820000       1.673232       2.154418       0.350511
       6.830000       1.666707       2.152414       0.353437
       6.840000       1.664190       2.150171       0.356793
       6.850000       1.665541       2.148818       0.360621
       6.860000       1.670218       2.149765       0.364963
       6.870000       1.677204       2.154378       0.369860
       6.880000       1.685047       2.163672       0.375340
       6.890000       1.691992       2.178125       0.381419
       6.900000       1.696220       2.197624       0.388095
       6.910000       1.696111       2.221531       0.395354
       6.920000       1.690443       2.248825       0.403171
       6.930000       1.678491       2.278252       0.411530
       6.940000       1.660006       2.308451       0.420427
       6.950000       1.635153       2.338054       0.429877
       6.960000       1.604457       2.365769       0.439911
       6.970000       1.568766       2.390449       0.450562
       6.980000       1.529213       2.411158       0.461860
       6.990000       1.487126       2.427194       0.473815
       7.000000       1.443906       2.438085       0.486420
       7.010000       1.400905       2.443577       0.499658
       7.020000       1.359346       2.443656       0.513518
       7.030000       1.320275       2.438620       0.528004
       7.040000       1.284528       2.429146       0.543130
       7.050000       1.252676       2.416284       0.558913
       7.060000       1.224991       2.401336       0.575342
       7.070000       1.201429       2.385664       0.592377
       7.080000       1.181694       2.370506       0.609954
       7.090000       1.165344       2.356907       0.628008
       7.100000       1.151932       2.345766       0.646488
       7.110000       1.141119       2.337921       0.665363
       7.120000       1.132722       2.334200       0.684606
       7.130000       1.126696       2.335369       0.704169
       7.140000       1.123072       2.341998       0.723952
       7.150000       1.121883       2.354293       0.743791
       7.160000       1.123110       2.371957       0.763461
       7.170000       1.126647       2.394125       0.782713
       7.180000       1.132287       2.419401       0.801323
       7.190000       1.139701       2.445989       0.819144
       7.200000       1.148426       2.471898       0.836141
       7.210000       1.157845       2.495162       0.852403
       7.220000       1.167188       2.514042       0.868138
       7.230000       1.175572       2.527170       0.883631
       7.240000       1.182103       2.533628       0.899201
       7.250000       1.186019       2.532955       0.915133
       7.260000       1.186853       2.525104       0.931626
       7.270000       1.184536       2.510392       0.948751
       7.280000       1.179402       2.489459       0.966449
       7.290000       1.172074       2.463259       0.984539
       7.300000       1.163260       2.433024       1.002751
       7.310000       1.153553       2.400161       1.020770
       7.320000       1.143280       2.366086       1.038287
       7.330000       1.132465       2.332026       1.055058
       7.340000       1.120893       2.298870       1.070940
       7.350000       1.108252       2.267125       1.085896
       7.360000       1.094308       2.237007       1.099960
       7.370000       1.079048       2.208598       1.113161
       7.380000       1.062743       2.182008       1.125467
       7.390000       1.045914       2.157429       1.136741
       7.400000       1.029210       2.135079       1.146760
       7.410000       1.013266       2.115064       1.155264
       7.420000       0.998565       2.097249       1.162023
       7.430000       0.985358       2.081227       1.166890
       7.440000       0.973634       2.066400       1.169819
       7.450000       0.963145       2.052143       1.170841
       7.460000       0.953468       2.037966       1.170017
       7.470000       0.944089       2.023590       1.167401
       7.480000       0.934477       2.008914       1.163003
       7.490000       0.924159       1.993883       1.156793
       7.500000       0.912773       1.978366       1.148720
       7.510000       0.900138       1.962091       1.138737
       7.520000       0.886301       1.944708       1.126836
       7.530000       0.871549       1.925923       1.113072
       7.540000       0.856364       1.905623       1.097579
       7.550000       0.841326       1.883895       1.080587
       7.560000       0.826997       1.860959       1.062416
       7.570000       0.813823       1.837054       1.043445
       7.580000       0.802079       1.812397       1.024070
       7.590000       0.791879       1.787217       1.004658
       7.600000       0.783217       1.761825       0.985523
       7.610000       0.776025       1.736617       0.966935
       7.620000       0.770232       1.711999       0.949155
       7.630000       0.765789       1.688275       0.932471
       7.640000       0.762683       1.665563       0.917218
       7.650000       0.760915       1.643815       0.903768
       7.660000       0.760474       1.622881       0.892506
       7.670000       0.761302       1.602585       0.883796
       7.680000       0.763278       1.582750       0.877968
       7.690000       0.766210       1.563181       0.875322
       7.700000       0.769842       1.543632       0.876127
       7.710000       0.773875       1.523815       0.880632
       7.720000       0.777985       1.503445       0.889050
       7.730000       0.781864       1.482315       0.901537
       7.740000       0.785253       1.460356       0.918175
       7.750000       0.787986       1.437647       0.938956
       7.760000       0.790011       1.414395       0.963776
       7.770000       0.791387       1.390883       0.992438
       7.780000       0.792259       1.367429       1.024641
       7.790000       0.792811       1.344377       1.059970
       7.800000       0.793221       1.322092       1.097885
       7.810000       0.793637       1.300973       1.137706
       7.820000       0.794194       1.281456       1.178623
       7.830000       0.795044       1.263992       1.219722
       7.840000       0.796395       1.248994       1.260050
       7.850000       0.798527       1.236760       1.298718
       7.860000       0.801766       1.227375       1.335005
       7.870000       0.806423       1.220629       1.368441
       7.880000       0.812714       1.215991       1.398830
       7.890000       0.820675       1.212648       1.426192
       7.900000       0.830100       1.209617       1.450675
       7.910000       0.840493       1.205901       1.472474
       7.920000       0.851069       1.200651       1.491797
       7.930000       0.860794       1.193278       1.508894
       7.940000       0.868501       1.183504       1.524098
       7.950000       0.873065       1.171354       1.537847
       7.960000       0.873616       1.157119       1.550641
       7.970000       0.869723       1.141298       1.562956
       7.980000       0.861478       1.124541       1.575129
       7.990000       0.849461       1.107572       1.587268
       8.000000       0.834588       1.091082       1.599221
       8.010000       0.817909       1.075616       1.610609
       8.020000       0.800422       1.061486       1.620930
       8.030000       0.782949       1.048734       1.629680
       8.040000       0.766085       1.037151       1.636476
       8.050000       0.750191       1.026356       1.641147
       8.060000       0.735440       1.015909       1.643767
       8.070000       0.721867       1.005461       1.644640
       8.080000       0.709447       0.994889       1.644228
       8.090000       0.698162       0.984382       1.643044
       8.100000       0.688051       0.974455       1.641531
       8.110000       0.679223       0.965864       1.639961
       8.120000       0.671828       0.959475       1.638404
       8.130000       0.666013       0.956124       1.636773
       8.140000       0.661879       0.956511       1.634945
       8.150000       0.659457       0.961150       1.632904
       8.160000       0.658714       0.970356       1.630863
       8.170000       0.659573       0.984271       1.629312
       8.180000       0.661930       1.002885       1.628974
       8.190000       0.665653       1.026047       1.630689
       8.200000       0.670567       1.053457       1.635272
       8.210000       0.676424       1.084642       1.643391
       8.220000       0.682892       1.118945       1.655509
       8.230000       0.689572       1.155545       1.671888
       8.240000       0.696049       1.193537       1.692645
       8.250000       0.701972       1.232066       1.717846
       8.260000       0.707122       1.270462       1.747604
       8.270000       0.711454       1.308324       1.782172
       8.280000       0.715092       1.345497       1.821994
       8.290000       0.718285       1.381921       1.867697
       8.300000       0.721341       1.417422       1.920016
       8.310000       0.724552       1.451530       1.979686
       8.320000       0.728134       1.483432       2.047340
       8.330000       0.732189       1.512093       2.123459
       8.340000       0.736698       1.536503       2.208373
       8.350000       0.741545       1.555946       2.302282
       8.360000       0.746583       1.570170       2.405272
       8.370000       0.751703       1.579390       2.517289
       8.380000       0.756906       1.584150       2.638069
       8.390000       0.762329       1.585137       2.767053
       8.400000       0.768235       1.583023       2.903282
       8.410000       0.774941       1.578412       3.045326
       8.420000       0.782745       1.571868       3.191239
       8.430000       0.791843       1.563969       3.338569
       8.440000       0.802291       1.555353       3.484428
       8.450000       0.814017       1.546696       3.625613
       8.460000       0.826869       1.538661       3.758784
       8.470000       0.840691       1.531821       3.880674
       8.480000       0.855388       1.526600       3.988306
       8.490000       0.870965       1.523219       4.079210
       8.500000       0.887545       1.521688       4.151596
       8.510000       0.905388       1.521826       4.204469
       8.520000       0.924892       1.523334       4.237662
       8.530000       0.946566       1.525900       4.251769
       8.540000       0.970952       1.529274       4.247996
       8.550000       0.998496       1.533275       4.227955
       8.560000       1.029397       1.537727       4.193483
       8.570000       1.063484       1.542370       4.146535
       8.580000       1.100154       1.546816       4.089170
       8.590000       1.138408       1.550580       4.023562
       8.600000       1.176995       1.553142       3.951996
       8.610000       1.214645       1.554005       3.876771
       8.620000       1.250326       1.552731       3.800035
       8.630000       1.283459       1.548962       3.723607
       8.640000       1.314000       1.542452       3.648862
       8.650000       1.342375       1.533107       3.576740
       8.660000       1.369295       1.521010       3.507845
       8.670000       1.395519       1.506417       3.442552
       8.680000       1.421648       1.489724       3.381067
       8.690000       1.447973       1.471423       3.323392
       8.700000       1.474423       1.452082       3.269269
       8.710000       1.500603       1.432341       3.218160
       8.720000       1.525887       1.412931       3.169317
       8.730000       1.549530       1.394714       3.121962
       8.740000       1.570768       1.378707       3.075508
       8.750000       1.588885       1.366054       3.029746
       8.760000       1.603251       1.357931       2.984899
       8.770000       1.613346       1.355397       2.941529
       8.780000       1.618793       1.359236       2.900360
       8.790000       1.619377       1.369824       2.862072
       8.800000       1.615059       1.387061       2.827145
       8.810000       1.605990       1.410362       2.795744
       8.820000       1.592510       1.438737       2.767645
       8.830000       1.575175       1.470934       2.742218
       8.840000       1.554761       1.505649       2.718507
       8.850000       1.532251       1.541763       2.695389
       8.860000       1.508739       1.578535       2.671802
       8.870000       1.485282       1.615725       2.646968
       8.880000       1.462719       1.653592       2.620552
       8.890000       1.441548       1.692770       2.592729
       8.900000       1.421900       1.734049       2.564141
       8.910000       1.403632       1.778093       2.535749
       8.920000       1.386469       1.825157       2.508601
       8.930000       1.370158       1.874870       2.483555
       8.940000       1.354559       1.926112       2.461038
       8.950000       1.339684       1.977054       2.440902
       8.960000       1.325676       2.025362       2.422420
       8.970000       1.312760       2.068554       2.404462
       8.980000       1.301174       2.104432       2.385791
       8.990000       1.291091       2.131454       2.365383
       9.000000       1.282545       2.148931       2.342675
       9.010000       1.275397       2.156976       2.317628
       9.020000       1.269334       2.156274       2.290615
       9.030000       1.263903       2.147762       2.262221
       9.040000       1.258528       2.132385       2.233044
       9.050000       1.252533       2.110998       2.203588
       9.060000       1.245155       2.084396       2.174271
       9.070000       1.235626       2.053399       2.145494
       9.080000       1.223320       2.018896       2.117725
       9.090000       1.207951       1.981800       2.091533
       9.100000       1.189718       1.942957       2.067575
       9.110000       1.169333       1.903068       2.046535
       9.120000       1.147892       1.862678       2.029085
       9.130000       1.126654       1.822243       2.015858
       9.140000       1.106831       1.782239       2.007469
       9.150000       1.089435       1.743231       2.004537
       9.160000       1.075213       1.705889       2.007681
       9.170000       1.064641       1.670922       2.017475
       9.180000       1.057946       1.638959       2.034356
       9.190000       1.055128       1.610452       2.058517
       9.200000       1.055976       1.585611       2.089815
       9.210000       1.060074       1.564408       2.127713
       9.220000       1.066808       1.546651       2.171293
       9.230000       1.075393       1.532079       2.219332
       9.240000       1.084931       1.520470       2.270432
       9.250000       1.094496       1.511716       2.323174
       9.260000       1.103248       1.505811       2.376268
       9.270000       1.110543       1.502775       2.428657
       9.280000       1.116025       1.502533       2.479577
       9.290000       1.119675       1.504820       2.528561
       9.300000       1.121788       1.509166       2.575399
       9.310000       1.122876       1.514969       2.620091
       9.320000       1.123512       1.521629       2.662789
       9.330000       1.124181       1.528684       2.703740
       9.340000       1.125196       1.535898       2.743221
       9.350000       1.126701       1.543284       2.781465
       9.360000       1.128743       1.551054       2.818602
       9.370000       1.131356       1.559522       2.854604
       9.380000       1.134587       1.568978       2.889272
       9.390000       1.138472       1.579571       2.922232
       9.400000       1.142968       1.591216       2.952971
       9.410000       1.147893       1.603556       2.980898
       9.420000       1.152901       1.615975       3.005431
       9.430000       1.157524       1.627628       3.026107
       9.440000       1.161268       1.637493       3.042663
       9.450000       1.163751       1.644457       3.055083
       9.460000       1.164844       1.647451       3.063601
       9.470000       1.164762       1.645651       3.068682
       9.480000       1.164083       1.638697       3.070983
       9.490000       1.163675       1.626833       3.071304
       9.500000       1.164562       1.610893       3.070493
       9.510000       1.167774       1.592123       3.069310
       9.520000       1.174210       1.571888       3.068259
       9.530000       1.184561       1.551408       3.067450
       9.540000       1.199292       1.531579       3.066556
       9.550000       1.218674       1.512930       3.064894
       9.560000       1.242850       1.495670       3.061633
       9.570000       1.271897       1.479774       3.056046
       9.580000       1.305862       1.465075       3.047706
       9.590000       1.344749       1.451329       3.036561
       9.600000       1.388489       1.438245       3.022852
       9.610000       1.436901       1.425485       3.006944
       9.620000       1.489676       1.412646       2.989145
       9.630000       1.546394       1.399247       2.969594
       9.640000       1.606535       1.384775       2.948262
       9.650000       1.669464       1.368774       2.925062
       9.660000       1.734388       1.350972       2.899999
       9.670000       1.800309       1.331370       2.873293
       9.680000       1.866052       1.310270       2.845415
       9.690000       1.930412       1.288230       2.817002
       9.700000       1.992376       1.265976       2.788713
       9.710000       2.051349       1.244313       2.761070
       9.720000       2.107244       1.224043       2.734332
       9.730000       2.160388       1.205905       2.708469
       9.740000       2.211241       1.190526       2.683223
       9.750000       2.260038       1.178389       2.658255
       9.760000       2.306488       1.169802       2.633319
       9.770000       2.349623       1.164882       2.608379
       9.780000       2.387861       1.163549       2.583618
       9.790000       2.419258       1.165557       2.559355
       9.800000       2.441870       1.170549       2.535912
       9.810000       2.454102       1.178129       2.513519
       9.820000       2.454978       1.187918       2.492279
       9.830000       2.444243       1.199580       2.472197
       9.840000       2.422342       1.212802       2.453217
       9.850000       2.390306       1.227268       2.435236
       9.860000       2.349632       1.242634       2.418075
       9.870000       2.302165       1.258535       2.401449
       9.880000       2.249987       1.274617       2.384980
       9.890000       2.195299       1.290585       2.368262
       9.900000       2.140273       1.306250       2.350971
       9.910000       2.086895       1.321566       2.332963
       9.920000       2.036826       1.336624       2.314313
       9.930000       1.991310       1.351613       2.295291
       9.940000       1.951125       1.366727       2.276276
       9.950000       1.916588       1.382052       2.257651
       9.960000       1.887604       1.397453       2.239697
       9.970000       1.863744       1.412516       2.222520
       9.980000       1.844370       1.426570       2.206036
       9.990000       1.828776       1.438800       2.190002
      10.000000       1.816310       1.448393       2.174115
      10.010000       1.806454       1.454685       2.158114
      10.020000       1.798835       1.457238       2.141870
      10.030000       1.793187       1.455843       2.125422
      10.040000       1.789313       1.450452       2.108973
      10.050000       1.787078       1.441072       2.092841
      10.060000       1.786427       1.427676       2.077394
      10.070000       1.787419       1.410195       2.062994
      10.080000       1.790202       1.388630       2.049947
      10.090000       1.794910       1.363207       2.038476
      10.100000       1.801492       1.334524       2.028711
      10.110000       1.809535       1.303548       2.020685
      10.120000       1.818166       1.271488       2.014344
      10.130000       1.826107       1.239553       2.009568
      10.140000       1.831880       1.208734       2.006191
      10.150000       1.834103       1.179658       2.004037
      10.160000       1.831767       1.152577       2.002951
      10.170000       1.824398       1.127455       2.002839
      10.180000       1.812062       1.104086       2.003709
      10.190000       1.795261       1.082214       2.005697
      10.200000       1.774762       1.061594       2.009075
      10.210000       1.751435       1.042014       2.014221
      10.220000       1.726120       1.023275       2.021574
      10.230000       1.699551       1.005171       2.031587
      10.240000       1.672324       0.987484       2.044689
      10.250000       1.644918       0.970013       2.061259
      10.260000       1.617714       0.952617       2.081622
      10.270000       1.591002       0.935246       2.106050
      10.280000       1.564959       0.917945       2.134777
      10.290000       1.539637       0.900837       2.168013
      10.300000       1.514969       0.884079       2.205967
      10.310000       1.490817       0.867837       2.248860
      10.320000       1.467038       0.852256       2.296914
      10.330000       1.443548       0.837453       2.350313
      10.340000       1.420348       0.823513       2.409141
      10.350000       1.397508       0.810496       2.473317
      10.360000       1.375151       0.798456       2.542543
      10.370000       1.353442       0.787456       2.616281
      10.380000       1.332600       0.777566       2.693738
      10.390000       1.312912       0.768855       2.773868
      10.400000       1.294733       0.761380       2.855376
      10.410000       1.278458       0.755180       2.936736
      10.420000       1.264482       0.750289       3.016200
      10.430000       1.253175       0.746740       3.091786
      10.440000       1.244858       0.744566       3.161263
      10.450000       1.239795       0.743779       3.222159
      10.460000       1.238179       0.744349       3.271843
      10.470000       1.240103       0.746185       3.307699
      10.480000       1.245530       0.749143       3.327373
      10.490000       1.254266       0.753039       3.329059
      10.500000       1.265957       0.757676       3.311751
      10.510000       1.280111       0.762856       3.275442
      10.520000       1.296167       0.768373       3.221188
      10.530000       1.313579       0.773990       3.151038
      10.540000       1.331900       0.779431       3.067806
      10.550000       1.350801       0.784380       2.974754
      10.560000       1.370023       0.788518       2.875239
      10.570000       1.389259       0.791568       2.772409
      10.580000       1.408027       0.793341       2.668967
      10.590000       1.425583       0.793762       2.567048
      10.600000       1.440927       0.792876       2.468201
      10.610000       1.452915       0.790850       2.373455
      10.620000       1.460452       0.787959       2.283451
      10.630000       1.462693       0.784575       2.198580
      10.640000       1.459204       0.781135       2.119116
      10.650000       1.450023       0.778097       2.045294
      10.660000       1.435624       0.775861       1.977337
      10.670000       1.416815       0.774683       1.915432
      10.680000       1.394593       0.774595       1.859670
      10.690000       1.370021       0.775359       1.809979
      10.700000       1.344119       0.776476       1.766080
      10.710000       1.317797       0.777249       1.727485
      10.720000       1.291813       0.776903       1.693536
      10.730000       1.266767       0.774733       1.663495
      10.740000       1.243094       0.770225       1.636649
      10.750000       1.221044       0.763135       1.612399
      10.760000       1.200667       0.753493       1.590314
      10.770000       1.181799       0.741567       1.570117
      10.780000       1.164102       0.727798       1.551642
      10.790000       1.147133       0.712746       1.534760
      10.800000       1.130447       0.697018       1.519345
      10.810000       1.113687       0.681202       1.505272
      10.820000       1.096641       0.665799       1.492458
      10.830000       1.079266       0.651179       1.480912
      10.840000       1.061682       0.637572       1.470756
      10.850000       1.044139       0.625096       1.462207
      10.860000       1.026971       0.613797       1.455513
      10.870000       1.010545       0.603683       1.450867
      10.880000       0.995207       0.594741       1.448316
      10.890000       0.981255       0.586946       1.447683
      10.900000       0.968924       0.580265       1.448527
      10.910000       0.958400       0.574682       1.450157
      10.920000       0.949832       0.570220       1.451710
      10.930000       0.943338       0.566959       1.452302
      10.940000       0.939000       0.565025       1.451216
      10.950000       0.936859       0.564556       1.448073
      10.960000       0.936905       0.565662       1.442929
      10.970000       0.939065       0.568388       1.436259
      10.980000       0.943190       0.572697       1.428814
      10.990000       0.949049       0.578475       1.421414
      11.000000       0.956335       0.585542       1.414737
      11.010000       0.964668       0.593658       1.409161
      11.020000       0.973626       0.602542       1.404681
      11.030000       0.982785       0.611876       1.400896
      11.040000       0.991787       0.621314       1.397053
      11.050000       1.000421       0.630491       1.392156
      11.060000       1.008682       0.639037       1.385128
      11.070000       1.016781       0.646609       1.375009
      11.080000       1.025094       0.652927       1.361154
      11.090000       1.034072       0.657819       1.343368
      11.100000       1.044146       0.661239       1.321934
      11.110000       1.055648       0.663273       1.297540
      11.120000       1.068762       0.664107       1.271113
      11.130000       1.083499       0.663999       1.243627
      11.140000       1.099685       0.663241       1.215921
      11.150000       1.116976       0.662118       1.188589
      11.160000       1.134870       0.660870       1.161941
      11.170000       1.152731       0.659656       1.136041
      11.180000       1.169821       0.658531       1.110793
      11.190000       1.185343       0.657446       1.086042
      11.200000       1.198529       0.656268       1.061653
      11.210000       1.208738       0.654819       1.037552
      11.220000       1.215556       0.652907       1.013729
      11.230000       1.218855       0.650354       0.990222
      11.240000       1.218789       0.647012       0.967101
      11.250000       1.215725       0.642777       0.944471
      11.260000       1.210132       0.637598       0.922494
      11.270000       1.202456       0.631474       0.901407
      11.280000       1.193014       0.624449       0.881520
      11.290000       1.181915       0.616585       0.863186
      11.300000       1.169052       0.607950       0.846743
      11.310000       1.154136       0.598623       0.832444
      11.320000       1.136791       0.588701       0.820413
      11.330000       1.116652       0.578313       0.810617
      11.340000       1.093472       0.567629       0.802872
      11.350000       1.067206       0.556856       0.796860
      11.360000       1.038065       0.546222       0.792145
      11.370000       1.006531       0.535961       0.788208
      11.380000       0.973316       0.526300       0.784488
      11.390000       0.939294       0.517432       0.780454
      11.400000       0.905396       0.509507       0.775687
      11.410000       0.872512       0.502602       0.769959
      11.420000       0.841394       0.496710       0.763272
      11.430000       0.812598       0.491723       0.755845
      11.440000       0.786459       0.487442       0.748052
      11.450000       0.763111       0.483594       0.740318
      11.460000       0.742532       0.479890       0.733022
      11.470000       0.724606       0.476089       0.726433
      11.480000       0.709174       0.472066       0.720690
      11.490000       0.696082       0.467853       0.715814
      11.500000       0.685208       0.463629       0.711752
      11.510000       0.676469       0.459679       0.708394
      11.520000       0.669809       0.456332       0.705586
      11.530000       0.665175       0.453896       0.703122
      11.540000       0.662482       0.452619       0.700735
      11.550000       0.661583       0.452658       0.698111
      11.560000       0.662257       0.454080       0.694909
      11.570000       0.664215       0.456874       0.690807
      11.580000       0.667130       0.460969       0.685529
      11.590000       0.670667       0.466260       0.678889
      11.600000       0.674518       0.472603       0.670819
      11.610000       0.678427       0.479809       0.661396
      11.620000       0.682193       0.487615       0.650854
      11.630000       0.685670       0.495664       0.639564
      11.640000       0.688752       0.503503       0.627982
      11.650000       0.691367       0.510619       0.616589
      11.660000       0.693470       0.516517       0.605824
      11.670000       0.695056       0.520811       0.596032
      11.680000       0.696176       0.523305       0.587443
      11.690000       0.696961       0.524025       0.580170
      11.700000       0.697633       0.523193       0.574222
      11.710000       0.698494       0.521162       0.569531
      11.720000       0.699893       0.518330       0.565966
      11.730000       0.702177       0.515064       0.563344
      11.740000       0.705634       0.511658       0.561444
      11.750000       0.710462       0.508324       0.560027
      11.760000       0.716760       0.505193       0.558873
      11.770000       0.724543       0.502344       0.557824
      11.780000       0.733759       0.499818       0.556815
      11.790000       0.744308       0.497643       0.555886
      11.800000       0.756024       0.495834       0.555154
      11.810000       0.768644       0.494403       0.554771
      11.820000       0.781762       0.493354       0.554867
      11.830000       0.794794       0.492689       0.555511
      11.840000       0.806979       0.492415       0.556689
      11.850000       0.817436       0.492540       0.558307
      11.860000       0.825259       0.493075       0.560213
      11.870000       0.829626       0.494010       0.562231
      11.880000       0.829916       0.495309       0.564197
      11.890000       0.825794       0.496911       0.565980
      11.900000       0.817277       0.498746       0.567480
      11.910000       0.804762       0.500763       0.568613
      11.920000       0.789006       0.502938       0.569294
      11.930000       0.771038       0.505277       0.569433
      11.940000       0.752024       0.507788       0.568946
      11.950000       0.733105       0.510453       0.567767
      11.960000       0.715267       0.513207       0.565855
      11.970000       0.699260       0.515929       0.563196
      11.980000       0.685576       0.518470       0.559801
      11.990000       0.674477       0.520698       0.555718
      12.000000       0.666043       0.522554       0.551050
      12.010000       0.660228       0.524102       0.545970
      12.020000       0.656897       0.525532       0.540712
      12.030000       0.655845       0.527129       0.535540
      12.040000       0.656787       0.529204       0.530694
      12.050000       0.659348       0.532020       0.526341
      12.060000       0.663050       0.535731       0.522522
      12.070000       0.667321       0.540361       0.519142
      12.080000       0.671523       0.545804       0.515979
      12.090000       0.675008       0.551858       0.512730
      12.100000       0.677190       0.558268       0.509081
      12.110000       0.677634       0.564764       0.504772
      12.120000       0.676119       0.571099       0.499654
      12.130000       0.672667       0.577070       0.493704
      12.140000       0.667518       0.582527       0.487014
      12.150000       0.661057       0.587363       0.479764
      12.160000       0.653721       0.591498       0.472189
      12.170000       0.645912       0.594867       0.464553
      12.180000       0.637935       0.597416       0.457123
      12.190000       0.629972       0.599106       0.450146
      12.200000       0.622084       0.599923       0.443828
      12.210000       0.614233       0.599883       0.438311
      12.220000       0.606323       0.599024       0.433653
      12.230000       0.598239       0.597390       0.429816
      12.240000       0.589887       0.595022       0.426666
      12.250000       0.581220       0.591944       0.424002
      12.260000       0.572253       0.588169       0.421585
      12.270000       0.563065       0.583709       0.419184
      12.280000       0.553800       0.578583       0.416609
      12.290000       0.544652       0.572839       0.413727
      12.300000       0.535856       0.566559       0.410471
      12.310000       0.527680       0.559860       0.406828
      12.320000       0.520398       0.552889       0.402830
      12.330000       0.514273       0.545807       0.398533
      12.340000       0.509524       0.538773       0.394008
      12.350000       0.506305       0.531932       0.389336
      12.360000       0.504690       0.525410       0.384602
      12.370000       0.504673       0.519317       0.379899
      12.380000       0.506177       0.513751       0.375320
      12.390000       0.509065       0.508808       0.370949
      12.400000       0.513154       0.504576       0.366857
      12.410000       0.518224       0.501136       0.363081
      12.420000       0.524027       0.498535       0.359628
      12.430000       0.530304       0.496776       0.356461
      12.440000       0.536800       0.495786       0.353506
      12.450000       0.543275       0.495416       0.350659
      12.460000       0.549507       0.495449       0.347793
      12.470000       0.555295       0.495642       0.344786
      12.480000       0.560447       0.495778       0.341535
      12.490000       0.564795       0.495717       0.337974
      12.500000       0.568210       0.495427       0.334079
      12.510000       0.570618       0.494983       0.329866
      12.520000       0.571998       0.494522       0.325374
      12.530000       0.572347       0.494194       0.320655
      12.540000       0.571633       0.494098       0.315756
      12.550000       0.569759       0.494254       0.310723
      12.560000       0.566570       0.494598       0.305602
      12.570000       0.561917       0.495023       0.300444
      12.580000       0.555749       0.495431       0.295310
      12.590000       0.548190       0.495771       0.290273
      12.600000       0.539558       0.496059       0.285408
      12.610000       0.530313       0.496347       0.280788
      12.620000       0.520961       0.496695       0.276479
      12.630000       0.511954       0.497137       0.272532
      12.640000       0.503620       0.497681       0.268976
      12.650000       0.496147       0.498314       0.265819
      12.660000       0.489593       0.499024       0.263042
      12.670000       0.483912       0.499796       0.260610
      12.680000       0.478993       0.500607       0.258469
      12.690000       0.474688       0.501409       0.256563
      12.700000       0.470837       0.502126       0.254841
      12.710000       0.467293       0.502656       0.253270
      12.720000       0.463934       0.502892       0.251844
      12.730000       0.460675       0.502744       0.250579
      12.740000       0.457471       0.502171       0.249510
      12.750000       0.454305       0.501201       0.248673
      12.760000       0.451192       0.499955       0.248089
      12.770000       0.448162       0.498651       0.247757
      12.780000       0.445255       0.497593       0.247644
      12.790000       0.442510       0.497130       0.247689
      12.800000       0.439955       0.497597       0.247811
      12.810000       0.437605       0.499242       0.247919
      12.820000       0.435458       0.502170       0.247923
      12.830000       0.433516       0.506300       0.247752
      12.840000       0.431803       0.511379       0.247360
      12.850000       0.430380       0.517016       0.246725
      12.860000       0.429351       0.522760       0.245848
      12.870000       0.428842       0.528182       0.244731
      12.880000       0.428976       0.532952       0.243373
      12.890000       0.429831       0.536874       0.241765
      12.900000       0.431407       0.539875       0.239887
      12.910000       0.433608       0.541970       0.237728
      12.920000       0.436251       0.543198       0.235291
      12.930000       0.439092       0.543585       0.232603
      12.940000       0.441873       0.543130       0.229719
      12.950000       0.444372       0.541818       0.226718
      12.960000       0.446452       0.539647       0.223693
      12.970000       0.448074       0.536663       0.220740
      12.980000       0.449296       0.532973       0.217942
      12.990000       0.450248       0.528753       0.215373
      13.000000       0.451099       0.524232       0.213085
      13.010000       0.452033       0.519659       0.211119
      13.020000       0.453238       0.515269       0.209501
      13.030000       0.454896       0.511236       0.208252
      13.040000       0.457186       0.507648       0.207382
      13.050000       0.460266       0.504495       0.206898
      13.060000       0.464261       0.501680       0.206794
      13.070000       0.469239       0.499051       0.207051
      13.080000       0.475192       0.496461       0.207635
      13.090000       0.482020       0.493813       0.208496
      13.100000       0.489520       0.491099       0.209575
      13.110000       0.497392       0.488414       0.210814
      13.120000       0.505257       0.485930       0.212153
      13.130000       0.512704       0.483847       0.213530
      13.140000       0.519348       0.482348       0.214876
      13.150000       0.524873       0.481555       0.216110
      13.160000       0.529048       0.481510       0.217146
      13.170000       0.531716       0.482186       0.217897
      13.180000       0.532767       0.483498       0.218294
      13.190000       0.532127       0.485332       0.218298
      13.200000       0.529766       0.487572       0.217906
      13.210000       0.525717       0.490116       0.217158
      13.220000       0.520087       0.492889       0.216129
      13.230000       0.513057       0.495823       0.214924
      13.240000       0.504876       0.498833       0.213665
      13.250000       0.495836       0.501786       0.212486
      13.260000       0.486260       0.504484       0.211521
      13.270000       0.476469       0.506677       0.210893
      13.280000       0.466749       0.508104       0.210705
      13.290000       0.457327       0.508555       0.211030
      13.300000       0.448346       0.507919       0.211903
      13.310000       0.439873       0.506211       0.213315
      13.320000       0.431927       0.503565       0.215217
      13.330000       0.424510       0.500202       0.217524
      13.340000       0.417639       0.496370       0.220122
      13.350000       0.411352       0.492305       0.222887
      13.360000       0.405706       0.488185       0.225701
      13.370000       0.400752       0.484120       0.228475
      13.380000       0.396510       0.480160       0.231162
      13.390000       0.392956       0.476318       0.233757
      13.400000       0.390008       0.472599       0.236295
      13.410000       0.387530       0.469023       0.238828
      13.420000       0.385351       0.465639       0.241418
      13.430000       0.383297       0.462522       0.244124
      13.440000       0.381213       0.459763       0.247003
      13.450000       0.378988       0.457453       0.250103
      13.460000       0.376559       0.455664       0.253459
      13.470000       0.373913       0.454438       0.257092
      13.480000       0.371072       0.453783       0.260995
      13.490000       0.368086       0.453680       0.265137
      13.500000       0.365024       0.454098       0.269462
      13.510000       0.361976       0.454994       0.273900
      13.520000       0.359044       0.456315       0.278377
      13.530000       0.356341       0.457991       0.282828
      13.540000       0.353976       0.459921       0.287211
      13.550000       0.352047       0.461968       0.291505
      13.560000       0.350622       0.463945       0.295705
      13.570000       0.349733       0.465616       0.299816
      13.580000       0.349372       0.466684       0.303839
      13.590000       0.349500       0.466811       0.307765
      13.600000       0.350054       0.465655       0.311573
      13.610000       0.350958       0.462926       0.315235
      13.620000       0.352129       0.458458       0.318714
      13.630000       0.353485       0.452263       0.321988
      13.640000       0.354951       0.444545       0.325058
      13.650000       0.356472       0.435676       0.327966
      13.660000       0.358014       0.426124       0.330799
      13.670000       0.359561       0.416372       0.333684
      13.680000       0.361108       0.406842       0.336763
      13.690000       0.362641       0.397858       0.340174
      13.700000       0.364132       0.389624       0.344019
      13.710000       0.365532       0.382248       0.348356
      13.720000       0.366784       0.375770       0.353186
      13.730000       0.367845       0.370187       0.358456
      13.740000       0.368719       0.365487       0.364066
      13.750000       0.369464       0.361652       0.369874
      13.760000       0.370188       0.358668       0.375717
      13.770000       0.371024       0.356520       0.381416
      13.780000       0.372088       0.355195       0.386790
      13.790000       0.373448       0.354689       0.391668
      13.800000       0.375100       0.355005       0.395892
      13.810000       0.376971       0.356157       0.399321
      13.820000       0.378942       0.358159       0.401842
      13.830000       0.380877       0.361006       0.403373
      13.840000       0.382663       0.364652       0.403863
      13.850000       0.384221       0.368992       0.403295
      13.860000       0.385514       0.373856       0.401678
      13.870000       0.386529       0.379017       0.399040
      13.880000       0.387274       0.384206       0.395415
      13.890000       0.387765       0.389137       0.390836
      13.900000       0.388037       0.393515       0.385327
      13.910000       0.388141       0.397054       0.378903
      13.920000       0.388150       0.399482       0.371585
      13.930000       0.388149       0.400567       0.363414
      13.940000       0.388228       0.400145       0.354476
      13.950000       0.388470       0.398161       0.344908
      13.960000       0.388949       0.394686       0.334901
      13.970000       0.389718       0.389921       0.324674
      13.980000       0.390824       0.384163       0.314451
      13.990000       0.392309       0.377758       0.304433
      14.000000       0.394216       0.371043       0.294774
      14.010000       0.396581       0.364317       0.285583
      14.020000       0.399410       0.357813       0.276927
      14.030000       0.402640       0.351696       0.268843
      14.040000       0.406111       0.346058       0.261356
      14.050000       0.409559       0.340920       0.254488
      14.060000       0.412628       0.336238       0.248261
      14.070000       0.414933       0.331905       0.242692
      14.080000       0.416122       0.327778       0.237791
      14.090000       0.415955       0.323696       0.233553
      14.100000       0.414337       0.319515       0.229955
      14.110000       0.411326       0.315132       0.226959
      14.120000       0.407092       0.310504       0.224512
      14.130000       0.401872       0.305653       0.222553
      14.140000       0.395931       0.300654       0.221016
      14.150000       0.389532       0.295615       0.219840
      14.160000       0.382923       0.290652       0.218983
      14.170000       0.376327       0.285871       0.218424
      14.180000       0.369927       0.281360       0.218167
      14.190000       0.363865       0.277179       0.218227
      14.200000       0.358233       0.273367       0.218623
      14.210000       0.353067       0.269938       0.219361
      14.220000       0.348350       0.266883       0.220421
      14.230000       0.344012       0.264172       0.221762
      14.240000       0.339943       0.261753       0.223325
      14.250000       0.336010       0.259557       0.225044
      14.260000       0.332094       0.257505       0.226852
      14.270000       0.328110       0.255518       0.228696
      14.280000       0.324030       0.253523       0.230530
      14.290000       0.319879       0.251466       0.232317
      14.300000       0.315715       0.249318       0.234024
      14.310000       0.311596       0.247076       0.235620
      14.320000       0.307572       0.244756       0.237072
      14.330000       0.303666       0.242386       0.238352
      14.340000       0.299890       0.239994       0.239444
      14.350000       0.296242       0.237601       0.240356
      14.360000       0.292719       0.235214       0.241125
      14.370000       0.289319       0.232838       0.241821
      14.380000       0.286047       0.230473       0.242544
      14.390000       0.282926       0.228126       0.243408
      14.400000       0.279999       0.225806       0.244523
      14.410000       0.277334       0.223530       0.245987
      14.420000       0.275015       0.221314       0.247866
      14.430000       0.273133       0.219172       0.250193
      14.440000       0.271771       0.217118       0.252960
      14.450000       0.270990       0.215163       0.256123
      14.460000       0.270828       0.213317       0.259600
      14.470000       0.271292       0.211588       0.263281
      14.480000       0.272361       0.209980       0.267036
      14.490000       0.273987       0.208488       0.270727
      14.500000       0.276099       0.207097       0.274216
      14.510000       0.278616       0.205794       0.277387
      14.520000       0.281460       0.204575       0.280148
      14.530000       0.284573       0.203454       0.282451
      14.540000       0.287929       0.202470       0.284293
      14.550000       0.291529       0.201680       0.285716
      14.560000       0.295394       0.201149       0.286808
      14.570000       0.299549       0.200939       0.287693
      14.580000       0.304008       0.201095       0.288520
      14.590000       0.308773       0.201644       0.289454
      14.600000       0.313831       0.202579       0.290655
      14.610000       0.319160       0.203866       0.292263
      14.620000       0.324722       0.205432       0.294383
      14.630000       0.330459       0.207164       0.297085
      14.640000       0.336275       0.208917       0.300400
      14.650000       0.342035       0.210517       0.304339
      14.660000       0.347570       0.211788       0.308903
      14.670000       0.352696       0.212574       0.314094
      14.680000       0.357236       0.212776       0.319925
      14.690000       0.361040       0.212358       0.326421
      14.700000       0.363985       0.211353       0.333612
      14.710000       0.365962       0.209845       0.341522
      14.720000       0.366863       0.207950       0.350148
      14.730000       0.366578       0.205793       0.359455
      14.740000       0.365001       0.203503       0.369363
      14.750000       0.362072       0.201197       0.379761
      14.760000       0.357806       0.198979       0.390511
      14.770000       0.352332       0.196936       0.401472
      14.780000       0.345899       0.195127       0.412514
      14.790000       0.338848       0.193586       0.423539
      14.800000       0.331560       0.192319       0.434484
      14.810000       0.324395       0.191310       0.445315
      14.820000       0.317640       0.190537       0.456007
      14.830000       0.311486       0.189982       0.466521
      14.840000       0.306032       0.189640       0.476788
      14.850000       0.301305       0.189523       0.486715
      14.860000       0.297295       0.189650       0.496200
      14.870000       0.293972       0.190034       0.505158
      14.880000       0.291303       0.190673       0.513551
      14.890000       0.289256       0.191535       0.521404
      14.900000       0.287790       0.192563       0.528808
      14.910000       0.286854       0.193681       0.535901
      14.920000       0.286384       0.194800       0.542843
      14.930000       0.286312       0.195840       0.549772
      14.940000       0.286574       0.196730       0.556768
      14.950000       0.287119       0.197420       0.563833
      14.960000       0.287912       0.197871       0.570883
      14.970000       0.288935       0.198061       0.577769
      14.980000       0.290176       0.197975       0.584310
      14.990000       0.291616       0.197612       0.590324
      15.000000       0.293219       0.196976       0.595656
      15.010000       0.294906       0.196081       0.600194
      15.020000       0.296554       0.194948       0.603874
      15.030000       0.297993       0.193605       0.606663
      15.040000       0.299025       0.192088       0.608546
      15.050000       0.299449       0.190449       0.609501
      15.060000       0.299104       0.188746       0.609483
      15.070000       0.297896       0.187042       0.608423
      15.080000       0.295813       0.185386       0.606256
      15.090000       0.292925       0.183808       0.602949
      15.100000       0.289364       0.182310       0.598528
      15.110000       0.285308       0.180878       0.593088
      15.120000       0.280968       0.179484       0.586771
      15.130000       0.276564       0.178111       0.579734
      15.140000       0.272313       0.176755       0.572123
      15.150000       0.268404       0.175430       0.564062
      15.160000       0.264984       0.174166       0.555654
      15.170000       0.262154       0.172998       0.546997
      15.180000       0.259961       0.171960       0.538193
      15.190000       0.258413       0.171073       0.529346
      15.200000       0.257475       0.170348       0.520557
      15.210000       0.257079       0.169778       0.511915
      15.220000       0.257127       0.169337       0.503490
      15.230000       0.257505       0.168985       0.495332
      15.240000       0.258092       0.168671       0.487478
      15.250000       0.258781       0.168344       0.479960
      15.260000       0.259498       0.167966       0.472811
      15.270000       0.260205       0.167521       0.466067
      15.280000       0.260909       0.167013       0.459748
      15.290000       0.261651       0.166464       0.453839
      15.300000       0.262506       0.165906       0.448270
      15.310000       0.263578       0.165373       0.442905
      15.320000       0.264993       0.164896       0.437553
      15.330000       0.266880       0.164499       0.431984
      15.340000       0.269354       0.164198       0.425969
      15.350000       0.272494       0.164002       0.419305
      15.360000       0.276324       0.163914       0.411854
      15.370000       0.280816       0.163938       0.403560
      15.380000       0.285890       0.164078       0.394447
      15.390000       0.291424       0.164343       0.384605
      15.400000       0.297271       0.164748       0.374172
      15.410000       0.303265       0.165307       0.363308
      15.420000       0.309237       0.166031       0.352178
      15.430000       0.315011       0.166918       0.340944
      15.440000       0.320413       0.167954       0.329758
      15.450000       0.325273       0.169108       0.318751
      15.460000       0.329425       0.170334       0.308031
      15.470000       0.332712       0.171585       0.297683
      15.480000       0.334982       0.172810       0.287768
      15.490000       0.336089       0.173964       0.278326
      15.500000       0.335899       0.175010       0.269374
      15.510000       0.334302       0.175923       0.260908
      15.520000       0.331244       0.176686       0.252906
      15.530000       0.326749       0.177286       0.245337
      15.540000       0.320930       0.177711       0.238161
      15.550000       0.313989       0.177938       0.231339
      15.560000       0.306196       0.177941       0.224839
      15.570000       0.297856       0.177695       0.218641
      15.580000       0.289275       0.177184       0.212743
      15.590000       0.280726       0.176410       0.207164
      15.600000       0.272433       0.175395       0.201939
      15.610000       0.264551       0.174173       0.197111
      15.620000       0.257179       0.172788       0.192716
      15.630000       0.250362       0.171287       0.188778
      15.640000       0.244122       0.169724       0.185292
      15.650000       0.238465       0.168156       0.182228
      15.660000       0.233392       0.166644       0.179532
      15.670000       0.228899       0.165242       0.177136
      15.680000       0.224965       0.163991       0.174973
      15.690000       0.221552       0.162915       0.172990
      15.700000       0.218603       0.162018       0.171156
      15.710000       0.216051       0.161289       0.169460
      15.720000       0.213817       0.160706       0.167906
      15.730000       0.211825       0.160244       0.166502
      15.740000       0.210000       0.159882       0.165256
      15.750000       0.208279       0.159599       0.164176
      15.760000       0.206616       0.159380       0.163268
      15.770000       0.204984       0.159215       0.162541
      15.780000       0.203378       0.159098       0.162004
      15.790000       0.201814       0.159028       0.161671
      15.800000       0.200324       0.159007       0.161552
      15.810000       0.198953       0.159041       0.161652
      15.820000       0.197750       0.159133       0.161968
      15.830000       0.196768       0.159283       0.162484
      15.840000       0.196055       0.159490       0.163175
      15.850000       0.195653       0.159746       0.163998
      15.860000       0.195594       0.160039       0.164900
      15.870000       0.195903       0.160355       0.165820
      15.880000       0.196588       0.160674       0.166697
      15.890000       0.197644       0.160975       0.167478
      15.900000       0.199050       0.161241       0.168119
      15.910000       0.200776       0.161463       0.168592
      15.920000       0.202787       0.161644       0.168884
      15.930000       0.205057       0.161793       0.168992
      15.940000       0.207577       0.161923       0.168924
      15.950000       0.210347       0.162042       0.168691
      15.960000       0.213375       0.162142       0.168305
      15.970000       0.216656       0.162203       0.167768
      15.980000       0.220164       0.162199       0.167073
      15.990000       0.223845       0.162105       0.166209
      16.000000       0.227614       0.161907       0.165168
      16.010000       0.231364       0.161605       0.163952
      16.020000       0.234979       0.161213       0.162586
      16.030000       0.238342       0.160757       0.161110
      16.040000       0.241352       0.160258       0.159585
      16.050000       0.243934       0.159735       0.158077
      16.060000       0.246041       0.159195       0.156646
      16.070000       0.247660       0.158632       0.155343
      16.080000       0.248797       0.158039       0.154200
      16.090000       0.249468       0.157416       0.153232
      16.100000       0.249685       0.156776       0.152437
      16.110000       0.249443       0.156159       0.151798
      16.120000       0.248727       0.155626       0.151291
      16.130000       0.247523       0.155254       0.150889
      16.140000       0.245835       0.155118       0.150565
      16.150000       0.243711       0.155275       0.150299
      16.160000       0.241243       0.155752       0.150083
      16.170000       0.238563       0.156532       0.149913
      16.180000       0.235815       0.157555       0.149793
      16.190000       0.233136       0.158725       0.149729
      16.200000       0.230633       0.159919       0.149716
      16.210000       0.228369       0.160999       0.149738
      16.220000       0.226366       0.161833       0.149763
      16.230000       0.224609       0.162308       0.149749
      16.240000       0.223058       0.162336       0.149649
      16.250000       0.221667       0.161871       0.149423
      16.260000       0.220392       0.160907       0.149043
      16.270000       0.219203       0.159479       0.148496
      16.280000       0.218079       0.157660       0.147777
      16.290000       0.217005       0.155548       0.146890
      16.300000       0.215952       0.153254       0.145841
      16.310000       0.214864       0.150892       0.144640
      16.320000       0.213656       0.148562       0.143306
      16.330000       0.212210       0.146346       0.141871
      16.340000       0.210393       0.144297       0.140383
      16.350000       0.208074       0.142443       0.138899
      16.360000       0.205146       0.140791       0.137483
      16.370000       0.201554       0.139331       0.136197
      16.380000       0.197304       0.138048       0.135094
      16.390000       0.192480       0.136931       0.134214
      16.400000       0.187226       0.135972       0.133578
      16.410000       0.181726       0.135172       0.133199
      16.420000       0.176171       0.134531       0.133073
      16.430000       0.170728       0.134050       0.133191
      16.440000       0.165520       0.133719       0.133542
      16.450000       0.160624       0.133517       0.134113
      16.460000       0.156070       0.133412       0.134888
      16.470000       0.151864       0.133372       0.135849
      16.480000       0.147994       0.133373       0.136970
      16.490000       0.144446       0.133407       0.138210
      16.500000       0.141208       0.133489       0.139513
      16.510000       0.138277       0.133650       0.140809
      16.520000       0.135651       0.133929       0.142019
      16.530000       0.133335       0.134354       0.143066
      16.540000       0.131329       0.134934       0.143886
      16.550000       0.129628       0.135648       0.144433
      16.560000       0.128225       0.136444       0.144685
      16.570000       0.127102       0.137246       0.144634
      16.580000       0.126239       0.137972       0.144285
      16.590000       0.125614       0.138541       0.143650
      16.600000       0.125209       0.138894       0.142750
      16.610000       0.125011       0.139002       0.141615
      16.620000       0.125018       0.138868       0.140288
      16.630000       0.125238       0.138527       0.138826
      16.640000       0.125689       0.138041       0.137296
      16.650000       0.126387       0.137484       0.135762
      16.660000       0.127345       0.136932       0.134278
      16.670000       0.128566       0.136452       0.132878
      16.680000       0.130036       0.136091       0.131575
      16.690000       0.131722       0.135876       0.130366
      16.700000       0.133577       0.135806       0.129242
      16.710000       0.135542       0.135862       0.128194
      16.720000       0.137552       0.136011       0.127221
      16.730000       0.139545       0.136210       0.126324
      16.740000       0.141475       0.136419       0.125507
      16.750000       0.143315       0.136600       0.124772
      16.760000       0.145062       0.136716       0.124111
      16.770000       0.146732       0.136735       0.123515
      16.780000       0.148345       0.136629       0.122967
      16.790000       0.149914       0.136374       0.122455
      16.800000       0.151438       0.135954       0.121966
      16.810000       0.152892       0.135365       0.121490
      16.820000       0.154233       0.134617       0.121022
      16.830000       0.155407       0.133733       0.120564
      16.840000       0.156363       0.132743       0.120125
      16.850000       0.157069       0.131682       0.119718
      16.860000       0.157527       0.130576       0.119364
      16.870000       0.157776       0.129443       0.119080
      16.880000       0.157892       0.128285       0.118878
      16.890000       0.157963       0.127094       0.118759
      16.900000       0.158078       0.125857       0.118710
      16.910000       0.158299       0.124564       0.118708
      16.920000       0.158666       0.123220       0.118725
      16.930000       0.159191       0.121842       0.118733
      16.940000       0.159869       0.120462       0.118712
      16.950000       0.160686       0.119126       0.118649
      16.960000       0.161623       0.117884       0.118542
      16.970000       0.162654       0.116784       0.118393
      16.980000       0.163745       0.115872       0.118209
      16.990000       0.164851       0.115182       0.117997
      17.000000       0.165916       0.114736       0.117765
      17.010000       0.166881       0.114543       0.117517
      17.020000       0.167696       0.114594       0.117257
      17.030000       0.168320       0.114865       0.116984
      17.040000       0.168735       0.115315       0.116700
      17.050000       0.168937       0.115888       0.116407
      17.060000       0.168941       0.116522       0.116111
      17.070000       0.168774       0.117152       0.115820
      17.080000       0.168477       0.117715       0.115543
      17.090000       0.168093       0.118156       0.115292
      17.100000       0.167660       0.118440       0.115073
      17.110000       0.167209       0.118556       0.114891
      17.120000       0.166757       0.118519       0.114747
      17.130000       0.166304       0.118366       0.114637
      17.140000       0.165837       0.118153       0.114554
      17.150000       0.165322       0.117939       0.114492
      17.160000       0.164709       0.117777       0.114443
      17.170000       0.163927       0.117707       0.114400
      17.180000       0.162890       0.117749       0.114361
      17.190000       0.161508       0.117905       0.114324
      17.200000       0.159702       0.118163       0.114292
      17.210000       0.157425       0.118497       0.114266
      17.220000       0.154672       0.118881       0.114254
      17.230000       0.151490       0.119284       0.114265
      17.240000       0.147965       0.119682       0.114316
      17.250000       0.144215       0.120051       0.114431
      17.260000       0.140364       0.120375       0.114636
      17.270000       0.136526       0.120638       0.114960
      17.280000       0.132797       0.120829       0.115430
      17.290000       0.129251       0.120942       0.116063
      17.300000       0.125943       0.120972       0.116869
      17.310000       0.122914       0.120925       0.117844
      17.320000       0.120196       0.120808       0.118976
      17.330000       0.117813       0.120639       0.120244
      17.340000       0.115781       0.120434       0.121625
      17.350000       0.114107       0.120217       0.123098
      17.360000       0.112792       0.120003       0.124652
      17.370000       0.111825       0.119807       0.126281
      17.380000       0.111187       0.119631       0.127989
      17.390000       0.110853       0.119470       0.129782
      17.400000       0.110790       0.119309       0.131670
      17.410000       0.110968       0.119126       0.133661
      17.420000       0.111355       0.118894       0.135764
      17.430000       0.111927       0.118582       0.137985
      17.440000       0.112659       0.118164       0.140327
      17.450000       0.113526       0.117616       0.142788
      17.460000       0.114500       0.116927       0.145356
      17.470000       0.115550       0.116094       0.148012
      17.480000       0.116641       0.115126       0.150726
      17.490000       0.117740       0.114042       0.153463
      17.500000       0.118813       0.112868       0.156186
      17.510000       0.119822       0.111633       0.158862
      17.520000       0.120721       0.110363       0.161464
      17.530000       0.121452       0.109083       0.163984
      17.540000       0.121949       0.107814       0.166427
      17.550000       0.122153       0.106571       0.168817
      17.560000       0.122025       0.105369       0.171185
      17.570000       0.121563       0.104222       0.173562
      17.580000       0.120802       0.103143       0.175971
      17.590000       0.119810       0.102148       0.178426
      17.600000       0.118672       0.101251       0.180937
      17.610000       0.117469       0.100461       0.183510
      17.620000       0.116270       0.099777       0.186156
      17.630000       0.115122       0.099190       0.188885
      17.640000       0.114053       0.098678       0.191697
      17.650000       0.113077       0.098217       0.194584
      17.660000       0.112200       0.097783       0.197526
      17.670000       0.111428       0.097362       0.200499
      17.680000       0.110765       0.096944       0.203486
      17.690000       0.110217       0.096532       0.206482
      17.700000       0.109790       0.096132       0.209504
      17.710000       0.109488       0.095754       0.212580
      17.720000       0.109309       0.095409       0.215754
      17.730000       0.109247       0.095104       0.219078
      17.740000       0.109290       0.094845       0.222610
      17.750000       0.109421       0.094638       0.226412
      17.760000       0.109623       0.094485       0.230550
      17.770000       0.109889       0.094386       0.235086
      17.780000       0.110220       0.094339       0.240079
      17.790000       0.110626       0.094335       0.245564
      17.800000       0.111121       0.094358       0.251550
      17.810000       0.111724       0.094386       0.258004
      17.820000       0.112452       0.094391       0.264858
      17.830000       0.113325       0.094349       0.272020
      17.840000       0.114363       0.094235       0.279389
      17.850000       0.115585       0.094036       0.286881
      17.860000       0.117005       0.093745       0.294436
      17.870000       0.118623       0.093367       0.302016
      17.880000       0.120418       0.092916       0.309585
      17.890000       0.122349       0.092415       0.317093
      17.900000       0.124354       0.091891       0.324454
      17.910000       0.126353       0.091373       0.331560
      17.920000       0.128265       0.090886       0.338291
      17.930000       0.130011       0.090448       0.344550
      17.940000       0.131527       0.090066       0.350284
      17.950000       0.132767       0.089739       0.355494
      17.960000       0.133701       0.089453       0.360221
      17.970000       0.134318       0.089194       0.364521
      17.980000       0.134625       0.088944       0.368437
      17.990000       0.134653       0.088688       0.371985
      18.000000       0.134450       0.088416       0.375156
      18.010000       0.134080       0.088122       0.377937
      18.020000       0.133601       0.087802       0.380333
      18.030000       0.133059       0.087456       0.382382
      18.040000       0.132468       0.087085       0.384157
      18.050000       0.131818       0.086694       0.385751
      18.060000       0.131076       0.086285       0.387251
      18.070000       0.130202       0.085865       0.388721
      18.080000       0.129160       0.085437       0.390187
      18.090000       0.127924       0.085004       0.391632
      18.100000       0.126484       0.084570       0.393005
      18.110000       0.124845       0.084137       0.394239
      18.120000       0.123026       0.083708       0.395273
      18.130000       0.121058       0.083287       0.396075
      18.140000       0.118975       0.082875       0.396644
      18.150000       0.116818       0.082474       0.396989
      18.160000       0.114632       0.082083       0.397111
      18.170000       0.112461       0.081699       0.396975
      18.180000       0.110357       0.081314       0.396520
      18.190000       0.108364       0.080915       0.395674
      18.200000       0.106522       0.080490       0.394398
      18.210000       0.104858       0.080023       0.392707
      18.220000       0.103379       0.079505       0.390677
      18.230000       0.102078       0.078933       0.388420
      18.240000       0.100928       0.078308       0.386045
      18.250000       0.099893       0.077640       0.383613
      18.260000       0.098930       0.076938       0.381104
      18.270000       0.097998       0.076214       0.378411
      18.280000       0.097072       0.075478       0.375363
      18.290000       0.096142       0.074742       0.371768
      18.300000       0.095218       0.074018       0.367480
      18.310000       0.094320       0.073315       0.362444
      18.320000       0.093476       0.072650       0.356729
      18.330000       0.092712       0.072037       0.350516
      18.340000       0.092049       0.071494       0.344061
      18.350000       0.091495       0.071034       0.337636
      18.360000       0.091054       0.070670       0.331475
      18.370000       0.090721       0.070405       0.325749
      18.380000       0.090489       0.070236       0.320553
      18.390000       0.090351       0.070153       0.315922
      18.400000       0.090307       0.070144       0.311853
      18.410000       0.090359       0.070196       0.308325
      18.420000       0.090519       0.070300       0.305312
      18.430000       0.090798       0.070447       0.302793
      18.440000       0.091212       0.070631       0.300749
      18.450000       0.091773       0.070845       0.299172
      18.460000       0.092491       0.071082       0.298062
      18.470000       0.093371       0.071335       0.297422
      18.480000       0.094412       0.071599       0.297250
      18.490000       0.095604       0.071875       0.297525
      18.500000       0.096925       0.072168       0.298201
      18.510000       0.098338       0.072485       0.299210
      18.520000       0.099792       0.072835       0.300466
      18.530000       0.101223       0.073224       0.301886
      18.540000       0.102568       0.073651       0.303397
      18.550000       0.103767       0.074107       0.304935
      18.560000       0.104774       0.074576       0.306443
      18.570000       0.105561       0.075036       0.307862
      18.580000       0.106120       0.075462       0.309121
      18.590000       0.106463       0.075838       0.310138
      18.600000       0.106619       0.076155       0.310831
      18.610000       0.106631       0.076413       0.311127
      18.620000       0.106547       0.076624       0.310978
      18.630000       0.106416       0.076801       0.310378
      18.640000       0.106282       0.076962       0.309366
      18.650000       0.106179       0.077122       0.308030
      18.660000       0.106133       0.077290       0.306492
      18.670000       0.106162       0.077466       0.304889
      18.680000       0.106276       0.077648       0.303357
      18.690000       0.106481       0.077828       0.302009
      18.700000       0.106778       0.077998       0.300924
      18.710000       0.107165       0.078155       0.300139
      18.720000       0.107641       0.078297       0.299650
      18.730000       0.108196       0.078429       0.299426
      18.740000       0.108819       0.078560       0.299421
      18.750000       0.109487       0.078698       0.299586
      18.760000       0.110171       0.078853       0.299882
      18.770000       0.110827       0.079028       0.300276
      18.780000       0.111403       0.079224       0.300737
      18.790000       0.111838       0.079437       0.301226
      18.800000       0.112078       0.079658       0.301692
      18.810000       0.112077       0.079880       0.302072
      18.820000       0.111812       0.080094       0.302298
      18.830000       0.111282       0.080297       0.302305
      18.840000       0.110510       0.080489       0.302048
      18.850000       0.109538       0.080676       0.301512
      18.860000       0.108414       0.080865       0.300713
      18.870000       0.107187       0.081063       0.299696
      18.880000       0.105900       0.081271       0.298516
      18.890000       0.104583       0.081484       0.297218
      18.900000       0.103256       0.081688       0.295825
      18.910000       0.101935       0.081864       0.294326
      18.920000       0.100633       0.081992       0.292686
      18.930000       0.099361       0.082054       0.290856
      18.940000       0.098134       0.082037       0.288797
      18.950000       0.096963       0.081935       0.286498
      18.960000       0.095861       0.081750       0.284000
      18.970000       0.094836       0.081489       0.281390
      18.980000       0.093888       0.081166       0.278800
      18.990000       0.093019       0.080796       0.276375
      19.000000       0.092223       0.080402       0.274255
      19.010000       0.091497       0.080008       0.272552
      19.020000       0.090840       0.079639       0.271334
      19.030000       0.090252       0.079319       0.270615
      19.040000       0.089734       0.079069       0.270342
      19.050000       0.089286       0.078898       0.270397
      19.060000       0.088905       0.078806       0.270604
      19.070000       0.088583       0.078786       0.270755
      19.080000       0.088306       0.078821       0.270652
      19.090000       0.088054       0.078894       0.270144
      19.100000       0.087805       0.078989       0.269164
      19.110000       0.087539       0.079096       0.267735
      19.120000       0.087247       0.079211       0.265963
      19.130000       0.086930       0.079330       0.264004
      19.140000       0.086604       0.079448       0.262040
      19.150000       0.086294       0.079559       0.260246
      19.160000       0.086032       0.079650       0.258771
      19.170000       0.085845       0.079704       0.257726
      19.180000       0.085749       0.079704       0.257165
      19.190000       0.085747       0.079633       0.257083
      19.200000       0.085826       0.079476       0.257413
      19.210000       0.085959       0.079228       0.258040
      19.220000       0.086114       0.078887       0.258827
      19.230000       0.086257       0.078456       0.259647
      19.240000       0.086362       0.077942       0.260418
      19.250000       0.086409       0.077351       0.261120
      19.260000       0.086385       0.076690       0.261794
      19.270000       0.086282       0.075971       0.262530
      19.280000       0.086090       0.075208       0.263431
      19.290000       0.085800       0.074420       0.264592
      19.300000       0.085400       0.073626       0.266074
      19.310000       0.084880       0.072845       0.267895
      19.320000       0.084237       0.072091       0.270033
      19.330000       0.083479       0.071372       0.272426
      19.340000       0.082627       0.070690       0.274983
      19.350000       0.081716       0.070045       0.277591
      19.360000       0.080786       0.069433       0.280122
      19.370000       0.079879       0.068849       0.282443
      19.380000       0.079025       0.068288       0.284428
      19.390000       0.078245       0.067745       0.285973
      19.400000       0.077539       0.067216       0.287006
      19.410000       0.076897       0.066699       0.287497
      19.420000       0.076295       0.066192       0.287459
      19.430000       0.075711       0.065694       0.286937
      19.440000       0.075124       0.065203       0.285995
      19.450000       0.074524       0.064717       0.284697
      19.460000       0.073907       0.064236       0.283100
      19.470000       0.073282       0.063761       0.281245
      19.480000       0.072662       0.063295       0.279162
      19.490000       0.072065       0.062844       0.276875
      19.500000       0.071509       0.062411       0.274412
      19.510000       0.071014       0.061999       0.271817
      19.520000       0.070591       0.061604       0.269149
      19.530000       0.070249       0.061218       0.266492
      19.540000       0.069987       0.060831       0.263948
      19.550000       0.069799       0.060434       0.261627
      19.560000       0.069674       0.060017       0.259640
      19.570000       0.069600       0.059579       0.258079
      19.580000       0.069564       0.059120       0.257016
      19.590000       0.069561       0.058649       0.256490
      19.600000       0.069586       0.058177       0.256515
      19.610000       0.069639       0.057719       0.257077
      19.620000       0.069725       0.057288       0.258145
      19.630000       0.069846       0.056896       0.259675
      19.640000       0.070005       0.056548       0.261615
      19.650000       0.070202       0.056246       0.263910
      19.660000       0.070435       0.055985       0.266495
      19.670000       0.070696       0.055757       0.269291
      19.680000       0.070977       0.055549       0.272200
      19.690000       0.071263       0.055349       0.275104
      19.700000       0.071534       0.055144       0.277881
      19.710000       0.071770       0.054926       0.280418
      19.720000       0.071948       0.054689       0.282633
      19.730000       0.072049       0.054432       0.284487
      19.740000       0.072058       0.054162       0.285986
      19.750000       0.071971       0.053889       0.287171
      19.760000       0.071790       0.053627       0.288099
      19.770000       0.071528       0.053394       0.288827
      19.780000       0.071203       0.053203       0.289394
      19.790000       0.070836       0.053066       0.289815
      19.800000       0.070452       0.052991       0.290090
      19.810000       0.070073       0.052979       0.290208
      19.820000       0.069722       0.053030       0.290164
      19.830000       0.069419       0.053141       0.289956
      19.840000       0.069180       0.053306       0.289581
      19.850000       0.069019       0.053517       0.289035
      19.860000       0.068946       0.053765       0.288299
      19.870000       0.068966       0.054040       0.287348
      19.880000       0.069080       0.054329       0.286152
      19.890000       0.069286       0.054621       0.284686
      19.900000       0.069574       0.054906       0.282934
      19.910000       0.069932       0.055177       0.280898
      19.920000       0.070342       0.055431       0.278595
      19.930000       0.070779       0.055670       0.276070
      19.940000       0.071211       0.055895       0.273397
      19.950000       0.071605       0.056111       0.270676
      19.960000       0.071928       0.056323       0.268030
      19.970000       0.072155       0.056532       0.265592
      19.980000       0.072269       0.056743       0.263497
      19.990000       0.072264       0.056958       0.261880
      20.000000       0.072144       0.057181       0.260865
