  # energy grid [eV]     epsr_x  epsr_y  epsr_z
       0.000000            NaN            NaN            NaN
       0.010000 -213744.314518  -88654.900332       1.986289
       0.020000  -53420.863494  -22160.724709       1.986376
       0.030000  -23731.310282   -9846.988284       1.986517
       0.040000  -13339.936723   -5537.180301       1.986709
       0.050000   -8530.182229   -3542.354634       1.986945
       0.060000   -5917.440817   -2458.745356       1.987216
       0.070000   -4342.003104   -1805.362853       1.987511
       0.080000   -3319.444885   -1381.292184       1.987812
       0.090000   -2618.342459   -1090.550427       1.988097
       0.100000   -2116.806913    -882.584251       1.988338
       0.110000   -1745.685065    -728.712486       1.988498
       0.120000   -1463.373080    -611.680072       1.988535
       0.130000   -1243.623495    -520.601013       1.988398
       0.140000   -1069.213378    -448.332242       1.988034
       0.150000    -928.461604    -390.029155       1.987393
       0.160000    -813.218995    -342.312019       1.986437
       0.170000    -717.660199    -302.764887       1.985151
       0.180000    -637.531607    -269.623668       1.983554
       0.190000    -569.668684    -241.575914       1.981706
       0.200000    -511.677821    -217.628851       1.979696
       0.210000    -461.721636    -197.020302       1.977630
       0.220000    -418.371003    -179.157270       1.975610
       0.230000    -380.501167    -163.572801       1.973709
       0.240000    -347.217577    -149.895150       1.971968
       0.250000    -317.802162    -137.825399       1.970396
       0.260000    -291.673916    -127.120985       1.968985
       0.270000    -268.359665    -117.583417       1.967713
       0.280000    -247.472208    -109.049000       1.966561
       0.290000    -228.693860    -101.381768       1.965505
       0.300000    -211.763995     -94.468032       1.964515
       0.310000    -196.469549     -88.212137       1.963556
       0.320000    -182.637649     -82.533137       1.962591
       0.330000    -170.129633     -77.362161       1.961590
       0.340000    -158.835751     -72.640315       1.960541
       0.350000    -148.669863     -68.316997       1.959455
       0.360000    -139.563488     -64.348530       1.958364
       0.370000    -131.458879     -60.697063       1.957302
       0.380000    -124.301258     -57.329654       1.956292
       0.390000    -118.031022     -54.217533       1.955326
       0.400000    -112.577290     -51.335477       1.954360
       0.410000    -107.854365     -48.661303       1.953314
       0.420000    -103.762389     -46.175435       1.952084
       0.430000    -100.192602     -43.860547       1.950567
       0.440000     -97.036184     -41.701258       1.948681
       0.450000     -94.194208     -39.683878       1.946390
       0.460000     -91.585535     -37.796185       1.943718
       0.470000     -89.150104     -36.027247       1.940751
       0.480000     -86.846787     -34.367255       1.937626
       0.490000     -84.647158     -32.807391       1.934499
       0.500000     -82.528187     -31.339710       1.931523
       0.510000     -80.467094     -29.957036       1.928826
       0.520000     -78.440230     -28.652877       1.926502
       0.530000     -76.425700     -27.421348       1.924604
       0.540000     -74.407705     -26.257101       1.923145
       0.550000     -72.380101     -25.155270       1.922105
       0.560000     -70.347333     -24.111419       1.921433
       0.570000     -68.322254     -23.121497       1.921061
       0.580000     -66.321645     -22.181798       1.920919
       0.590000     -64.360969     -21.288927       1.920946
       0.600000     -62.450037     -20.439769       1.921100
       0.610000     -60.590869     -19.631460       1.921365
       0.620000     -58.778306     -18.861366       1.921741
       0.630000     -57.002911     -18.127059       1.922240
       0.640000     -55.254776     -17.426297       1.922871
       0.650000     -53.526652     -16.757010       1.923638
       0.660000     -51.815415     -16.117281       1.924534
       0.670000     -50.121885     -15.505335       1.925546
       0.680000     -48.449625     -14.919526       1.926655
       0.690000     -46.803496     -14.358325       1.927837
       0.700000     -45.188469     -13.820311       1.929064
       0.710000     -43.608862     -13.304161       1.930298
       0.720000     -42.067988     -12.808643       1.931489
       0.730000     -40.568083     -12.332609       1.932579
       0.740000     -39.110409     -11.874987       1.933495
       0.750000     -37.695423     -11.434779       1.934163
       0.760000     -36.322983     -11.011052       1.934504
       0.770000     -34.992536     -10.602935       1.934455
       0.780000     -33.703299     -10.209617       1.933971
       0.790000     -32.454412      -9.830343       1.933048
       0.800000     -31.245089      -9.464414       1.931722
       0.810000     -30.074745      -9.111184       1.930073
       0.820000     -28.943140      -8.770060       1.928219
       0.830000     -27.850513      -8.440505       1.926288
       0.840000     -26.797737      -8.122040       1.924410
       0.850000     -25.786493      -7.814246       1.922692
       0.860000     -24.819430      -7.516769       1.921216
       0.870000     -23.900293      -7.229320       1.920038
       0.880000     -23.033929      -6.951678       1.919190
       0.890000     -22.226075      -6.683678       1.918683
       0.900000     -21.482828      -6.425199       1.918510
       0.910000     -20.809725      -6.176131       1.918650
       0.920000     -20.210528      -5.936334       1.919068
       0.930000     -19.685954      -5.705582       1.919723
       0.940000     -19.232786      -5.483521       1.920568
       0.950000     -18.843782      -5.269641       1.921552
       0.960000     -18.508564      -5.063280       1.922622
       0.970000     -18.215267      -4.863671       1.923720
       0.980000     -17.952375      -4.670011       1.924789
       0.990000     -17.710142      -4.481526       1.925771
       1.000000     -17.481257      -4.297530       1.926619
       1.010000     -17.260840      -4.117447       1.927293
       1.020000     -17.046101      -3.940820       1.927769
       1.030000     -16.835976      -3.767304       1.928040
       1.040000     -16.630818      -3.596656       1.928113
       1.050000     -16.432018      -3.428726       1.928010
       1.060000     -16.241557      -3.263437       1.927768
       1.070000     -16.061652      -3.100769       1.927433
       1.080000     -15.894660      -2.940755       1.927062
       1.090000     -15.743212      -2.783485       1.926709
       1.100000     -15.610341      -2.629115       1.926422
       1.110000     -15.499410      -2.477880       1.926236
       1.120000     -15.413904      -2.330107       1.926174
       1.130000     -15.357274      -2.186214       1.926246
       1.140000     -15.332927      -2.046715       1.926449
       1.150000     -15.344248      -1.912195       1.926769
       1.160000     -15.394459      -1.783267       1.927171
       1.170000     -15.486226      -1.660475       1.927607
       1.180000     -15.621076      -1.544181       1.928018
       1.190000     -15.798682      -1.434424       1.928341
       1.200000     -16.016036      -1.330836       1.928525
       1.210000     -16.266591      -1.232662       1.928539
       1.220000     -16.539584      -1.138924       1.928377
       1.230000     -16.819931      -1.048694       1.928063
       1.240000     -17.089034      -0.961364       1.927634
       1.250000     -17.326677      -0.876795       1.927134
       1.260000     -17.513708      -0.795258       1.926599
       1.270000     -17.634852      -0.717175       1.926049
       1.280000     -17.680816      -0.642773       1.925495
       1.290000     -17.649068      -0.571766       1.924946
       1.300000     -17.543214      -0.503227       1.924417
       1.310000     -17.371384      -0.435719       1.923939
       1.320000     -17.144254      -0.367668       1.923557
       1.330000     -16.873264      -0.297822       1.923330
       1.340000     -16.569321      -0.225615       1.923316
       1.350000     -16.242047      -0.151308       1.923564
       1.360000     -15.899469      -0.075887       1.924099
       1.370000     -15.548010      -0.000787       1.924924
       1.380000     -15.192638       0.072461       1.926014
       1.390000     -14.837090       0.142577       1.927326
       1.400000     -14.484107       0.208781       1.928801
       1.410000     -14.135648       0.270879       1.930374
       1.420000     -13.793070       0.329132       1.931976
       1.430000     -13.457280       0.383949       1.933538
       1.440000     -13.128854       0.435530       1.934991
       1.450000     -12.808128       0.483644       1.936270
       1.460000     -12.495273       0.527657       1.937317
       1.470000     -12.190349       0.566831       1.938085
       1.480000     -11.893347       0.600762       1.938543
       1.490000     -11.604224       0.629769       1.938677
       1.500000     -11.322919       0.655060       1.938498
       1.510000     -11.049365       0.678560       1.938041
       1.520000     -10.783491       0.702495       1.937371
       1.530000     -10.525210       0.728882       1.936580
       1.540000     -10.274413       0.759129       1.935784
       1.550000     -10.030962       0.793813       1.935102
       1.560000      -9.794709       0.832610       1.934641
       1.570000      -9.565525       0.874324       1.934472
       1.580000      -9.343362       0.917013       1.934621
       1.590000      -9.128294       0.958229       1.935069
       1.600000      -8.920545       0.995385       1.935759
       1.610000      -8.720455       1.026232       1.936606
       1.620000      -8.528409       1.049350       1.937516
       1.630000      -8.344726       1.064543       1.938388
       1.640000      -8.169560       1.072970       1.939130
       1.650000      -8.002857       1.076905       1.939665
       1.660000      -7.844367       1.079166       1.939940
       1.670000      -7.693719       1.082428       1.939936
       1.680000      -7.550519       1.088684       1.939675
       1.690000      -7.414421       1.099048       1.939218
       1.700000      -7.285179       1.113909       1.938664
       1.710000      -7.162658       1.133254       1.938124
       1.720000      -7.046833       1.156971       1.937705
       1.730000      -6.937757       1.184950       1.937486
       1.740000      -6.835526       1.216975       1.937510
       1.750000      -6.740270       1.252507       1.937788
       1.760000      -6.652190       1.290509       1.938307
       1.770000      -6.571607       1.329426       1.939044
       1.780000      -6.498994       1.367377       1.939969
       1.790000      -6.434950       1.402462       1.941051
       1.800000      -6.380134       1.433117       1.942253
       1.810000      -6.335172       1.458388       1.943530
       1.820000      -6.300556       1.478064       1.944830
       1.830000      -6.276529       1.492657       1.946095
       1.840000      -6.262942       1.503272       1.947268
       1.850000      -6.259103       1.511437       1.948297
       1.860000      -6.263609       1.518884       1.949146
       1.870000      -6.274199       1.527276       1.949800
       1.880000      -6.287701       1.537879       1.950272
       1.890000      -6.300160       1.551239       1.950610
       1.900000      -6.307224       1.567004       1.950890
       1.910000      -6.304719       1.583940       1.951207
       1.920000      -6.289295       1.600144       1.951658
       1.930000      -6.258905       1.613338       1.952319
       1.940000      -6.212995       1.621166       1.953233
       1.950000      -6.152347       1.621469       1.954405
       1.960000      -6.078713       1.612566       1.955804
       1.970000      -5.994358       1.593567       1.957375
       1.980000      -5.901666       1.564649       1.959051
       1.990000      -5.802850       1.527177       1.960758
       2.000000      -5.699806       1.483572       1.962425
       2.010000      -5.594053       1.436931       1.963994
       2.020000      -5.486757       1.390527       1.965415
       2.030000      -5.378788       1.347341       1.966655
       2.040000      -5.270794       1.309730       1.967688
       2.050000      -5.163266       1.279281       1.968495
       2.060000      -5.056587       1.256840       1.969061
       2.070000      -4.951072       1.242658       1.969380
       2.080000      -4.846980       1.236531       1.969462
       2.090000      -4.744530       1.237900       1.969345
       2.100000      -4.643904       1.245925       1.969104
       2.110000      -4.545248       1.259590       1.968838
       2.120000      -4.448674       1.277866       1.968656
       2.130000      -4.354252       1.299880       1.968654
       2.140000      -4.262005       1.324999       1.968892
       2.150000      -4.171903       1.352806       1.969386
       2.160000      -4.083854       1.383014       1.970110
       2.170000      -3.997715       1.415380       1.971013
       2.180000      -3.913311       1.449668       1.972033
       2.190000      -3.830470       1.485662       1.973115
       2.200000      -3.749052       1.523218       1.974213
       2.210000      -3.668973       1.562324       1.975295
       2.220000      -3.590205       1.603109       1.976326
       2.230000      -3.512759       1.645769       1.977269
       2.240000      -3.436662       1.690408       1.978074
       2.250000      -3.361931       1.736862       1.978684
       2.260000      -3.288565       1.784591       1.979053
       2.270000      -3.216541       1.832662       1.979157
       2.280000      -3.145829       1.879787       1.979013
       2.290000      -3.076396       1.924370       1.978682
       2.300000      -3.008218       1.964520       1.978264
       2.310000      -2.941263       1.998054       1.977873
       2.320000      -2.875475       2.022526       1.977612
       2.330000      -2.810750       2.035300       1.977558
       2.340000      -2.746934       2.033673       1.977753
       2.350000      -2.683837       2.015008       1.978213
       2.360000      -2.621284       1.976920       1.978933
       2.370000      -2.559152       1.917554       1.979903
       2.380000      -2.497406       1.836028       1.981106
       2.390000      -2.436107       1.733006       1.982509
       2.400000      -2.375391       1.611228       1.984063
       2.410000      -2.315444       1.475753       1.985691
       2.420000      -2.256465       1.333685       1.987301
       2.430000      -2.198630       1.193335       1.988789
       2.440000      -2.142061       1.062972       1.990057
       2.450000      -2.086804       0.949532       1.991031
       2.460000      -2.032842       0.857667       1.991673
       2.470000      -1.980120       0.789399       1.991993
       2.480000      -1.928617       0.744393       1.992044
       2.490000      -1.878397       0.720646       1.991903
       2.500000      -1.829643       0.715291       1.991659
       2.510000      -1.782645       0.725267       1.991380
       2.520000      -1.737757       0.747721       1.991110
       2.530000      -1.695339       0.780138       1.990864
       2.540000      -1.655713       0.820287       1.990638
       2.550000      -1.619143       0.866142       1.990431
       2.560000      -1.585832       0.915836       1.990250
       2.570000      -1.555905       0.967711       1.990117
       2.580000      -1.529374       1.020429       1.990066
       2.590000      -1.506082       1.073091       1.990127
       2.600000      -1.485650       1.125307       1.990326
       2.610000      -1.467442       1.177155       1.990670
       2.620000      -1.450569       1.229027       1.991156
       2.630000      -1.433933       1.281398       1.991772
       2.640000      -1.416315       1.334614       1.992496
       2.650000      -1.396514       1.388752       1.993298
       2.660000      -1.373508       1.443598       1.994130
       2.670000      -1.346597       1.498712       1.994925
       2.680000      -1.315479       1.553533       1.995597
       2.690000      -1.280247       1.607488       1.996047
       2.700000      -1.241304       1.660086       1.996187
       2.710000      -1.199252       1.710984       1.995953
       2.720000      -1.154764       1.760006       1.995328
       2.730000      -1.108495       1.807107       1.994340
       2.740000      -1.061007       1.852319       1.993063
       2.750000      -1.012734       1.895684       1.991597
       2.760000      -0.963970       1.937259       1.990047
       2.770000      -0.914881       1.977151       1.988511
       2.780000      -0.865530       2.015592       1.987065
       2.790000      -0.815918       2.052970       1.985764
       2.800000      -0.766025       2.089802       1.984637
       2.810000      -0.715846       2.126652       1.983689
       2.820000      -0.665420       2.164049       1.982911
       2.830000      -0.614844       2.202445       1.982278
       2.840000      -0.564278       2.242214       1.981762
       2.850000      -0.513941       2.283673       1.981347
       2.860000      -0.464100       2.327071       1.981033
       2.870000      -0.415067       2.372550       1.980842
       2.880000      -0.367184       2.420084       1.980819
       2.890000      -0.320823       2.469430       1.981016
       2.900000      -0.276365       2.520101       1.981483
       2.910000      -0.234159       2.571382       1.982253
       2.920000      -0.194460       2.622382       1.983338
       2.930000      -0.157367       2.672105       1.984720
       2.940000      -0.122776       2.719529       1.986357
       2.950000      -0.090410       2.763679       1.988180
       2.960000      -0.059917       2.803680       1.990111
       2.970000      -0.031036       2.838794       1.992067
       2.980000      -0.003747       2.868429       1.993972
       2.990000       0.021646       2.892107       1.995761
       3.000000       0.044568       2.909406       1.997382
       3.010000       0.064325       2.919906       1.998789
       3.020000       0.080339       2.923161       1.999946
       3.030000       0.092355       2.918712       2.000828
       3.040000       0.100560       2.906120       2.001430
       3.050000       0.105551       2.885037       2.001766
       3.060000       0.108178       2.855304       2.001873
       3.070000       0.109338       2.817124       2.001807
       3.080000       0.109829       2.771267       2.001631
       3.090000       0.110295       2.719236       2.001414
       3.100000       0.111219       2.663268       2.001215
       3.110000       0.112884       2.606089       2.001084
       3.120000       0.115290       2.550429       2.001053
       3.130000       0.118081       2.498454       2.001134
       3.140000       0.120575       2.451353       2.001329
       3.150000       0.121955       2.409277       2.001624
       3.160000       0.121581       2.371642       2.001998
       3.170000       0.119329       2.337664       2.002418
       3.180000       0.115788       2.306854       2.002838
       3.190000       0.112220       2.279282       2.003201
       3.200000       0.110237       2.255498       2.003440
       3.210000       0.111342       2.236188       2.003486
       3.220000       0.116489       2.221774       2.003280
       3.230000       0.125873       2.212166       2.002782
       3.240000       0.138976       2.206758       2.001979
       3.250000       0.154820       2.204608       2.000894
       3.260000       0.172322       2.204641       1.999581
       3.270000       0.190610       2.205738       1.998126
       3.280000       0.209249       2.206701       1.996635
       3.290000       0.228279       2.206199       1.995222
       3.300000       0.248086       2.202850       1.993989
       3.310000       0.269147       2.195499       1.993020
       3.320000       0.291752       2.183635       1.992370
       3.330000       0.315813       2.167723       1.992072
       3.340000       0.340805       2.149262       1.992139
       3.350000       0.365825       2.130461       1.992577
       3.360000       0.389720       2.113642       1.993390
       3.370000       0.411242       2.100661       1.994582
       3.380000       0.429229       2.092604       1.996148
       3.390000       0.442800       2.089840       1.998066
       3.400000       0.451576       2.092318       2.000286
       3.410000       0.455855       2.099867       2.002729
       3.420000       0.456663       2.112332       2.005290
       3.430000       0.455616       2.129498       2.007851
       3.440000       0.454583       2.150903       2.010296
       3.450000       0.455260       2.175660       2.012528
       3.460000       0.458825       2.202405       2.014480
       3.470000       0.465797       2.229385       2.016125
       3.480000       0.476128       2.254690       2.017478
       3.490000       0.489437       2.276598       2.018592
       3.500000       0.505260       2.293932       2.019551
       3.510000       0.523207       2.306351       2.020451
       3.520000       0.542970       2.314454       2.021383
       3.530000       0.564242       2.319630       2.022407
       3.540000       0.586588       2.323704       2.023542
       3.550000       0.609369       2.328493       2.024762
       3.560000       0.631755       2.335448       2.026009
       3.570000       0.652843       2.345468       2.027216
       3.580000       0.671847       2.358896       2.028332
       3.590000       0.688306       2.375615       2.029343
       3.600000       0.702263       2.395163       2.030270
       3.610000       0.714326       2.416808       2.031156
       3.620000       0.725599       2.439601       2.032041
       3.630000       0.737456       2.462429       2.032940
       3.640000       0.751231       2.484092       2.033834
       3.650000       0.767908       2.503410       2.034674
       3.660000       0.787903       2.519295       2.035408
       3.670000       0.810968       2.530736       2.035994
       3.680000       0.836240       2.536751       2.036428
       3.690000       0.862375       2.536375       2.036745
       3.700000       0.887734       2.528804       2.037017
       3.710000       0.910607       2.513693       2.037342
       3.720000       0.929464       2.491493       2.037819
       3.730000       0.943218       2.463607       2.038532
       3.740000       0.951482       2.432225       2.039535
       3.750000       0.954744       2.399836       2.040843
       3.760000       0.954392       2.368599       2.042427
       3.770000       0.952535       2.339838       2.044225
       3.780000       0.951649       2.313841       2.046154
       3.790000       0.954160       2.289985       2.048123
       3.800000       0.962053       2.267077       2.050048
       3.810000       0.976642       2.243792       2.051859
       3.820000       0.998498       2.219129       2.053500
       3.830000       1.027539       2.192791       2.054923
       3.840000       1.063206       2.165407       2.056087
       3.850000       1.104659       2.138488       2.056960
       3.860000       1.150933       2.114053       2.057529
       3.870000       1.201041       2.094031       2.057812
       3.880000       1.254016       2.079652       2.057865
       3.890000       1.308935       2.071100       2.057776
       3.900000       1.364918       2.067522       2.057648
       3.910000       1.421136       2.067391       2.057576
       3.920000       1.476810       2.069025       2.057629
       3.930000       1.531220       2.071127       2.057839
       3.940000       1.583705       2.073152       2.058207
       3.950000       1.633663       2.075416       2.058717
       3.960000       1.680553       2.078917       2.059344
       3.970000       1.723901       2.084927       2.060065
       3.980000       1.763296       2.094547       2.060858
       3.990000       1.798362       2.108358       2.061698
       4.000000       1.828696       2.126304       2.062555
       4.010000       1.853780       2.147796       2.063403
       4.020000       1.872925       2.171967       2.064223
       4.030000       1.885280       2.197955       2.065023
       4.040000       1.889919       2.225077       2.065837
       4.050000       1.885976       2.252812       2.066726
       4.060000       1.872792       2.280617       2.067756
       4.070000       1.850042       2.307673       2.068982
       4.080000       1.817816       2.332743       2.070432
       4.090000       1.776673       2.354195       2.072095
       4.100000       1.727637       2.370210       2.073934
       4.110000       1.672150       2.379062       2.075894
       4.120000       1.611931       2.379382       2.077914
       4.130000       1.548779       2.370345       2.079937
       4.140000       1.484348       2.351793       2.081906
       4.150000       1.419995       2.324274       2.083756
       4.160000       1.356754       2.289004       2.085404
       4.170000       1.295446       2.247716       2.086757
       4.180000       1.236851       2.202435       2.087716
       4.190000       1.181871       2.155244       2.088197
       4.200000       1.131591       2.108113       2.088153
       4.210000       1.087208       2.062795       2.087585
       4.220000       1.049851       2.020722       2.086544
       4.230000       1.020379       1.982855       2.085133
       4.240000       0.999243       1.949569       2.083489
       4.250000       0.986455       1.920668       2.081771
       4.260000       0.981638       1.895588       2.080136
       4.270000       0.984110       1.873729       2.078713
       4.280000       0.992931       1.854743       2.077585
       4.290000       1.006925       1.838657       2.076774
       4.300000       1.024734       1.825800       2.076248
       4.310000       1.044908       1.816603       2.075931
       4.320000       1.066056       1.811392       2.075720
       4.330000       1.086976       1.810230       2.075512
       4.340000       1.106727       1.812835       2.075210
       4.350000       1.124627       1.818571       2.074734
       4.360000       1.140181       1.826499       2.074019
       4.370000       1.152964       1.835480       2.073026
       4.380000       1.162485       1.844267       2.071738
       4.390000       1.168072       1.851591       2.070172
       4.400000       1.168819       1.856228       2.068369
       4.410000       1.163666       1.857080       2.066395
       4.420000       1.151615       1.853274       2.064325
       4.430000       1.132047       1.844281       2.062244
       4.440000       1.105026       1.830021       2.060243
       4.450000       1.071486       1.810942       2.058415
       4.460000       1.033243       1.788062       2.056845
       4.470000       0.992825       1.762937       2.055593
       4.480000       0.953167       1.737517       2.054684
       4.490000       0.917223       1.713870       2.054104
       4.500000       0.887567       1.693816       2.053806
       4.510000       0.866012       1.678567       2.053726
       4.520000       0.853357       1.668500       2.053797
       4.530000       0.849298       1.663132       2.053958
       4.540000       0.852548       1.661306       2.054153
       4.550000       0.861103       1.661511       2.054325
       4.560000       0.872582       1.662211       2.054415
       4.570000       0.884555       1.662084       2.054364
       4.580000       0.894817       1.660096       2.054130
       4.590000       0.901611       1.655444       2.053700
       4.600000       0.903842       1.647459       2.053099
       4.610000       0.901296       1.635549       2.052387
       4.620000       0.894769       1.619276       2.051646
       4.630000       0.886028       1.598509       2.050961
       4.640000       0.877502       1.573636       2.050406
       4.650000       0.871769       1.545702       2.050043
       4.660000       0.871006       1.516442       2.049927
       4.670000       0.876580       1.488129       2.050113
       4.680000       0.888893       1.463221       2.050649
       4.690000       0.907467       1.443870       2.051576
       4.700000       0.931168       1.431415       2.052910
       4.710000       0.958472       1.426035       2.054638
       4.720000       0.987720       1.426687       2.056705
       4.730000       1.017285       1.431344       2.059023
       4.740000       1.045672       1.437456       2.061471
       4.750000       1.071542       1.442512       2.063905
       4.760000       1.093708       1.444538       2.066167
       4.770000       1.111128       1.442425       2.068092
       4.780000       1.122922       1.436004       2.069526
       4.790000       1.128412       1.425864       2.070334
       4.800000       1.127186       1.413005       2.070425
       4.810000       1.119193       1.398466       2.069759
       4.820000       1.104843       1.383053       2.068369
       4.830000       1.085061       1.367221       2.066369
       4.840000       1.061229       1.351085       2.063945
       4.850000       1.035002       1.334540       2.061331
       4.860000       1.008068       1.317451       2.058778
       4.870000       0.981938       1.299913       2.056514
       4.880000       0.957837       1.282486       2.054722
       4.890000       0.936696       1.266307       2.053529
       4.900000       0.919195       1.252988       2.053008
       4.910000       0.905837       1.244337       2.053192
       4.920000       0.897035       1.242011       2.054083
       4.930000       0.893192       1.247242       2.055660
       4.940000       0.894737       1.260679       2.057889
       4.950000       0.902063       1.282361       2.060719
       4.960000       0.915398       1.311755       2.064087
       4.970000       0.934655       1.347872       2.067922
       4.980000       0.959344       1.389387       2.072150
       4.990000       0.988586       1.434774       2.076700
       5.000000       1.021203       1.482408       2.081504
       5.010000       1.055855       1.530649       2.086502
       5.020000       1.091169       1.577915       2.091636
       5.030000       1.125842       1.622763       2.096850
       5.040000       1.158731       1.663982       2.102087
       5.050000       1.188935       1.700703       2.107284
       5.060000       1.215866       1.732487       2.112373
       5.070000       1.239306       1.759379       2.117284
       5.080000       1.259397       1.781864       2.121956
       5.090000       1.276562       1.800746       2.126343
       5.100000       1.291358       1.816933       2.130419
       5.110000       1.304310       1.831203       2.134182
       5.120000       1.315775       1.844004       2.137638
       5.130000       1.325861       1.855357       2.140798
       5.140000       1.334407       1.864874       2.143669
       5.150000       1.341024       1.871895       2.146249
       5.160000       1.345180       1.875661       2.148535
       5.170000       1.346346       1.875475       2.150521
       5.180000       1.344155       1.870779       2.152199
       5.190000       1.338532       1.861195       2.153555
       5.200000       1.329734       1.846558       2.154570
       5.210000       1.318309       1.826967       2.155221
       5.220000       1.304977       1.802833       2.155495
       5.230000       1.290501       1.774866       2.155392
       5.240000       1.275592       1.743997       2.154939
       5.250000       1.260854       1.711274       2.154192
       5.260000       1.246781       1.677763       2.153239
       5.270000       1.233791       1.644508       2.152195
       5.280000       1.222277       1.612520       2.151190
       5.290000       1.212673       1.582770       2.150368
       5.300000       1.205476       1.556186       2.149872
       5.310000       1.201200       1.533622       2.149832
       5.320000       1.200250       1.515806       2.150349
       5.330000       1.202789       1.503284       2.151489
       5.340000       1.208664       1.496341       2.153274
       5.350000       1.217461       1.494941       2.155685
       5.360000       1.228664       1.498723       2.158666
       5.370000       1.241848       1.507074       2.162142
       5.380000       1.256818       1.519283       2.166027
       5.390000       1.273652       1.534720       2.170241
       5.400000       1.292644       1.552971       2.174717
       5.410000       1.314199       1.573858       2.179403
       5.420000       1.338712       1.597347       2.184253
       5.430000       1.366449       1.623353       2.189220
       5.440000       1.397433       1.651523       2.194248
       5.450000       1.431335       1.681090       2.199274
       5.460000       1.467427       1.710836       2.204232
       5.470000       1.504606       1.739198       2.209059
       5.480000       1.541509       1.764476       2.213698
       5.490000       1.576689       1.785098       2.218098
       5.500000       1.608831       1.799885       2.222214
       5.510000       1.636943       1.808247       2.225998
       5.520000       1.660491       1.810248       2.229403
       5.530000       1.679453       1.806515       2.232388
       5.540000       1.694283       1.798071       2.234933
       5.550000       1.705822       1.786158       2.237041
       5.560000       1.715150       1.772138       2.238751
       5.570000       1.723436       1.757437       2.240130
       5.580000       1.731785       1.743505       2.241263
       5.590000       1.741116       1.731713       2.242248
       5.600000       1.752062       1.723200       2.243178
       5.610000       1.764899       1.718715       2.244136
       5.620000       1.779501       1.718532       2.245191
       5.630000       1.795366       1.722518       2.246392
       5.640000       1.811735       1.730333       2.247770
       5.650000       1.827758       1.741684       2.249339
       5.660000       1.842634       1.756495       2.251094
       5.670000       1.855670       1.774892       2.253016
       5.680000       1.866266       1.797012       2.255077
       5.690000       1.873899       1.822765       2.257250
       5.700000       1.878172       1.851652       2.259521
       5.710000       1.878944       1.882743       2.261892
       5.720000       1.876446       1.914768       2.264386
       5.730000       1.871310       1.946270       2.267046
       5.740000       1.864436       1.975763       2.269931
       5.750000       1.856748       2.001863       2.273109
       5.760000       1.848922       2.023380       2.276647
       5.770000       1.841178       2.039371       2.280599
       5.780000       1.833212       2.049133       2.284986
       5.790000       1.824279       2.052170       2.289789
       5.800000       1.813372       2.048140       2.294949
       5.810000       1.799411       2.036835       2.300378
       5.820000       1.781365       2.018205       2.305975
       5.830000       1.758294       1.992442       2.311651
       5.840000       1.729396       1.960092       2.317333
       5.850000       1.694149       1.922164       2.322974
       5.860000       1.652560       1.880227       2.328543
       5.870000       1.605439       1.836432       2.334011
       5.880000       1.554503       1.793408       2.339340
       5.890000       1.502205       1.754005       2.344486
       5.900000       1.451263       1.720881       2.349394
       5.910000       1.404088       1.696069       2.354017
       5.920000       1.362314       1.680624       2.358306
       5.930000       1.326615       1.674507       2.362218
       5.940000       1.296829       1.676708       2.365701
       5.950000       1.272271       1.685575       2.368696
       5.960000       1.252073       1.699207       2.371140
       5.970000       1.235417       1.715775       2.372985
       5.980000       1.221608       1.733724       2.374218
       5.990000       1.210057       1.751847       2.374877
       6.000000       1.200268       1.769284       2.375057
       6.010000       1.191883       1.785489       2.374911
       6.020000       1.184758       1.800160       2.374622
       6.030000       1.179006       1.813166       2.374385
       6.040000       1.174940       1.824496       2.374379
       6.050000       1.172955       1.834271       2.374751
       6.060000       1.173367       1.842815       2.375601
       6.070000       1.176288       1.850698       2.376979
       6.080000       1.181556       1.858671       2.378882
       6.090000       1.188720       1.867433       2.381258
       6.100000       1.197069       1.877307       2.384016
       6.110000       1.205649       1.887934       2.387047
       6.120000       1.213244       1.898091       2.390236
       6.130000       1.218291       1.905695       2.393488
       6.140000       1.218819       1.907931       2.396734
       6.150000       1.212464       1.901500       2.399950
       6.160000       1.196657       1.882965       2.403148
       6.170000       1.168924       1.849182       2.406374
       6.180000       1.127239       1.797810       2.409690
       6.190000       1.070346       1.727801       2.413156
       6.200000       0.997980       1.639758       2.416810
       6.210000       0.910967       1.536040       2.420665
       6.220000       0.811163       1.420522       2.424708
       6.230000       0.701242       1.298042       2.428908
       6.240000       0.584393       1.173674       2.433218
       6.250000       0.463999       1.052032       2.437582
       6.260000       0.343372       0.936775       2.441939
       6.270000       0.225515       0.830344       2.446222
       6.280000       0.112907       0.733895       2.450361
       6.290000       0.007317       0.647369       2.454287
       6.300000      -0.090253       0.569695       2.457928
       6.310000      -0.179428       0.499156       2.461216
       6.320000      -0.260171       0.433889       2.464097
       6.330000      -0.332476       0.372405       2.466545
       6.340000      -0.396183       0.313939       2.468576
       6.350000      -0.450979       0.258523       2.470253
       6.360000      -0.496540       0.206780       2.471681
       6.370000      -0.532745       0.159571       2.472987
       6.380000      -0.559862       0.117665       2.474296
       6.390000      -0.578629       0.081532       2.475714
       6.400000      -0.590224       0.051292       2.477312
       6.410000      -0.596099       0.026789       2.479119
       6.420000      -0.597765       0.007724       2.481132
       6.430000      -0.596564      -0.006212       2.483333
       6.440000      -0.593494      -0.015203       2.485709
       6.450000      -0.589117      -0.019231       2.488272
       6.460000      -0.583589      -0.018057       2.491065
       6.470000      -0.576798      -0.011316       2.494166
       6.480000      -0.568589       0.001301       2.497674
       6.490000      -0.558992       0.019833       2.501695
       6.500000      -0.548389       0.043884       2.506327
       6.510000      -0.537573       0.072565       2.511644
       6.520000      -0.527694       0.104551       2.517689
       6.530000      -0.520114       0.138200       2.524461
       6.540000      -0.516203       0.171684       2.531916
       6.550000      -0.517106       0.203128       2.539959
       6.560000      -0.523514       0.230747       2.548446
       6.570000      -0.535489       0.253022       2.557185
       6.580000      -0.552384       0.268912       2.565950
       6.590000      -0.572877       0.278038       2.574502
       6.600000      -0.595170       0.280769       2.582616
       6.610000      -0.617312       0.278152       2.590123
       6.620000      -0.637581       0.271704       2.596933
       6.630000      -0.654795       0.263143       2.603055
       6.640000      -0.668446       0.254117       2.608591
       6.650000      -0.678637       0.246007       2.613707
       6.660000      -0.685840       0.239817       2.618600
       6.670000      -0.690578       0.236191       2.623462
       6.680000      -0.693150       0.235545       2.628462
       6.690000      -0.693490       0.238221       2.633730
       6.700000      -0.691221       0.244558       2.639367
       6.710000      -0.685858       0.254842       2.645448
       6.720000      -0.677062       0.269139       2.652025
       6.730000      -0.664808       0.287129       2.659133
       6.740000      -0.649421       0.308030       2.666785
       6.750000      -0.631481       0.330673       2.674973
       6.760000      -0.611667       0.353700       2.683668
       6.770000      -0.590600       0.375819       2.692831
       6.780000      -0.568754       0.396044       2.702419
       6.790000      -0.546445       0.413874       2.712395
       6.800000      -0.523903       0.429364       2.722733
       6.810000      -0.501384       0.443105       2.733419
       6.820000      -0.479283       0.456103       2.744442
       6.830000      -0.458225       0.469558       2.755794
       6.840000      -0.439088       0.484573       2.767464
       6.850000      -0.422962       0.501853       2.779433
       6.860000      -0.411027       0.521486       2.791671
       6.870000      -0.404369       0.542881       2.804135
       6.880000      -0.403765       0.564883       2.816774
       6.890000      -0.409482       0.585999       2.829529
       6.900000      -0.421175       0.604667       2.842343
       6.910000      -0.437908       0.619485       2.855171
       6.920000      -0.458301       0.629355       2.867982
       6.930000      -0.480739       0.633551       2.880765
       6.940000      -0.503554       0.631724       2.893520
       6.950000      -0.525141       0.623885       2.906245
       6.960000      -0.544023       0.610372       2.918930
       6.970000      -0.558910       0.591817       2.931542
       6.980000      -0.568782       0.569079       2.944031
       6.990000      -0.572970       0.543171       2.956339
       7.000000      -0.571185       0.515203       2.968408
       7.010000      -0.563502       0.486360       2.980193
       7.020000      -0.550296       0.457902       2.991667
       7.030000      -0.532184       0.431131       3.002799
       7.040000      -0.509982       0.407288       3.013548
       7.050000      -0.484647       0.387382       3.023846
       7.060000      -0.457204       0.372037       3.033607
       7.070000      -0.428620       0.361431       3.042743
       7.080000      -0.399693       0.355382       3.051187
       7.090000      -0.370973       0.353484       3.058899
       7.100000      -0.342754       0.355234       3.065853
       7.110000      -0.315144       0.360043       3.072016
       7.120000      -0.288174       0.367163       3.077327
       7.130000      -0.261899       0.375586       3.081696
       7.140000      -0.236470       0.383993       3.085014
       7.150000      -0.212141       0.390797       3.087190
       7.160000      -0.189254       0.394277       3.088193
       7.170000      -0.168212       0.392781       3.088082
       7.180000      -0.149445       0.384952       3.087023
       7.190000      -0.133387       0.369915       3.085270
       7.200000      -0.120445       0.347391       3.083120
       7.210000      -0.110951       0.317713       3.080864
       7.220000      -0.105089       0.281763       3.078732
       7.230000      -0.102812       0.240836       3.076848
       7.240000      -0.103766       0.196480       3.075198
       7.250000      -0.107271       0.150345       3.073631
       7.260000      -0.112395       0.104057       3.071885
       7.270000      -0.118113       0.059145       3.069636
       7.280000      -0.123516       0.017000       3.066555
       7.290000      -0.127991      -0.021192       3.062361
       7.300000      -0.131308      -0.054550       3.056858
       7.310000      -0.133582      -0.082604       3.049965
       7.320000      -0.135136      -0.105351       3.041723
       7.330000      -0.136307      -0.123214       3.032271
       7.340000      -0.137283      -0.136894       3.021800
       7.350000      -0.137994      -0.147165       3.010485
       7.360000      -0.138116      -0.154695       2.998426
       7.370000      -0.137154      -0.159966       2.985624
       7.380000      -0.134605      -0.163326       2.972014
       7.390000      -0.130122      -0.165117       2.957517
       7.400000      -0.123619      -0.165808       2.942120
       7.410000      -0.115302      -0.166018       2.925911
       7.420000      -0.105616      -0.166443       2.909092
       7.430000      -0.095152      -0.167691       2.891932
       7.440000      -0.084528      -0.170134       2.874717
       7.450000      -0.074278      -0.173848       2.857693
       7.460000      -0.064777      -0.178675       2.841041
       7.470000      -0.056198      -0.184366       2.824893
       7.480000      -0.048504      -0.190729       2.809353
       7.490000      -0.041460      -0.197706       2.794545
       7.500000      -0.034662      -0.205334       2.780634
       7.510000      -0.027575      -0.213621       2.767846
       7.520000      -0.019617      -0.222421       2.756461
       7.530000      -0.010257      -0.231394       2.746803
       7.540000       0.000878      -0.240084       2.739214
       7.550000       0.013929      -0.248049       2.734026
       7.560000       0.028804      -0.254967       2.731519
       7.570000       0.045223      -0.260638       2.731888
       7.580000       0.062814      -0.264910       2.735225
       7.590000       0.081198      -0.267632       2.741541
       7.600000       0.100054      -0.268673       2.750802
       7.610000       0.119146      -0.268009       2.762973
       7.620000       0.138311      -0.265794       2.778041
       7.630000       0.157428      -0.262348       2.796002
       7.640000       0.176382      -0.258065       2.816837
       7.650000       0.195031      -0.253302       2.840467
       7.660000       0.213191      -0.248318       2.866744
       7.670000       0.230650      -0.243280       2.895447
       7.680000       0.247188      -0.238306       2.926301
       7.690000       0.262603      -0.233488       2.958996
       7.700000       0.276748      -0.228874       2.993181
       7.710000       0.289543      -0.224423       3.028466
       7.720000       0.301003      -0.219962       3.064399
       7.730000       0.311244      -0.215190       3.100475
       7.740000       0.320477      -0.209731       3.136138
       7.750000       0.328984      -0.203205       3.170802
       7.760000       0.337077      -0.195291       3.203867
       7.770000       0.345045      -0.185753       3.234733
       7.780000       0.353109      -0.174440       3.262807
       7.790000       0.361405      -0.161267       3.287517
       7.800000       0.369997      -0.146207       3.308338
       7.810000       0.378910      -0.129301       3.324829
       7.820000       0.388166      -0.110688       3.336681
       7.830000       0.397798      -0.090640       3.343782
       7.840000       0.407826      -0.069604       3.346267
       7.850000       0.418205      -0.048211       3.344540
       7.860000       0.428771      -0.027236       3.339239
       7.870000       0.439194      -0.007516       3.331147
       7.880000       0.448972       0.010189       3.321065
       7.890000       0.457468       0.025342       3.309706
       7.900000       0.463974       0.037737       3.297650
       7.910000       0.467808       0.047549       3.285360
       7.920000       0.468434       0.055297       3.273239
       7.930000       0.465590       0.061745       3.261661
       7.940000       0.459409       0.067772       3.250962
       7.950000       0.450484       0.074252       3.241383
       7.960000       0.439839       0.081967       3.232990
       7.970000       0.428783       0.091540       3.225636
       7.980000       0.418686       0.103381       3.218982
       7.990000       0.410742       0.117642       3.212577
       8.000000       0.405793       0.134207       3.205991
       8.010000       0.404257       0.152723       3.198935
       8.020000       0.406166       0.172690       3.191358
       8.030000       0.411266       0.193583       3.183473
       8.040000       0.419141       0.214981       3.175725
       8.050000       0.429321       0.236670       3.168706
       8.060000       0.441370       0.258713       3.163041
       8.070000       0.454943       0.281450       3.159276
       8.080000       0.469811       0.305435       3.157786
       8.090000       0.485847       0.331297       3.158723
       8.100000       0.502984       0.359580       3.162035
       8.110000       0.521153       0.390596       3.167550
       8.120000       0.540234       0.424351       3.175098
       8.130000       0.560035       0.460546       3.184649
       8.140000       0.580305       0.498637       3.196386
       8.150000       0.600770       0.537925       3.210704
       8.160000       0.621163       0.577629       3.228117
       8.170000       0.641240       0.616943       3.249120
       8.180000       0.660777       0.655060       3.274035
       8.190000       0.679557       0.691184       3.302918
       8.200000       0.697362       0.724531       3.335552
       8.210000       0.713988       0.754366       3.371504
       8.220000       0.729288       0.780051       3.410234
       8.230000       0.743227       0.801138       3.451217
       8.240000       0.755919       0.817440       3.494023
       8.250000       0.767633       0.829055       3.538374
       8.260000       0.778755       0.836306       3.584134
       8.270000       0.789713       0.839594       3.631257
       8.280000       0.800891       0.839214       3.679691
       8.290000       0.812565       0.835227       3.729255
       8.300000       0.824867       0.827445       3.779551
       8.310000       0.837784       0.815578       3.829922
       8.320000       0.851191       0.799472       3.879484
       8.330000       0.864907       0.779337       3.927192
       8.340000       0.878760       0.755861       3.971897
       8.350000       0.892658       0.730138       4.012371
       8.360000       0.906621       0.703455       4.047278
       8.370000       0.920792       0.677032       4.075145
       8.380000       0.935389       0.651838       4.094333
       8.390000       0.950633       0.628531       4.103056
       8.400000       0.966665       0.607517       4.099433
       8.410000       0.983493       0.589058       4.081601
       8.420000       1.000974       0.573359       4.047856
       8.430000       1.018858       0.560580       3.996812
       8.440000       1.036856       0.550804       3.927573
       8.450000       1.054727       0.543969       3.839873
       8.460000       1.072338       0.539834       3.734177
       8.470000       1.089679       0.537981       3.611737
       8.480000       1.106844       0.537854       3.474560
       8.490000       1.123991       0.538813       3.325314
       8.500000       1.141290       0.540223       3.167172
       8.510000       1.158886       0.541539       3.003586
       8.520000       1.176826       0.542370       2.838045
       8.530000       1.194983       0.542488       2.673825
       8.540000       1.212977       0.541764       2.513808
       8.550000       1.230142       0.540075       2.360382
       8.560000       1.245562       0.537244       2.215467
       8.570000       1.258194       0.533054       2.080583
       8.580000       1.267043       0.527324       1.956916
       8.590000       1.271377       0.519992       1.845319
       8.600000       1.270899       0.511154       1.746246
       8.610000       1.265844       0.501054       1.659661
       8.620000       1.256938       0.490065       1.585019
       8.630000       1.245219       0.478678       1.521340
       8.640000       1.231773       0.467490       1.467385
       8.650000       1.217471       0.457180       1.421847
       8.660000       1.202787       0.448454       1.383477
       8.670000       1.187745       0.441984       1.351117
       8.680000       1.171973       0.438364       1.323653
       8.690000       1.154849       0.438105       1.299995
       8.700000       1.135681       0.441632       1.279114
       8.710000       1.113867       0.449309       1.260167
       8.720000       1.089009       0.461437       1.242638
       8.730000       1.060955       0.478233       1.226433
       8.740000       1.029797       0.499757       1.211854
       8.750000       0.995832       0.525808       1.199437
       8.760000       0.959533       0.555836       1.189707
       8.770000       0.921515       0.588907       1.182955
       8.780000       0.882511       0.623746       1.179109
       8.790000       0.843340       0.658850       1.177723
       8.800000       0.804869       0.692655       1.178042
       8.810000       0.767977       0.723718       1.179112
       8.820000       0.733525       0.750895       1.179925
       8.830000       0.702313       0.773492       1.179598
       8.840000       0.675015       0.791331       1.177555
       8.850000       0.652076       0.804721       1.173670
       8.860000       0.633612       0.814321       1.168305
       8.870000       0.619360       0.820912       1.162240
       8.880000       0.608723       0.825144       1.156496
       8.890000       0.600925       0.827294       1.152114
       8.900000       0.595193       0.827110       1.149917
       8.910000       0.590926       0.823768       1.150305
       8.920000       0.587767       0.815962       1.153148
       8.930000       0.585592       0.802117       1.157795
       8.940000       0.584425       0.780695       1.163218
       8.950000       0.584334       0.750549       1.168273
       8.960000       0.585348       0.711243       1.172012
       8.970000       0.587386       0.663247       1.173953
       8.980000       0.590227       0.607936       1.174226
       8.990000       0.593510       0.547357       1.173530
       9.000000       0.596773       0.483838       1.172918
       9.010000       0.599531       0.419580       1.173505
       9.020000       0.601338       0.356372       1.176210
       9.030000       0.601848       0.295501       1.181648
       9.040000       0.600839       0.237847       1.190151
       9.050000       0.598250       0.184053       1.201895
       9.060000       0.594245       0.134662       1.217018
       9.070000       0.589293       0.090150       1.235690
       9.080000       0.584214       0.050866       1.258097
       9.090000       0.580127       0.016968       1.284383
       9.100000       0.578266      -0.011584       1.314579
       9.110000       0.579725      -0.034958       1.348579
       9.120000       0.585234      -0.053347       1.386150
       9.130000       0.595050      -0.066882       1.426959
       9.140000       0.608974      -0.075625       1.470598
       9.150000       0.626457      -0.079634       1.516561
       9.160000       0.646729      -0.079068       1.564198
       9.170000       0.668908      -0.074278       1.612661
       9.180000       0.692075      -0.065823       1.660878
       9.190000       0.715315      -0.054430       1.707579
       9.200000       0.737760      -0.040891       1.751382
       9.210000       0.758620      -0.025945       1.790921
       9.220000       0.777230      -0.010189       1.824995
       9.230000       0.793121       0.005962       1.852703
       9.240000       0.806075       0.022253       1.873539
       9.250000       0.816170       0.038497       1.887416
       9.260000       0.823783       0.054468       1.894628
       9.270000       0.829551       0.069820       1.895753
       9.280000       0.834276       0.084083       1.891542
       9.290000       0.838792       0.096747       1.882798
       9.300000       0.843815       0.107392       1.870286
       9.310000       0.849818       0.115811       1.854667
       9.320000       0.856979       0.122052       1.836464
       9.330000       0.865223       0.126383       1.816025
       9.340000       0.874338       0.129186       1.793518
       9.350000       0.884100       0.130825       1.768932
       9.360000       0.894343       0.131522       1.742115
       9.370000       0.904956       0.131279       1.712834
       9.380000       0.915826       0.129849       1.680844
       9.390000       0.926787       0.126774       1.645963
       9.400000       0.937618       0.121471       1.608143
       9.410000       0.948084       0.113339       1.567537
       9.420000       0.958035       0.101873       1.524528
       9.430000       0.967500       0.086746       1.479715
       9.440000       0.976770       0.067901       1.433855
       9.450000       0.986410       0.045632       1.387768
       9.460000       0.997196       0.020659       1.342244
       9.470000       1.009987      -0.005862       1.297972
       9.480000       1.025555      -0.032460       1.255464
       9.490000       1.044432      -0.057583       1.214983
       9.500000       1.066817      -0.079905       1.176482
       9.510000       1.092554      -0.098580       1.139567
       9.520000       1.121193      -0.113343       1.103546
       9.530000       1.152085      -0.124448       1.067577
       9.540000       1.184495      -0.132497       1.030879
       9.550000       1.217690      -0.138235       0.992959
       9.560000       1.250987      -0.142392       0.953750
       9.570000       1.283749      -0.145599       0.913614
       9.580000       1.315349      -0.148354       0.873197
       9.590000       1.345131      -0.151032       0.833198
       9.600000       1.372394      -0.153914       0.794168
       9.610000       1.396407      -0.157207       0.756404
       9.620000       1.416448      -0.161038       0.719976
       9.630000       1.431831      -0.165402       0.684851
       9.640000       1.441914      -0.170103       0.651058
       9.650000       1.446081      -0.174704       0.618790
       9.660000       1.443769      -0.178560       0.588422
       9.670000       1.434549      -0.180915       0.560408
       9.680000       1.418265      -0.181032       0.535127
       9.690000       1.395154      -0.178316       0.512733
       9.700000       1.365860      -0.172386       0.493092
       9.710000       1.331281      -0.163104       0.475806
       9.720000       1.292289      -0.150563       0.460331
       9.730000       1.249423      -0.135066       0.446136
       9.740000       1.202691      -0.117089       0.432865
       9.750000       1.151560      -0.097240       0.420422
       9.760000       1.095168      -0.076221       0.408952
       9.770000       1.032665      -0.054771       0.398722
       9.780000       0.963597      -0.033602       0.389958
       9.790000       0.888188      -0.013338       0.382731
       9.800000       0.807464       0.005537       0.376922
       9.810000       0.723177       0.022681       0.372280
       9.820000       0.637583       0.037871       0.368505
       9.830000       0.553151       0.050948       0.365311
       9.840000       0.472295       0.061779       0.362438
       9.850000       0.397187       0.070248       0.359637
       9.860000       0.329642       0.076273       0.356666
       9.870000       0.271044       0.079846       0.353329
       9.880000       0.222296       0.081048       0.349551
       9.890000       0.183766       0.080057       0.345440
       9.900000       0.155274       0.077118       0.341293
       9.910000       0.136124       0.072482       0.337533
       9.920000       0.125194       0.066332       0.334596
       9.930000       0.121060       0.058706       0.332816
       9.940000       0.122148       0.049445       0.332348
       9.950000       0.126875       0.038194       0.333138
       9.960000       0.133786       0.024474       0.334964
       9.970000       0.141660       0.007817       0.337507
       9.980000       0.149587      -0.012090       0.340468
       9.990000       0.156984      -0.035279       0.343662
      10.000000       0.163547      -0.061474       0.347088
      10.010000       0.169154      -0.090139       0.350926
      10.020000       0.173770      -0.120592       0.355488
      10.030000       0.177374      -0.152134       0.361127
      10.040000       0.179948      -0.184142       0.368156
      10.050000       0.181481      -0.216095       0.376779
      10.060000       0.181965      -0.247509       0.387069
      10.070000       0.181332      -0.277816       0.398963
      10.080000       0.179365      -0.306279       0.412294
      10.090000       0.175608      -0.331999       0.426822
      10.100000       0.169353      -0.354064       0.442272
      10.110000       0.159751      -0.371768       0.458370
      10.120000       0.146029      -0.384811       0.474873
      10.130000       0.127755      -0.393368       0.491597
      10.140000       0.105045      -0.398021       0.508440
      10.150000       0.078613      -0.399582       0.525392
      10.160000       0.049657      -0.398893       0.542540
      10.170000       0.019620      -0.396673       0.560061
      10.180000      -0.010078      -0.393455       0.578196
      10.190000      -0.038236      -0.389588       0.597208
      10.200000      -0.063984      -0.385294       0.617324
      10.210000      -0.086802      -0.380719       0.638677
      10.220000      -0.106472      -0.375971       0.661283
      10.230000      -0.122997      -0.371119       0.685031
      10.240000      -0.136515      -0.366168       0.709701
      10.250000      -0.147233      -0.361042       0.734988
      10.260000      -0.155411      -0.355587       0.760529
      10.270000      -0.161348      -0.349607       0.785924
      10.280000      -0.165377      -0.342917       0.810747
      10.290000      -0.167820      -0.335377       0.834555
      10.300000      -0.168933      -0.326915       0.856874
      10.310000      -0.168859      -0.317522       0.877173
      10.320000      -0.167610      -0.307240       0.894820
      10.330000      -0.165104      -0.296139       0.909043
      10.340000      -0.161210      -0.284306       0.918918
      10.350000      -0.155796      -0.271817       0.923385
      10.360000      -0.148739      -0.258741       0.921300
      10.370000      -0.139927      -0.245139       0.911484
      10.380000      -0.129254      -0.231088       0.892778
      10.390000      -0.116645      -0.216682       0.864091
      10.400000      -0.102088      -0.202033       0.824452
      10.410000      -0.085666      -0.187260       0.773050
      10.420000      -0.067569      -0.172482       0.709264
      10.430000      -0.048085      -0.157826       0.632699
      10.440000      -0.027582      -0.143445       0.543260
      10.450000      -0.006507      -0.129522       0.441279
      10.460000       0.014619      -0.116271       0.327661
      10.470000       0.035209      -0.103908       0.204024
      10.480000       0.054626      -0.092625       0.072748
      10.490000       0.072231      -0.082577      -0.063075
      10.500000       0.087436      -0.073873      -0.199809
      10.510000       0.099774      -0.066594      -0.333554
      10.520000       0.108942      -0.060810      -0.460495
      10.530000       0.114805      -0.056577      -0.577267
      10.540000       0.117337      -0.053915      -0.681259
      10.550000       0.116525      -0.052773      -0.770796
      10.560000       0.112266      -0.053000      -0.845178
      10.570000       0.104326      -0.054339      -0.904578
      10.580000       0.092379      -0.056449      -0.949855
      10.590000       0.076139      -0.058946      -0.982311
      10.600000       0.055535      -0.061436      -1.003452
      10.610000       0.030858      -0.063559      -1.014783
      10.620000       0.002836      -0.065018      -1.017676
      10.630000      -0.027408      -0.065619      -1.013313
      10.640000      -0.058497      -0.065305      -1.002703
      10.650000      -0.088994      -0.064199      -0.986741
      10.660000      -0.117593      -0.062615      -0.966290
      10.670000      -0.143251      -0.061043      -0.942240
      10.680000      -0.165260      -0.060077      -0.915543
      10.690000      -0.183251      -0.060320      -0.887187
      10.700000      -0.197157      -0.062253      -0.858137
      10.710000      -0.207155      -0.066126      -0.829250
      10.720000      -0.213595      -0.071880      -0.801190
      10.730000      -0.216956      -0.079146      -0.774373
      10.740000      -0.217802      -0.087305      -0.748968
      10.750000      -0.216757      -0.095606      -0.724944
      10.760000      -0.214454      -0.103286      -0.702158
      10.770000      -0.211465      -0.109663      -0.680449
      10.780000      -0.208218      -0.114199      -0.659698
      10.790000      -0.204936      -0.116529      -0.639837
      10.800000      -0.201619      -0.116488      -0.620819
      10.810000      -0.198079      -0.114099      -0.602575
      10.820000      -0.194001      -0.109550      -0.584990
      10.830000      -0.189022      -0.103129      -0.567931
      10.840000      -0.182798      -0.095157      -0.551299
      10.850000      -0.175058      -0.085932      -0.535108
      10.860000      -0.165644      -0.075708      -0.519532
      10.870000      -0.154522      -0.064687      -0.504925
      10.880000      -0.141771      -0.053035      -0.491791
      10.890000      -0.127552      -0.040885      -0.480712
      10.900000      -0.112070      -0.028331      -0.472240
      10.910000      -0.095557      -0.015425      -0.466767
      10.920000      -0.078257      -0.002193      -0.464396
      10.930000      -0.060433       0.011332      -0.464864
      10.940000      -0.042369       0.025071      -0.467548
      10.950000      -0.024373       0.038872      -0.471570
      10.960000      -0.006767       0.052508      -0.475997
      10.970000       0.010111       0.065697      -0.480063
      10.980000       0.025933       0.078137      -0.483355
      10.990000       0.040397       0.089530      -0.485895
      11.000000       0.053255       0.099611      -0.488109
      11.010000       0.064348       0.108153      -0.490704
      11.020000       0.073634       0.114982      -0.494510
      11.030000       0.081219       0.119976      -0.500312
      11.040000       0.087367       0.123082      -0.508686
      11.050000       0.092470       0.124315      -0.519861
      11.060000       0.096973       0.123784      -0.533634
      11.070000       0.101262       0.121694      -0.549349
      11.080000       0.105566       0.118351      -0.565990
      11.090000       0.109909       0.114132      -0.582356
      11.100000       0.114102       0.109438      -0.597275
      11.110000       0.117779       0.104647      -0.609817
      11.120000       0.120449       0.100067      -0.619426
      11.130000       0.121555       0.095909      -0.625956
      11.140000       0.120534       0.092277      -0.629614
      11.150000       0.116866       0.089162      -0.630837
      11.160000       0.110122       0.086455      -0.630140
      11.170000       0.099998       0.083969      -0.627985
      11.180000       0.086366       0.081482      -0.624702
      11.190000       0.069313       0.078787      -0.620457
      11.200000       0.049175       0.075728      -0.615290
      11.210000       0.026530       0.072224      -0.609159
      11.220000       0.002129       0.068272      -0.601994
      11.230000      -0.023210       0.063935      -0.593720
      11.240000      -0.048739       0.059332      -0.584263
      11.250000      -0.073890       0.054623      -0.573537
      11.260000      -0.098338       0.049989      -0.561457
      11.270000      -0.122005       0.045608      -0.547959
      11.280000      -0.145007       0.041642      -0.533053
      11.290000      -0.167562       0.038229      -0.516864
      11.300000      -0.189865       0.035490      -0.499659
      11.310000      -0.211983       0.033546      -0.481833
      11.320000      -0.233778       0.032522      -0.463870
      11.330000      -0.254889       0.032540      -0.446279
      11.340000      -0.274742       0.033704      -0.429549
      11.350000      -0.292622       0.036082      -0.414099
      11.360000      -0.307755       0.039688      -0.400244
      11.370000      -0.319419       0.044481      -0.388157
      11.380000      -0.327049       0.050357      -0.377836
      11.390000      -0.330314       0.057152      -0.369080
      11.400000      -0.329157       0.064649      -0.361505
      11.410000      -0.323795       0.072588      -0.354603
      11.420000      -0.314672       0.080696      -0.347837
      11.430000      -0.302382       0.088710      -0.340749
      11.440000      -0.287584       0.096428      -0.333047
      11.450000      -0.270914       0.103749      -0.324644
      11.460000      -0.252930       0.110707      -0.315641
      11.470000      -0.234081       0.117475      -0.306266
      11.480000      -0.214704       0.124328      -0.296802
      11.490000      -0.195046       0.131573      -0.287529
      11.500000      -0.175298       0.139470      -0.278693
      11.510000      -0.155625       0.148172      -0.270510
      11.520000      -0.136208       0.157698      -0.263167
      11.530000      -0.117259       0.167933      -0.256827
      11.540000      -0.099024       0.178664      -0.251600
      11.550000      -0.081763       0.189613      -0.247521
      11.560000      -0.065718       0.200482      -0.244525
      11.570000      -0.051078       0.210978      -0.242434
      11.580000      -0.037947       0.220832      -0.240968
      11.590000      -0.026339       0.229799      -0.239754
      11.600000      -0.016186       0.237638      -0.238355
      11.610000      -0.007357       0.244113      -0.236313
      11.620000       0.000313       0.248995      -0.233204
      11.630000       0.007006       0.252099      -0.228703
      11.640000       0.012910       0.253334      -0.222629
      11.650000       0.018213       0.252768      -0.214968
      11.660000       0.023119       0.250659      -0.205862
      11.670000       0.027847       0.247445      -0.195568
      11.680000       0.032634       0.243684      -0.184413
      11.690000       0.037715       0.239949      -0.172742
      11.700000       0.043292       0.236731      -0.160887
      11.710000       0.049486       0.234371      -0.149141
      11.720000       0.056303       0.233040      -0.137751
      11.730000       0.063619       0.232760      -0.126911
      11.740000       0.071194       0.233452      -0.116743
      11.750000       0.078707       0.234986      -0.107288
      11.760000       0.085804       0.237218      -0.098492
      11.770000       0.092124       0.240020      -0.090223
      11.780000       0.097309       0.243282      -0.082307
      11.790000       0.100999       0.246917      -0.074586
      11.800000       0.102810       0.250851      -0.066963
      11.810000       0.102333       0.255017      -0.059437
      11.820000       0.099156       0.259356      -0.052096
      11.830000       0.092932       0.263820      -0.045097
      11.840000       0.083463       0.268364      -0.038621
      11.850000       0.070787       0.272940      -0.032833
      11.860000       0.055241       0.277487      -0.027846
      11.870000       0.037462       0.281933      -0.023704
      11.880000       0.018356       0.286205      -0.020394
      11.890000      -0.000977       0.290251      -0.017865
      11.900000      -0.019341       0.294052      -0.016055
      11.910000      -0.035575       0.297621      -0.014908
      11.920000      -0.048692       0.300979      -0.014368
      11.930000      -0.058005       0.304131      -0.014362
      11.940000      -0.063209       0.307049      -0.014794
      11.950000      -0.064385       0.309675      -0.015545
      11.960000      -0.061935       0.311946      -0.016479
      11.970000      -0.056476       0.313832      -0.017452
      11.980000      -0.048729       0.315373      -0.018310
      11.990000      -0.039425       0.316700      -0.018885
      12.000000      -0.029245       0.318022      -0.019011
      12.010000      -0.018804       0.319581      -0.018542
      12.020000      -0.008652       0.321573      -0.017405
      12.030000       0.000708       0.324086      -0.015621
      12.040000       0.008815       0.327062      -0.013331
      12.050000       0.015253       0.330305      -0.010772
      12.060000       0.019686       0.333518      -0.008237
      12.070000       0.021894       0.336370      -0.006016
      12.080000       0.021818       0.338551      -0.004326
      12.090000       0.019597       0.339822      -0.003261
      12.100000       0.015576       0.340038      -0.002766
      12.110000       0.010276       0.339147      -0.002653
      12.120000       0.004329       0.337180      -0.002642
      12.130000      -0.001626       0.334223      -0.002429
      12.140000      -0.007044       0.330393      -0.001729
      12.150000      -0.011553       0.325812      -0.000321
      12.160000      -0.014973       0.320594       0.001942
      12.170000      -0.017309       0.314850       0.005122
      12.180000      -0.018690       0.308697       0.009199
      12.190000      -0.019313       0.302258       0.014073
      12.200000      -0.019378       0.295664       0.019570
      12.210000      -0.019043       0.289038       0.025460
      12.220000      -0.018388       0.282486       0.031474
      12.230000      -0.017413       0.276088       0.037339
      12.240000      -0.016044       0.269904       0.042819
      12.250000      -0.014148       0.263988       0.047748
      12.260000      -0.011565       0.258399       0.052050
      12.270000      -0.008131       0.253215       0.055743
      12.280000      -0.003701       0.248533       0.058917
      12.290000       0.001836       0.244466       0.061709
      12.300000       0.008539       0.241127       0.064275
      12.310000       0.016407       0.238615       0.066763
      12.320000       0.025362       0.236999       0.069299
      12.330000       0.035249       0.236310       0.071984
      12.340000       0.045835       0.236538       0.074888
      12.350000       0.056835       0.237643       0.078063
      12.360000       0.067931       0.239561       0.081538
      12.370000       0.078803       0.242221       0.085320
      12.380000       0.089148       0.245540       0.089389
      12.390000       0.098697       0.249428       0.093697
      12.400000       0.107219       0.253770       0.098167
      12.410000       0.114530       0.258427       0.102700
      12.420000       0.120497       0.263223       0.107188
      12.430000       0.125045       0.267955       0.111520
      12.440000       0.128153       0.272412       0.115603
      12.450000       0.129841       0.276411       0.119377
      12.460000       0.130167       0.279838       0.122822
      12.470000       0.129211       0.282681       0.125967
      12.480000       0.127083       0.285033       0.128884
      12.490000       0.123928       0.287065       0.131675
      12.500000       0.119922       0.288980       0.134451
      12.510000       0.115253       0.290947       0.137313
      12.520000       0.110084       0.293055       0.140343
      12.530000       0.104530       0.295291       0.143595
      12.540000       0.098661       0.297564       0.147110
      12.550000       0.092552       0.299746       0.150916
      12.560000       0.086349       0.301735       0.155045
      12.570000       0.080321       0.303490       0.159522
      12.580000       0.074857       0.305048       0.164369
      12.590000       0.070401       0.306489       0.169593
      12.600000       0.067341       0.307892       0.175185
      12.610000       0.065913       0.309303       0.181114
      12.620000       0.066150       0.310716       0.187330
      12.630000       0.067899       0.312099       0.193768
      12.640000       0.070879       0.313410       0.200350
      12.650000       0.074756       0.314617       0.206996
      12.660000       0.079200       0.315700       0.213629
      12.670000       0.083928       0.316633       0.220187
      12.680000       0.088720       0.317383       0.226624
      12.690000       0.093428       0.317916       0.232923
      12.700000       0.097973       0.318210       0.239089
      12.710000       0.102336       0.318278       0.245146
      12.720000       0.106545       0.318186       0.251126
      12.730000       0.110657       0.318055       0.257049
      12.740000       0.114740       0.318057       0.262917
      12.750000       0.118864       0.318397       0.268702
      12.760000       0.123085       0.319281       0.274353
      12.770000       0.127444       0.320879       0.279800
      12.780000       0.131963       0.323273       0.284975
      12.790000       0.136643       0.326415       0.289820
      12.800000       0.141471       0.330109       0.294298
      12.810000       0.146432       0.334014       0.298403
      12.820000       0.151521       0.337698       0.302159
      12.830000       0.156756       0.340700       0.305620
      12.840000       0.162173       0.342622       0.308851
      12.850000       0.167810       0.343195       0.311918
      12.860000       0.173679       0.342324       0.314877
      12.870000       0.179739       0.340095       0.317766
      12.880000       0.185879       0.336724       0.320617
      12.890000       0.191924       0.332496       0.323457
      12.900000       0.197660       0.327687       0.326330
      12.910000       0.202872       0.322515       0.329291
      12.920000       0.207396       0.317130       0.332414
      12.930000       0.211153       0.311636       0.335777
      12.940000       0.214174       0.306130       0.339455
      12.950000       0.216594       0.300731       0.343501
      12.960000       0.218623       0.295593       0.347945
      12.970000       0.220500       0.290898       0.352786
      12.980000       0.222445       0.286833       0.357997
      12.990000       0.224628       0.283549       0.363536
      13.000000       0.227157       0.281139       0.369350
      13.010000       0.230077       0.279606       0.375383
      13.020000       0.233385       0.278864       0.381576
      13.030000       0.237027       0.278751       0.387872
      13.040000       0.240904       0.279058       0.394213
      13.050000       0.244860       0.279580       0.400539
      13.060000       0.248680       0.280157       0.406784
      13.070000       0.252102       0.280717       0.412884
      13.080000       0.254827       0.281286       0.418775
      13.090000       0.256545       0.281975       0.424407
      13.100000       0.256962       0.282940       0.429740
      13.110000       0.255844       0.284323       0.434752
      13.120000       0.253055       0.286200       0.439428
      13.130000       0.248585       0.288556       0.443756
      13.140000       0.242551       0.291281       0.447732
      13.150000       0.235168       0.294201       0.451364
      13.160000       0.226696       0.297110       0.454684
      13.170000       0.217411       0.299814       0.457754
      13.180000       0.207586       0.302152       0.460666
      13.190000       0.197508       0.304010       0.463538
      13.200000       0.187481       0.305322       0.466500
      13.210000       0.177827       0.306050       0.469676
      13.220000       0.168862       0.306166       0.473177
      13.230000       0.160872       0.305622       0.477088
      13.240000       0.154090       0.304347       0.481459
      13.250000       0.148682       0.302258       0.486307
      13.260000       0.144728       0.299302       0.491610
      13.270000       0.142221       0.295496       0.497312
      13.280000       0.141065       0.290964       0.503322
      13.290000       0.141100       0.285939       0.509521
      13.300000       0.142137       0.280729       0.515777
      13.310000       0.143994       0.275660       0.521953
      13.320000       0.146530       0.271021       0.527923
      13.330000       0.149648       0.267014       0.533585
      13.340000       0.153280       0.263732       0.538874
      13.350000       0.157365       0.261173       0.543772
      13.360000       0.161820       0.259263       0.548307
      13.370000       0.166527       0.257899       0.552548
      13.380000       0.171341       0.256987       0.556588
      13.390000       0.176096       0.256464       0.560518
      13.400000       0.180635       0.256303       0.564415
      13.410000       0.184836       0.256506       0.568328
      13.420000       0.188633       0.257082       0.572278
      13.430000       0.192027       0.258026       0.576265
      13.440000       0.195079       0.259306       0.580269
      13.450000       0.197894       0.260854       0.584255
      13.460000       0.200597       0.262569       0.588171
      13.470000       0.203312       0.264330       0.591951
      13.480000       0.206153       0.266012       0.595521
      13.490000       0.209213       0.267498       0.598813
      13.500000       0.212569       0.268677       0.601772
      13.510000       0.216274       0.269448       0.604367
      13.520000       0.220359       0.269701       0.606596
      13.530000       0.224820       0.269322       0.608483
      13.540000       0.229621       0.268192       0.610066
      13.550000       0.234687       0.266193       0.611389
      13.560000       0.239918       0.263220       0.612485
      13.570000       0.245195       0.259200       0.613374
      13.580000       0.250400       0.254119       0.614063
      13.590000       0.255430       0.248054       0.614556
      13.600000       0.260203       0.241211       0.614855
      13.610000       0.264660       0.233937       0.614975
      13.620000       0.268767       0.226696       0.614953
      13.630000       0.272516       0.220011       0.614847
      13.640000       0.275921       0.214380       0.614740
      13.650000       0.279012       0.210191       0.614719
      13.660000       0.281828       0.207666       0.614861
      13.670000       0.284398       0.206844       0.615203
      13.680000       0.286739       0.207612       0.615726
      13.690000       0.288851       0.209755       0.616354
      13.700000       0.290730       0.213017       0.616958
      13.710000       0.292386       0.217147       0.617376
      13.720000       0.293858       0.221928       0.617431
      13.730000       0.295224       0.227187       0.616951
      13.740000       0.296587       0.232785       0.615783
      13.750000       0.298046       0.238611       0.613808
      13.760000       0.299660       0.244567       0.610944
      13.770000       0.301426       0.250563       0.607154
      13.780000       0.303271       0.256520       0.602442
      13.790000       0.305070       0.262362       0.596850
      13.800000       0.306679       0.268010       0.590452
      13.810000       0.307972       0.273369       0.583352
      13.820000       0.308876       0.278318       0.575679
      13.830000       0.309379       0.282702       0.567577
      13.840000       0.309528       0.286333       0.559201
      13.850000       0.309400       0.289017       0.550701
      13.860000       0.309081       0.290571       0.542216
      13.870000       0.308652       0.290855       0.533869
      13.880000       0.308185       0.289788       0.525760
      13.890000       0.307749       0.287353       0.517981
      13.900000       0.307411       0.283598       0.510615
      13.910000       0.307228       0.278639       0.503759
      13.920000       0.307246       0.272661       0.497530
      13.930000       0.307484       0.265930       0.492068
      13.940000       0.307937       0.258785       0.487530
      13.950000       0.308573       0.251618       0.484063
      13.960000       0.309339       0.244829       0.481780
      13.970000       0.310169       0.238773       0.480734
      13.980000       0.310994       0.233705       0.480912
      13.990000       0.311736       0.229762       0.482241
      14.000000       0.312298       0.226958       0.484610
      14.010000       0.312550       0.225214       0.487889
      14.020000       0.312314       0.224381       0.491954
      14.030000       0.311375       0.224268       0.496695
      14.040000       0.309512       0.224664       0.502020
      14.050000       0.306551       0.225358       0.507848
      14.060000       0.302417       0.226157       0.514100
      14.070000       0.297184       0.226910       0.520696
      14.080000       0.291076       0.227524       0.527548
      14.090000       0.284443       0.227974       0.534565
      14.100000       0.277691       0.228307       0.541661
      14.110000       0.271211       0.228625       0.548758
      14.120000       0.265327       0.229060       0.555790
      14.130000       0.260271       0.229744       0.562709
      14.140000       0.256183       0.230781       0.569490
      14.150000       0.253122       0.232233       0.576130
      14.160000       0.251083       0.234112       0.582644
      14.170000       0.250005       0.236391       0.589054
      14.180000       0.249779       0.239014       0.595375
      14.190000       0.250263       0.241904       0.601604
      14.200000       0.251294       0.244979       0.607715
      14.210000       0.252697       0.248151       0.613660
      14.220000       0.254307       0.251331       0.619384
      14.230000       0.255984       0.254440       0.624837
      14.240000       0.257631       0.257408       0.629984
      14.250000       0.259211       0.260187       0.634810
      14.260000       0.260750       0.262750       0.639321
      14.270000       0.262324       0.265098       0.643538
      14.280000       0.264029       0.267260       0.647487
      14.290000       0.265950       0.269281       0.651198
      14.300000       0.268138       0.271223       0.654702
      14.310000       0.270605       0.273142       0.658032
      14.320000       0.273338       0.275086       0.661231
      14.330000       0.276314       0.277084       0.664354
      14.340000       0.279512       0.279146       0.667471
      14.350000       0.282923       0.281272       0.670665
      14.360000       0.286546       0.283458       0.674022
      14.370000       0.290393       0.285703       0.677616
      14.380000       0.294490       0.288014       0.681493
      14.390000       0.298871       0.290401       0.685661
      14.400000       0.303569       0.292873       0.690086
      14.410000       0.308608       0.295435       0.694699
      14.420000       0.313987       0.298089       0.699398
      14.430000       0.319676       0.300829       0.704068
      14.440000       0.325611       0.303651       0.708585
      14.450000       0.331707       0.306547       0.712830
      14.460000       0.337861       0.309506       0.716706
      14.470000       0.343964       0.312518       0.720138
      14.480000       0.349911       0.315565       0.723092
      14.490000       0.355608       0.318635       0.725570
      14.500000       0.360985       0.321719       0.727620
      14.510000       0.366002       0.324828       0.729331
      14.520000       0.370651       0.327983       0.730826
      14.530000       0.374951       0.331215       0.732253
      14.540000       0.378931       0.334547       0.733771
      14.550000       0.382614       0.337987       0.735536
      14.560000       0.386002       0.341512       0.737685
      14.570000       0.389070       0.345075       0.740329
      14.580000       0.391772       0.348601       0.743535
      14.590000       0.394051       0.351996       0.747329
      14.600000       0.395844       0.355155       0.751685
      14.610000       0.397079       0.357967       0.756536
      14.620000       0.397678       0.360324       0.761783
      14.630000       0.397549       0.362137       0.767317
      14.640000       0.396603       0.363348       0.773034
      14.650000       0.394762       0.363949       0.778843
      14.660000       0.391986       0.363995       0.784672
      14.670000       0.388287       0.363604       0.790466
      14.680000       0.383725       0.362944       0.796174
      14.690000       0.378397       0.362206       0.801740
      14.700000       0.372416       0.361571       0.807089
      14.710000       0.365901       0.361187       0.812118
      14.720000       0.358981       0.361160       0.816708
      14.730000       0.351814       0.361552       0.820724
      14.740000       0.344608       0.362386       0.824042
      14.750000       0.337633       0.363654       0.826560
      14.760000       0.331208       0.365321       0.828214
      14.770000       0.325664       0.367329       0.828984
      14.780000       0.321291       0.369604       0.828891
      14.790000       0.318279       0.372067       0.827983
      14.800000       0.316690       0.374644       0.826317
      14.810000       0.316449       0.377274       0.823935
      14.820000       0.317386       0.379920       0.820853
      14.830000       0.319275       0.382564       0.817067
      14.840000       0.321887       0.385194       0.812570
      14.850000       0.325017       0.387796       0.807380
      14.860000       0.328500       0.390341       0.801554
      14.870000       0.332208       0.392777       0.795197
      14.880000       0.336033       0.395041       0.788451
      14.890000       0.339883       0.397061       0.781463
      14.900000       0.343669       0.398776       0.774360
      14.910000       0.347313       0.400147       0.767210
      14.920000       0.350750       0.401164       0.760007
      14.930000       0.353936       0.401841       0.752664
      14.940000       0.356847       0.402215       0.745032
      14.950000       0.359472       0.402335       0.736931
      14.960000       0.361807       0.402253       0.728198
      14.970000       0.363838       0.402026       0.718714
      14.980000       0.365537       0.401706       0.708431
      14.990000       0.366850       0.401348       0.697369
      15.000000       0.367705       0.401003       0.685606
      15.010000       0.368019       0.400718       0.673250
      15.020000       0.367719       0.400539       0.660421
      15.030000       0.366770       0.400507       0.647222
      15.040000       0.365198       0.400661       0.633735
      15.050000       0.363105       0.401031       0.620019
      15.060000       0.360672       0.401630       0.606131
      15.070000       0.358129       0.402448       0.592155
      15.080000       0.355729       0.403455       0.578215
      15.090000       0.353710       0.404604       0.564483
      15.100000       0.352274       0.405851       0.551153
      15.110000       0.351574       0.407163       0.538403
      15.120000       0.351702       0.408527       0.526367
      15.130000       0.352692       0.409955       0.515120
      15.140000       0.354512       0.411467       0.504692
      15.150000       0.357073       0.413084       0.495086
      15.160000       0.360244       0.414816       0.486300
      15.170000       0.363870       0.416658       0.478329
      15.180000       0.367786       0.418588       0.471164
      15.190000       0.371835       0.420572       0.464780
      15.200000       0.375869       0.422566       0.459132
      15.210000       0.379766       0.424525       0.454155
      15.220000       0.383431       0.426407       0.449773
      15.230000       0.386810       0.428181       0.445906
      15.240000       0.389895       0.429839       0.442475
      15.250000       0.392722       0.431393       0.439408
      15.260000       0.395361       0.432878       0.436627
      15.270000       0.397902       0.434340       0.434037
      15.280000       0.400437       0.435823       0.431514
      15.290000       0.403050       0.437364       0.428910
      15.300000       0.405805       0.438983       0.426062
      15.310000       0.408740       0.440689       0.422828
      15.320000       0.411848       0.442475       0.419112
      15.330000       0.415077       0.444327       0.414890
      15.340000       0.418318       0.446228       0.410224
      15.350000       0.421420       0.448159       0.405256
      15.360000       0.424205       0.450106       0.400191
      15.370000       0.426489       0.452059       0.395268
      15.380000       0.428104       0.454008       0.390720
      15.390000       0.428909       0.455946       0.386749
      15.400000       0.428793       0.457859       0.383509
      15.410000       0.427685       0.459725       0.381104
      15.420000       0.425543       0.461510       0.379589
      15.430000       0.422358       0.463175       0.378980
      15.440000       0.418146       0.464675       0.379255
      15.450000       0.412949       0.465970       0.380364
      15.460000       0.406838       0.467032       0.382237
      15.470000       0.399907       0.467847       0.384791
      15.480000       0.392271       0.468417       0.387934
      15.490000       0.384075       0.468756       0.391572
      15.500000       0.375507       0.468886       0.395613
      15.510000       0.366800       0.468835       0.399972
      15.520000       0.358235       0.468629       0.404576
      15.530000       0.350122       0.468288       0.409369
      15.540000       0.342766       0.467828       0.414312
      15.550000       0.336432       0.467264       0.419386
      15.560000       0.331314       0.466621       0.424587
      15.570000       0.327516       0.465938       0.429926
      15.580000       0.325049       0.465267       0.435420
      15.590000       0.323844       0.464667       0.441083
      15.600000       0.323770       0.464194       0.446914
      15.610000       0.324666       0.463897       0.452893
      15.620000       0.326363       0.463810       0.458974
      15.630000       0.328710       0.463960       0.465094
      15.640000       0.331575       0.464364       0.471178
      15.650000       0.334851       0.465026       0.477154
      15.660000       0.338438       0.465935       0.482968
      15.670000       0.342239       0.467063       0.488591
      15.680000       0.346158       0.468364       0.494022
      15.690000       0.350103       0.469785       0.499281
      15.700000       0.353998       0.471275       0.504403
      15.710000       0.357785       0.472789       0.509420
      15.720000       0.361426       0.474293       0.514355
      15.730000       0.364907       0.475769       0.519220
      15.740000       0.368236       0.477204       0.524019
      15.750000       0.371440       0.478597       0.528751
      15.760000       0.374562       0.479948       0.533414
      15.770000       0.377655       0.481261       0.538006
      15.780000       0.380775       0.482543       0.542518
      15.790000       0.383972       0.483796       0.546936
      15.800000       0.387288       0.485024       0.551238
      15.810000       0.390749       0.486223       0.555393
      15.820000       0.394363       0.487387       0.559365
      15.830000       0.398123       0.488505       0.563114
      15.840000       0.402010       0.489565       0.566601
      15.850000       0.405989       0.490554       0.569791
      15.860000       0.410016       0.491464       0.572662
      15.870000       0.414040       0.492283       0.575206
      15.880000       0.418004       0.493011       0.577435
      15.890000       0.421849       0.493649       0.579375
      15.900000       0.425523       0.494212       0.581067
      15.910000       0.428985       0.494717       0.582555
      15.920000       0.432212       0.495184       0.583888
      15.930000       0.435190       0.495622       0.585107
      15.940000       0.437911       0.496031       0.586249
      15.950000       0.440359       0.496399       0.587339
      15.960000       0.442497       0.496709       0.588392
      15.970000       0.444268       0.496952       0.589419
      15.980000       0.445602       0.497131       0.590432
      15.990000       0.446426       0.497262       0.591454
      16.000000       0.446682       0.497377       0.592519
      16.010000       0.446336       0.497508       0.593673
      16.020000       0.445385       0.497683       0.594968
      16.030000       0.443861       0.497920       0.596447
      16.040000       0.441828       0.498224       0.598137
      16.050000       0.439371       0.498588       0.600042
      16.060000       0.436590       0.499004       0.602143
      16.070000       0.433578       0.499469       0.604404
      16.080000       0.430413       0.499992       0.606778
      16.090000       0.427154       0.500597       0.609213
      16.100000       0.423842       0.501318       0.611660
      16.110000       0.420516       0.502187       0.614079
      16.120000       0.417225       0.503222       0.616440
      16.130000       0.414043       0.504409       0.618727
      16.140000       0.411070       0.505703       0.620934
      16.150000       0.408417       0.507021       0.623065
      16.160000       0.406182       0.508257       0.625126
      16.170000       0.404428       0.509295       0.627122
      16.180000       0.403164       0.510026       0.629052
      16.190000       0.402347       0.510365       0.630902
      16.200000       0.401892       0.510262       0.632651
      16.210000       0.401693       0.509711       0.634273
      16.220000       0.401638       0.508750       0.635747
      16.230000       0.401631       0.507457       0.637066
      16.240000       0.401596       0.505941       0.638239
      16.250000       0.401487       0.504333       0.639294
      16.260000       0.401278       0.502770       0.640269
      16.270000       0.400953       0.501383       0.641205
      16.280000       0.400494       0.500280       0.642142
      16.290000       0.399870       0.499542       0.643116
      16.300000       0.399035       0.499213       0.644164
      16.310000       0.397937       0.499300       0.645322
      16.320000       0.396533       0.499778       0.646631
      16.330000       0.394810       0.500595       0.648132
      16.340000       0.392797       0.501689       0.649858
      16.350000       0.390576       0.502992       0.651827
      16.360000       0.388283       0.504445       0.654040
      16.370000       0.386095       0.506001       0.656480
      16.380000       0.384209       0.507628       0.659109
      16.390000       0.382815       0.509307       0.661881
      16.400000       0.382060       0.511026       0.664745
      16.410000       0.382028       0.512769       0.667646
      16.420000       0.382730       0.514520       0.670539
      16.430000       0.384116       0.516254       0.673379
      16.440000       0.386095       0.517943       0.676132
      16.450000       0.388560       0.519561       0.678761
      16.460000       0.391409       0.521094       0.681234
      16.470000       0.394558       0.522545       0.683512
      16.480000       0.397945       0.523931       0.685553
      16.490000       0.401526       0.525281       0.687318
      16.500000       0.405271       0.526620       0.688771
      16.510000       0.409156       0.527958       0.689893
      16.520000       0.413159       0.529280       0.690685
      16.530000       0.417253       0.530547       0.691175
      16.540000       0.421410       0.531703       0.691412
      16.550000       0.425598       0.532682       0.691459
      16.560000       0.429787       0.533433       0.691384
      16.570000       0.433950       0.533926       0.691253
      16.580000       0.438065       0.534163       0.691123
      16.590000       0.442121       0.534182       0.691050
      16.600000       0.446114       0.534047       0.691087
      16.610000       0.450048       0.533843       0.691283
      16.620000       0.453927       0.533658       0.691684
      16.630000       0.457754       0.533568       0.692324
      16.640000       0.461519       0.533630       0.693215
      16.650000       0.465204       0.533873       0.694349
      16.660000       0.468773       0.534295       0.695693
      16.670000       0.472181       0.534867       0.697208
      16.680000       0.475381       0.535541       0.698848
      16.690000       0.478323       0.536255       0.700581
      16.700000       0.480970       0.536951       0.702384
      16.710000       0.483299       0.537574       0.704246
      16.720000       0.485308       0.538085       0.706161
      16.730000       0.487016       0.538461       0.708123
      16.740000       0.488461       0.538692       0.710121
      16.750000       0.489690       0.538779       0.712138
      16.760000       0.490750       0.538731       0.714159
      16.770000       0.491670       0.538564       0.716172
      16.780000       0.492462       0.538299       0.718170
      16.790000       0.493117       0.537967       0.720151
      16.800000       0.493615       0.537604       0.722121
      16.810000       0.493935       0.537252       0.724086
      16.820000       0.494069       0.536950       0.726059
      16.830000       0.494034       0.536733       0.728052
      16.840000       0.493874       0.536623       0.730078
      16.850000       0.493661       0.536627       0.732142
      16.860000       0.493480       0.536739       0.734244
      16.870000       0.493415       0.536943       0.736371
      16.880000       0.493523       0.537226       0.738501
      16.890000       0.493826       0.537579       0.740608
      16.900000       0.494306       0.538009       0.742665
      16.910000       0.494914       0.538535       0.744655
      16.920000       0.495589       0.539186       0.746571
      16.930000       0.496271       0.539993       0.748420
      16.940000       0.496907       0.540981       0.750215
      16.950000       0.497452       0.542166       0.751978
      16.960000       0.497868       0.543544       0.753727
      16.970000       0.498120       0.545100       0.755478
      16.980000       0.498174       0.546801       0.757246
      16.990000       0.498007       0.548604       0.759036
      17.000000       0.497607       0.550456       0.760853
      17.010000       0.496983       0.552298       0.762698
      17.020000       0.496165       0.554070       0.764572
      17.030000       0.495196       0.555714       0.766478
      17.040000       0.494126       0.557182       0.768420
      17.050000       0.493010       0.558438       0.770404
      17.060000       0.491895       0.559465       0.772436
      17.070000       0.490819       0.560263       0.774522
      17.080000       0.489806       0.560855       0.776662
      17.090000       0.488863       0.561282       0.778854
      17.100000       0.487976       0.561603       0.781092
      17.110000       0.487119       0.561885       0.783368
      17.120000       0.486255       0.562195       0.785673
      17.130000       0.485344       0.562584       0.788001
      17.140000       0.484340       0.563086       0.790346
      17.150000       0.483204       0.563707       0.792708
      17.160000       0.481902       0.564429       0.795091
      17.170000       0.480415       0.565217       0.797499
      17.180000       0.478752       0.566028       0.799942
      17.190000       0.476957       0.566818       0.802429
      17.200000       0.475113       0.567547       0.804971
      17.210000       0.473335       0.568188       0.807579
      17.220000       0.471757       0.568725       0.810265
      17.230000       0.470509       0.569150       0.813042
      17.240000       0.469701       0.569466       0.815924
      17.250000       0.469400       0.569680       0.818918
      17.260000       0.469633       0.569803       0.822025
      17.270000       0.470389       0.569849       0.825236
      17.280000       0.471632       0.569833       0.828534
      17.290000       0.473311       0.569773       0.831890
      17.300000       0.475371       0.569689       0.835273
      17.310000       0.477757       0.569599       0.838652
      17.320000       0.480415       0.569522       0.841999
      17.330000       0.483289       0.569471       0.845295
      17.340000       0.486324       0.569453       0.848533
      17.350000       0.489465       0.569465       0.851714
      17.360000       0.492655       0.569499       0.854849
      17.370000       0.495842       0.569535       0.857949
      17.380000       0.498976       0.569553       0.861022
      17.390000       0.502015       0.569530       0.864072
      17.400000       0.504926       0.569447       0.867099
      17.410000       0.507686       0.569290       0.870098
      17.420000       0.510275       0.569054       0.873059
      17.430000       0.512681       0.568744       0.875969
      17.440000       0.514890       0.568376       0.878810
      17.450000       0.516886       0.567976       0.881561
      17.460000       0.518655       0.567575       0.884198
      17.470000       0.520186       0.567209       0.886700
      17.480000       0.521472       0.566912       0.889053
      17.490000       0.522509       0.566714       0.891250
      17.500000       0.523295       0.566635       0.893302
      17.510000       0.523829       0.566686       0.895228
      17.520000       0.524110       0.566871       0.897063
      17.530000       0.524152       0.567188       0.898849
      17.540000       0.523986       0.567629       0.900627
      17.550000       0.523674       0.568186       0.902431
      17.560000       0.523304       0.568853       0.904280
      17.570000       0.522976       0.569620       0.906178
      17.580000       0.522788       0.570478       0.908118
      17.590000       0.522813       0.571416       0.910090
      17.600000       0.523089       0.572414       0.912087
      17.610000       0.523622       0.573448       0.914104
      17.620000       0.524392       0.574490       0.916135
      17.630000       0.525365       0.575514       0.918167
      17.640000       0.526505       0.576500       0.920184
      17.650000       0.527779       0.577440       0.922169
      17.660000       0.529165       0.578338       0.924116
      17.670000       0.530642       0.579204       0.926032
      17.680000       0.532197       0.580054       0.927942
      17.690000       0.533814       0.580902       0.929881
      17.700000       0.535477       0.581757       0.931887
      17.710000       0.537169       0.582624       0.933994
      17.720000       0.538868       0.583502       0.936226
      17.730000       0.540557       0.584385       0.938594
      17.740000       0.542220       0.585266       0.941098
      17.750000       0.543849       0.586138       0.943723
      17.760000       0.545447       0.586989       0.946440
      17.770000       0.547025       0.587806       0.949196
      17.780000       0.548593       0.588573       0.951918
      17.790000       0.550162       0.589276       0.954508
      17.800000       0.551735       0.589899       0.956851
      17.810000       0.553307       0.590432       0.958832
      17.820000       0.554871       0.590875       0.960351
      17.830000       0.556413       0.591237       0.961337
      17.840000       0.557912       0.591535       0.961761
      17.850000       0.559338       0.591795       0.961622
      17.860000       0.560644       0.592047       0.960934
      17.870000       0.561778       0.592318       0.959701
      17.880000       0.562677       0.592636       0.957911
      17.890000       0.563285       0.593018       0.955533
      17.900000       0.563558       0.593476       0.952541
      17.910000       0.563470       0.594007       0.948935
      17.920000       0.563026       0.594600       0.944762
      17.930000       0.562251       0.595235       0.940115
      17.940000       0.561194       0.595887       0.935118
      17.950000       0.559915       0.596533       0.929891
      17.960000       0.558480       0.597153       0.924529
      17.970000       0.556960       0.597737       0.919083
      17.980000       0.555426       0.598281       0.913570
      17.990000       0.553944       0.598790       0.907993
      18.000000       0.552561       0.599269       0.902368
      18.010000       0.551302       0.599728       0.896734
      18.020000       0.550160       0.600175       0.891155
      18.030000       0.549103       0.600619       0.885701
      18.040000       0.548088       0.601065       0.880424
      18.050000       0.547074       0.601521       0.875336
      18.060000       0.546038       0.601990       0.870410
      18.070000       0.544979       0.602473       0.865581
      18.080000       0.543917       0.602973       0.860768
      18.090000       0.542887       0.603487       0.855889
      18.100000       0.541933       0.604015       0.850887
      18.110000       0.541103       0.604557       0.845742
      18.120000       0.540437       0.605111       0.840469
      18.130000       0.539971       0.605674       0.835104
      18.140000       0.539732       0.606244       0.829682
      18.150000       0.539737       0.606813       0.824210
      18.160000       0.539998       0.607376       0.818672
      18.170000       0.540515       0.607925       0.813046
      18.180000       0.541280       0.608453       0.807334
      18.190000       0.542270       0.608957       0.801583
      18.200000       0.543446       0.609438       0.795887
      18.210000       0.544762       0.609905       0.790354
      18.220000       0.546166       0.610371       0.785073
      18.230000       0.547606       0.610854       0.780074
      18.240000       0.549040       0.611371       0.775314
      18.250000       0.550440       0.611936       0.770689
      18.260000       0.551797       0.612560       0.766071
      18.270000       0.553122       0.613249       0.761355
      18.280000       0.554439       0.614008       0.756511
      18.290000       0.555783       0.614841       0.751611
      18.300000       0.557184       0.615750       0.746837
      18.310000       0.558663       0.616736       0.742439
      18.320000       0.560227       0.617800       0.738686
      18.330000       0.561869       0.618938       0.735797
      18.340000       0.563576       0.620144       0.733896
      18.350000       0.565327       0.621403       0.732996
      18.360000       0.567103       0.622698       0.733013
      18.370000       0.568890       0.624007       0.733802
      18.380000       0.570679       0.625309       0.735198
      18.390000       0.572468       0.626587       0.737049
      18.400000       0.574258       0.627831       0.739230
      18.410000       0.576051       0.629034       0.741647
      18.420000       0.577849       0.630196       0.744229
      18.430000       0.579645       0.631316       0.746920
      18.440000       0.581428       0.632392       0.749677
      18.450000       0.583180       0.633423       0.752463
      18.460000       0.584878       0.634413       0.755236
      18.470000       0.586493       0.635363       0.757943
      18.480000       0.587992       0.636281       0.760517
      18.490000       0.589335       0.637174       0.762881
      18.500000       0.590484       0.638046       0.764956
      18.510000       0.591403       0.638900       0.766677
      18.520000       0.592063       0.639731       0.768002
      18.530000       0.592456       0.640526       0.768918
      18.540000       0.592592       0.641273       0.769425
      18.550000       0.592505       0.641953       0.769533
      18.560000       0.592243       0.642556       0.769249
      18.570000       0.591868       0.643079       0.768581
      18.580000       0.591442       0.643528       0.767542
      18.590000       0.591029       0.643920       0.766161
      18.600000       0.590681       0.644277       0.764494
      18.610000       0.590438       0.644621       0.762629
      18.620000       0.590321       0.644972       0.760681
      18.630000       0.590335       0.645340       0.758787
      18.640000       0.590472       0.645729       0.757080
      18.650000       0.590714       0.646133       0.755676
      18.660000       0.591037       0.646545       0.754652
      18.670000       0.591415       0.646951       0.754037
      18.680000       0.591822       0.647345       0.753810
      18.690000       0.592234       0.647723       0.753906
      18.700000       0.592627       0.648085       0.754232
      18.710000       0.592976       0.648438       0.754681
      18.720000       0.593259       0.648790       0.755152
      18.730000       0.593449       0.649148       0.755563
      18.740000       0.593520       0.649516       0.755859
      18.750000       0.593441       0.649893       0.756006
      18.760000       0.593188       0.650273       0.755983
      18.770000       0.592741       0.650648       0.755775
      18.780000       0.592092       0.651008       0.755363
      18.790000       0.591252       0.651343       0.754725
      18.800000       0.590253       0.651649       0.753844
      18.810000       0.589147       0.651923       0.752716
      18.820000       0.588001       0.652170       0.751359
      18.830000       0.586883       0.652396       0.749818
      18.840000       0.585857       0.652606       0.748159
      18.850000       0.584971       0.652805       0.746462
      18.860000       0.584254       0.652992       0.744802
      18.870000       0.583717       0.653160       0.743235
      18.880000       0.583354       0.653297       0.741783
      18.890000       0.583154       0.653389       0.740439
      18.900000       0.583102       0.653427       0.739177
      18.910000       0.583187       0.653404       0.737966
      18.920000       0.583400       0.653326       0.736799
      18.930000       0.583734       0.653204       0.735696
      18.940000       0.584180       0.653058       0.734719
      18.950000       0.584728       0.652909       0.733960
      18.960000       0.585364       0.652780       0.733521
      18.970000       0.586070       0.652690       0.733492
      18.980000       0.586832       0.652658       0.733921
      18.990000       0.587634       0.652699       0.734803
      19.000000       0.588467       0.652822       0.736075
      19.010000       0.589321       0.653031       0.737625
      19.020000       0.590191       0.653323       0.739306
      19.030000       0.591072       0.653684       0.740948
      19.040000       0.591954       0.654096       0.742377
      19.050000       0.592828       0.654531       0.743446
      19.060000       0.593680       0.654963       0.744060
      19.070000       0.594497       0.655368       0.744206
      19.080000       0.595266       0.655729       0.743961
      19.090000       0.595981       0.656038       0.743479
      19.100000       0.596645       0.656292       0.742966
      19.110000       0.597273       0.656496       0.742631
      19.120000       0.597886       0.656650       0.742648
      19.130000       0.598510       0.656754       0.743132
      19.140000       0.599168       0.656803       0.744125
      19.150000       0.599870       0.656790       0.745604
      19.160000       0.600615       0.656711       0.747489
      19.170000       0.601385       0.656563       0.749654
      19.180000       0.602150       0.656351       0.751946
      19.190000       0.602873       0.656085       0.754207
      19.200000       0.603521       0.655782       0.756296
      19.210000       0.604068       0.655460       0.758119
      19.220000       0.604500       0.655139       0.759645
      19.230000       0.604820       0.654836       0.760910
      19.240000       0.605035       0.654564       0.762002
      19.250000       0.605164       0.654337       0.763032
      19.260000       0.605220       0.654167       0.764097
      19.270000       0.605218       0.654065       0.765253
      19.280000       0.605170       0.654043       0.766500
      19.290000       0.605087       0.654106       0.767785
      19.300000       0.604988       0.654255       0.769014
      19.310000       0.604896       0.654482       0.770076
      19.320000       0.604841       0.654775       0.770856
      19.330000       0.604858       0.655120       0.771253
      19.340000       0.604978       0.655505       0.771184
      19.350000       0.605225       0.655916       0.770597
      19.360000       0.605606       0.656345       0.769474
      19.370000       0.606114       0.656785       0.767830
      19.380000       0.606725       0.657232       0.765722
      19.390000       0.607406       0.657686       0.763244
      19.400000       0.608123       0.658144       0.760514
      19.410000       0.608847       0.658608       0.757665
      19.420000       0.609562       0.659077       0.754823
      19.430000       0.610264       0.659553       0.752093
      19.440000       0.610961       0.660034       0.749552
      19.450000       0.611669       0.660524       0.747244
      19.460000       0.612406       0.661023       0.745196
      19.470000       0.613190       0.661535       0.743422
      19.480000       0.614032       0.662061       0.741942
      19.490000       0.614938       0.662601       0.740782
      19.500000       0.615906       0.663150       0.739979
      19.510000       0.616928       0.663701       0.739580
      19.520000       0.617989       0.664246       0.739629
      19.530000       0.619070       0.664778       0.740164
      19.540000       0.620152       0.665297       0.741199
      19.550000       0.621219       0.665807       0.742722
      19.560000       0.622259       0.666316       0.744685
      19.570000       0.623265       0.666836       0.747012
      19.580000       0.624238       0.667379       0.749606
      19.590000       0.625181       0.667958       0.752354
      19.600000       0.626097       0.668578       0.755145
      19.610000       0.626991       0.669242       0.757873
      19.620000       0.627862       0.669945       0.760445
      19.630000       0.628708       0.670679       0.762779
      19.640000       0.629523       0.671430       0.764807
      19.650000       0.630297       0.672186       0.766467
      19.660000       0.631022       0.672932       0.767699
      19.670000       0.631686       0.673658       0.768450
      19.680000       0.632280       0.674361       0.768680
      19.690000       0.632794       0.675038       0.768372
      19.700000       0.633226       0.675694       0.767550
      19.710000       0.633577       0.676339       0.766276
      19.720000       0.633854       0.676983       0.764646
      19.730000       0.634076       0.677642       0.762776
      19.740000       0.634265       0.678329       0.760773
      19.750000       0.634449       0.679054       0.758722
      19.760000       0.634655       0.679824       0.756674
      19.770000       0.634909       0.680639       0.754643
      19.780000       0.635231       0.681491       0.752622
      19.790000       0.635633       0.682371       0.750594
      19.800000       0.636123       0.683266       0.748548
      19.810000       0.636700       0.684162       0.746483
      19.820000       0.637359       0.685046       0.744409
      19.830000       0.638092       0.685907       0.742334
      19.840000       0.638884       0.686735       0.740266
      19.850000       0.639720       0.687520       0.738204
      19.860000       0.640581       0.688256       0.736153
      19.870000       0.641446       0.688938       0.734124
      19.880000       0.642292       0.689566       0.732146
      19.890000       0.643099       0.690140       0.730265
      19.900000       0.643845       0.690667       0.728540
      19.910000       0.644509       0.691155       0.727041
      19.920000       0.645072       0.691613       0.725849
      19.930000       0.645520       0.692049       0.725049
      19.940000       0.645843       0.692470       0.724719
      19.950000       0.646046       0.692879       0.724921
      19.960000       0.646140       0.693277       0.725689
      19.970000       0.646150       0.693664       0.727028
      19.980000       0.646106       0.694040       0.728909
      19.990000       0.646040       0.694402       0.731273
      20.000000       0.645981       0.694747       0.734026
