space:E: Abs(E)^2 vs x, y=0(m), z=0(m), lambda=5.63798e-07(m) 

x(nm), Abs(E)^2
-3000, 1.5324
-2983.52, 1.53909
-2967.04, 1.54561
-2950.56, 1.55174
-2934.08, 1.55732
-2917.6, 1.56246
-2901.12, 1.56673
-2884.64, 1.57063
-2868.17, 1.57364
-2851.69, 1.57599
-2835.21, 1.57728
-2818.73, 1.57761
-2802.25, 1.5771
-2785.77, 1.57559
-2769.29, 1.57377
-2752.81, 1.57072
-2736.33, 1.56741
-2719.85, 1.56298
-2703.37, 1.55849
-2686.89, 1.55273
-2670.41, 1.54715
-2653.93, 1.54102
-2637.45, 1.53397
-2620.97, 1.527
-2604.5, 1.51981
-2588.02, 1.51264
-2571.54, 1.50549
-2555.06, 1.49862
-2538.58, 1.49194
-2522.1, 1.48569
-2505.62, 1.47977
-2489.14, 1.47419
-2472.66, 1.46939
-2456.18, 1.46517
-2439.7, 1.46163
-2423.22, 1.45858
-2406.74, 1.45652
-2390.26, 1.45526
-2373.78, 1.45456
-2357.31, 1.45462
-2340.83, 1.45563
-2324.35, 1.45718
-2307.87, 1.45929
-2291.39, 1.46277
-2274.91, 1.46624
-2258.43, 1.47063
-2241.95, 1.47563
-2225.47, 1.48132
-2208.99, 1.48725
-2192.51, 1.49345
-2176.03, 1.50003
-2159.55, 1.50691
-2143.07, 1.514
-2126.59, 1.52109
-2110.11, 1.52815
-2093.64, 1.53506
-2077.16, 1.54171
-2060.68, 1.54815
-2044.2, 1.55396
-2027.72, 1.55913
-2011.24, 1.56386
-1994.76, 1.56788
-1978.28, 1.57166
-1961.8, 1.57454
-1945.32, 1.57634
-1928.84, 1.57742
-1912.36, 1.57752
-1895.88, 1.57687
-1879.4, 1.57537
-1862.92, 1.57311
-1846.45, 1.57007
-1829.97, 1.56633
-1813.49, 1.56228
-1797.01, 1.55781
-1780.53, 1.5525
-1764.05, 1.54662
-1747.57, 1.54048
-1731.09, 1.53403
-1714.61, 1.52746
-1698.13, 1.52087
-1681.65, 1.51427
-1665.17, 1.50777
-1648.69, 1.50142
-1632.21, 1.49533
-1615.73, 1.4895
-1599.25, 1.48439
-1582.78, 1.47961
-1566.3, 1.47531
-1549.82, 1.47155
-1533.34, 1.46844
-1516.86, 1.46566
-1500.38, 1.46299
-1483.9, 1.46166
-1467.42, 1.4608
-1450.94, 1.46052
-1434.46, 1.46085
-1417.98, 1.46228
-1401.5, 1.46441
-1385.02, 1.46724
-1368.54, 1.47072
-1352.06, 1.47487
-1335.59, 1.47976
-1319.11, 1.48503
-1302.63, 1.49077
-1286.15, 1.49684
-1269.67, 1.50305
-1253.19, 1.50949
-1236.71, 1.51599
-1220.23, 1.52241
-1203.75, 1.52866
-1187.27, 1.53479
-1170.79, 1.54091
-1154.31, 1.54626
-1137.83, 1.55149
-1121.35, 1.5558
-1104.87, 1.55977
-1088.39, 1.56281
-1071.92, 1.56475
-1055.44, 1.56577
-1038.96, 1.5664
-1022.48, 1.56663
-1006, 1.56566
-989.519, 1.56409
-973.039, 1.5618
-956.56, 1.55916
-940.081, 1.5555
-923.601, 1.55143
-907.122, 1.54698
-890.643, 1.54194
-874.163, 1.53645
-857.684, 1.53057
-841.205, 1.52443
-824.725, 1.51824
-808.246, 1.51177
-791.767, 1.50544
-775.287, 1.49943
-758.808, 1.4935
-742.328, 1.4873
-725.849, 1.48234
-709.37, 1.47725
-692.89, 1.47202
-676.411, 1.46783
-659.932, 1.46382
-643.452, 1.46042
-626.973, 1.45778
-610.494, 1.4557
-594.014, 1.45442
-577.535, 1.45409
-561.056, 1.45423
-544.576, 1.455
-528.097, 1.45653
-511.617, 1.45875
-495.138, 1.4616
-478.659, 1.46515
-462.179, 1.46929
-445.7, 1.47396
-429.221, 1.47894
-412.741, 1.48419
-396.262, 1.48992
-379.783, 1.49574
-363.303, 1.50175
-346.824, 1.50756
-330.345, 1.5132
-313.865, 1.51848
-297.386, 1.5239
-280.907, 1.52929
-264.427, 1.53369
-247.948, 1.53809
-231.468, 1.5414
-214.989, 1.54444
-198.51, 1.54705
-182.03, 1.54901
-165.551, 1.55012
-149.072, 1.55026
-132.592, 1.5499
-116.113, 1.54881
-99.6336, 1.54722
-83.1543, 1.54499
-66.6749, 1.5423
-50.1956, 1.53901
-38.4697, 1.53639
-29.3359, 1.53417
-20.9924, 1.53199
-15.0556, 1.53035
-10.8313, 1.52914
-7.82546, 1.52825
-5.68669, 1.52761
-4.16485, 1.52715
-3.082, 1.52682
-2.31149, 1.52658
-1.76324, 1.52641
-1.37313, 1.52628
-1.09555, 1.5262
-0.898039, 1.52614
-0.7575, 1.5261
-0.6575, 1.52607
-0.5575, 1.52603
-0.4575, 1.526
-0.3575, 1.52596
-0.2575, 1.52593
-0.1575, 1.5259
-0.0575, 1.52587
0.0425, 1.52585
0.1425, 1.52582
0.283067, 1.52577
0.480656, 1.52571
0.758401, 1.52561
1.14882, 1.5255
1.69761, 1.52532
2.46903, 1.52508
3.55339, 1.52473
5.07764, 1.52424
7.22022, 1.52354
10.232, 1.52255
14.4655, 1.52114
20.4164, 1.51913
28.7814, 1.5163
37.9691, 1.51322
49.7275, 1.50932
66.2558, 1.50367
82.7842, 1.49794
99.3125, 1.49288
115.841, 1.48815
132.369, 1.48374
148.898, 1.47958
165.426, 1.47562
181.954, 1.47186
198.483, 1.46863
215.011, 1.46623
231.539, 1.46437
248.068, 1.46283
264.596, 1.46204
281.124, 1.46187
297.653, 1.4623
314.181, 1.46336
330.709, 1.46466
347.238, 1.46642
363.766, 1.46862
380.294, 1.47119
396.823, 1.47422
413.351, 1.47731
429.879, 1.48067
446.408, 1.4846
462.936, 1.48904
479.464, 1.49341
495.993, 1.49831
512.521, 1.50325
529.049, 1.50845
545.578, 1.51307
562.106, 1.51786
578.634, 1.52272
595.163, 1.52756
611.691, 1.53182
628.219, 1.53558
644.748, 1.53847
661.276, 1.54052
677.804, 1.54243
694.333, 1.54394
710.861, 1.5445
727.389, 1.54436
743.918, 1.54373
760.446, 1.5423
776.974, 1.54024
793.503, 1.53752
810.031, 1.53428
826.559, 1.53085
843.088, 1.52706
859.616, 1.52257
876.144, 1.5181
892.673, 1.51374
909.201, 1.50929
925.729, 1.50464
942.258, 1.49958
958.786, 1.49499
975.314, 1.49067
991.843, 1.48704
1008.37, 1.48369
1024.9, 1.48112
1041.43, 1.47889
1057.96, 1.47643
1074.48, 1.47424
1091.01, 1.47256
1107.54, 1.47133
1124.07, 1.4706
1140.6, 1.47025
1157.13, 1.47026
1173.65, 1.47056
1190.18, 1.47116
1206.71, 1.47208
1223.24, 1.47336
1239.77, 1.47499
1256.3, 1.47689
1272.82, 1.47933
1289.35, 1.48182
1305.88, 1.48501
1322.41, 1.48844
1338.94, 1.49163
1355.47, 1.49502
1371.99, 1.49848
1388.52, 1.5023
1405.05, 1.50609
1421.58, 1.51007
1438.11, 1.51368
1454.64, 1.51709
1471.16, 1.51985
1487.69, 1.52238
1504.22, 1.52455
1520.75, 1.52631
1537.28, 1.52764
1553.81, 1.52817
1570.33, 1.52813
1586.86, 1.52757
1603.39, 1.52657
1619.92, 1.52503
1636.45, 1.52314
1652.98, 1.52122
1669.5, 1.51895
1686.03, 1.51636
1702.56, 1.51372
1719.09, 1.51094
1735.62, 1.50864
1752.15, 1.50637
1768.67, 1.50455
1785.2, 1.50281
1801.73, 1.50114
1818.26, 1.49934
1834.79, 1.49809
1851.32, 1.49668
1867.84, 1.49538
1884.37, 1.49435
1900.9, 1.49332
1917.43, 1.49264
1933.96, 1.4922
1950.49, 1.49185
1967.01, 1.49143
1983.54, 1.49116
2000.07, 1.49107
2016.6, 1.49123
2033.13, 1.49157
2049.66, 1.49218
2066.18, 1.49304
2082.71, 1.49387
2099.24, 1.49516
2115.77, 1.49633
2132.3, 1.49826
2148.83, 1.49997
2165.35, 1.50173
2181.88, 1.50394
2198.41, 1.50563
2214.94, 1.50782
2231.47, 1.51023
2248, 1.51296
2264.52, 1.51488
2281.05, 1.51691
2297.58, 1.51881
2314.11, 1.52064
2330.64, 1.52183
2347.17, 1.52277
2363.69, 1.52361
2380.22, 1.52407
2396.75, 1.52405
2413.28, 1.52356
2429.81, 1.52277
2446.34, 1.52172
2462.86, 1.52047
2479.39, 1.51897
2495.92, 1.51731
2512.45, 1.5156
2528.98, 1.51373
2545.51, 1.51172
2562.03, 1.51017
2578.56, 1.5087
2595.09, 1.50761
2611.62, 1.50675
2628.15, 1.50588
2644.68, 1.50525
2661.2, 1.50461
2677.73, 1.50452
2694.26, 1.5049
2710.79, 1.50563
2727.32, 1.50625
2743.85, 1.50665
2760.37, 1.5069
2776.9, 1.50704
2793.43, 1.50724
2809.96, 1.50768
2826.49, 1.50783
2843.02, 1.50719
2859.54, 1.50751
2876.07, 1.50943
2892.6, 1.51571


