  # energy grid [eV]     epsi_x  epsi_y  epsi_z
       0.000000            NaN            NaN            NaN
       0.010000       0.000154       0.000009       0.000186
       0.020000       0.000308       0.000017       0.000373
       0.030000       0.000462       0.000026       0.000560
       0.040000       0.000616       0.000035       0.000748
       0.050000       0.000770       0.000044       0.000936
       0.060000       0.000925       0.000052       0.001126
       0.070000       0.001079       0.000061       0.001317
       0.080000       0.001233       0.000070       0.001510
       0.090000       0.001387       0.000079       0.001705
       0.100000       0.001542       0.000087       0.001901
       0.110000       0.001696       0.000096       0.002101
       0.120000       0.001851       0.000105       0.002303
       0.130000       0.002005       0.000114       0.002508
       0.140000       0.002160       0.000122       0.002717
       0.150000       0.002315       0.000131       0.002929
       0.160000       0.002470       0.000140       0.003146
       0.170000       0.002625       0.000149       0.003368
       0.180000       0.002780       0.000157       0.003595
       0.190000       0.002935       0.000166       0.003828
       0.200000       0.003091       0.000175       0.004068
       0.210000       0.003246       0.000184       0.004315
       0.220000       0.003402       0.000192       0.004570
       0.230000       0.003558       0.000201       0.004835
       0.240000       0.003714       0.000210       0.005109
       0.250000       0.003870       0.000219       0.005394
       0.260000       0.004026       0.000227       0.005692
       0.270000       0.004183       0.000236       0.006004
       0.280000       0.004340       0.000245       0.006332
       0.290000       0.004496       0.000254       0.006677
       0.300000       0.004654       0.000263       0.007042
       0.310000       0.004811       0.000271       0.007429
       0.320000       0.004969       0.000280       0.007842
       0.330000       0.005126       0.000289       0.008282
       0.340000       0.005284       0.000298       0.008755
       0.350000       0.005443       0.000307       0.009264
       0.360000       0.005601       0.000315       0.009815
       0.370000       0.005760       0.000324       0.010413
       0.380000       0.005919       0.000333       0.011064
       0.390000       0.006078       0.000342       0.011777
       0.400000       0.006238       0.000351       0.012558
       0.410000       0.006398       0.000359       0.013418
       0.420000       0.006558       0.000368       0.014365
       0.430000       0.006719       0.000377       0.015409
       0.440000       0.006880       0.000386       0.016559
       0.450000       0.007041       0.000395       0.017821
       0.460000       0.007202       0.000404       0.019198
       0.470000       0.007364       0.000413       0.020687
       0.480000       0.007526       0.000421       0.022270
       0.490000       0.007689       0.000430       0.023919
       0.500000       0.007852       0.000439       0.025582
       0.510000       0.008015       0.000448       0.027187
       0.520000       0.008178       0.000457       0.028641
       0.530000       0.008342       0.000466       0.029843
       0.540000       0.008507       0.000475       0.030696
       0.550000       0.008672       0.000484       0.031131
       0.560000       0.008837       0.000493       0.031122
       0.570000       0.009003       0.000501       0.030699
       0.580000       0.009169       0.000510       0.029931
       0.590000       0.009335       0.000519       0.028917
       0.600000       0.009502       0.000528       0.027761
       0.610000       0.009669       0.000537       0.026553
       0.620000       0.009837       0.000546       0.025366
       0.630000       0.010006       0.000555       0.024251
       0.640000       0.010175       0.000564       0.023237
       0.650000       0.010344       0.000573       0.022341
       0.660000       0.010514       0.000582       0.021566
       0.670000       0.010684       0.000591       0.020912
       0.680000       0.010855       0.000600       0.020372
       0.690000       0.011026       0.000609       0.019937
       0.700000       0.011198       0.000618       0.019601
       0.710000       0.011371       0.000627       0.019354
       0.720000       0.011544       0.000636       0.019190
       0.730000       0.011717       0.000645       0.019101
       0.740000       0.011892       0.000654       0.019081
       0.750000       0.012066       0.000663       0.019127
       0.760000       0.012242       0.000672       0.019234
       0.770000       0.012418       0.000681       0.019400
       0.780000       0.012594       0.000691       0.019623
       0.790000       0.012772       0.000700       0.019902
       0.800000       0.012949       0.000709       0.020237
       0.810000       0.013128       0.000718       0.020628
       0.820000       0.013307       0.000727       0.021078
       0.830000       0.013487       0.000736       0.021588
       0.840000       0.013667       0.000745       0.022162
       0.850000       0.013849       0.000754       0.022805
       0.860000       0.014031       0.000764       0.023520
       0.870000       0.014213       0.000773       0.024316
       0.880000       0.014397       0.000782       0.025200
       0.890000       0.014581       0.000791       0.026182
       0.900000       0.014765       0.000800       0.027271
       0.910000       0.014951       0.000810       0.028482
       0.920000       0.015137       0.000819       0.029829
       0.930000       0.015325       0.000828       0.031330
       0.940000       0.015513       0.000837       0.033003
       0.950000       0.015701       0.000847       0.034872
       0.960000       0.015891       0.000856       0.036961
       0.970000       0.016081       0.000865       0.039298
       0.980000       0.016273       0.000874       0.041910
       0.990000       0.016465       0.000884       0.044825
       1.000000       0.016658       0.000893       0.048068
       1.010000       0.016852       0.000902       0.051656
       1.020000       0.017046       0.000912       0.055588
       1.030000       0.017242       0.000921       0.059842
       1.040000       0.017439       0.000930       0.064358
       1.050000       0.017636       0.000940       0.069022
       1.060000       0.017835       0.000949       0.073660
       1.070000       0.018034       0.000959       0.078033
       1.080000       0.018235       0.000968       0.081847
       1.090000       0.018436       0.000977       0.084794
       1.100000       0.018639       0.000987       0.086604
       1.110000       0.018842       0.000996       0.087109
       1.120000       0.019047       0.001006       0.086286
       1.130000       0.019252       0.001015       0.084265
       1.140000       0.019459       0.001025       0.081292
       1.150000       0.019667       0.001034       0.077671
       1.160000       0.019875       0.001044       0.073706
       1.170000       0.020085       0.001054       0.069654
       1.180000       0.020297       0.001063       0.065712
       1.190000       0.020509       0.001073       0.062009
       1.200000       0.020722       0.001082       0.058621
       1.210000       0.020937       0.001092       0.055582
       1.220000       0.021153       0.001102       0.052897
       1.230000       0.021370       0.001111       0.050555
       1.240000       0.021588       0.001121       0.048535
       1.250000       0.021807       0.001131       0.046810
       1.260000       0.022028       0.001140       0.045353
       1.270000       0.022250       0.001150       0.044139
       1.280000       0.022474       0.001160       0.043143
       1.290000       0.022698       0.001169       0.042343
       1.300000       0.022924       0.001179       0.041721
       1.310000       0.023152       0.001189       0.041262
       1.320000       0.023381       0.001199       0.040951
       1.330000       0.023611       0.001209       0.040777
       1.340000       0.023842       0.001218       0.040732
       1.350000       0.024075       0.001228       0.040808
       1.360000       0.024310       0.001238       0.041002
       1.370000       0.024546       0.001248       0.041309
       1.380000       0.024784       0.001258       0.041729
       1.390000       0.025023       0.001268       0.042261
       1.400000       0.025263       0.001278       0.042907
       1.410000       0.025506       0.001288       0.043672
       1.420000       0.025749       0.001298       0.044560
       1.430000       0.025995       0.001308       0.045579
       1.440000       0.026242       0.001318       0.046737
       1.450000       0.026491       0.001328       0.048046
       1.460000       0.026741       0.001338       0.049521
       1.470000       0.026993       0.001348       0.051176
       1.480000       0.027247       0.001358       0.053032
       1.490000       0.027503       0.001368       0.055110
       1.500000       0.027760       0.001378       0.057435
       1.510000       0.028020       0.001388       0.060034
       1.520000       0.028281       0.001399       0.062936
       1.530000       0.028544       0.001409       0.066171
       1.540000       0.028809       0.001419       0.069764
       1.550000       0.029076       0.001429       0.073737
       1.560000       0.029345       0.001439       0.078096
       1.570000       0.029616       0.001450       0.082826
       1.580000       0.029889       0.001460       0.087876
       1.590000       0.030164       0.001470       0.093148
       1.600000       0.030441       0.001481       0.098480
       1.610000       0.030720       0.001491       0.103647
       1.620000       0.031001       0.001502       0.108363
       1.630000       0.031285       0.001512       0.112314
       1.640000       0.031570       0.001522       0.115211
       1.650000       0.031858       0.001533       0.116854
       1.660000       0.032149       0.001543       0.117182
       1.670000       0.032441       0.001554       0.116289
       1.680000       0.032736       0.001564       0.114406
       1.690000       0.033033       0.001575       0.111837
       1.700000       0.033333       0.001586       0.108903
       1.710000       0.033635       0.001596       0.105892
       1.720000       0.033940       0.001607       0.103028
       1.730000       0.034248       0.001618       0.100471
       1.740000       0.034557       0.001628       0.098322
       1.750000       0.034870       0.001639       0.096637
       1.760000       0.035185       0.001650       0.095441
       1.770000       0.035503       0.001660       0.094738
       1.780000       0.035824       0.001671       0.094525
       1.790000       0.036147       0.001682       0.094793
       1.800000       0.036473       0.001693       0.095533
       1.810000       0.036803       0.001704       0.096740
       1.820000       0.037135       0.001715       0.098416
       1.830000       0.037470       0.001726       0.100565
       1.840000       0.037808       0.001737       0.103201
       1.850000       0.038149       0.001748       0.106343
       1.860000       0.038494       0.001759       0.110019
       1.870000       0.038841       0.001770       0.114262
       1.880000       0.039192       0.001781       0.119111
       1.890000       0.039546       0.001792       0.124611
       1.900000       0.039904       0.001803       0.130808
       1.910000       0.040264       0.001814       0.137745
       1.920000       0.040629       0.001825       0.145459
       1.930000       0.040997       0.001837       0.153966
       1.940000       0.041368       0.001848       0.163257
       1.950000       0.041743       0.001859       0.173282
       1.960000       0.042122       0.001871       0.183945
       1.970000       0.042505       0.001882       0.195104
       1.980000       0.042891       0.001893       0.206590
       1.990000       0.043281       0.001905       0.218237
       2.000000       0.043676       0.001916       0.229923
       2.010000       0.044074       0.001928       0.241611
       2.020000       0.044476       0.001939       0.253346
       2.030000       0.044883       0.001951       0.265229
       2.040000       0.045294       0.001962       0.277350
       2.050000       0.045709       0.001974       0.289725
       2.060000       0.046129       0.001986       0.302255
       2.070000       0.046553       0.001997       0.314730
       2.080000       0.046982       0.002009       0.326890
       2.090000       0.047416       0.002021       0.338501
       2.100000       0.047854       0.002033       0.349429
       2.110000       0.048297       0.002045       0.359654
       2.120000       0.048745       0.002056       0.369223
       2.130000       0.049198       0.002068       0.378161
       2.140000       0.049657       0.002080       0.386382
       2.150000       0.050120       0.002092       0.393672
       2.160000       0.050589       0.002104       0.399731
       2.170000       0.051063       0.002116       0.404285
       2.180000       0.051543       0.002128       0.407216
       2.190000       0.052029       0.002141       0.408643
       2.200000       0.052520       0.002153       0.408931
       2.210000       0.053017       0.002165       0.408610
       2.220000       0.053520       0.002177       0.408248
       2.230000       0.054029       0.002190       0.408313
       2.240000       0.054545       0.002202       0.409082
       2.250000       0.055067       0.002214       0.410620
       2.260000       0.055595       0.002227       0.412813
       2.270000       0.056130       0.002239       0.415464
       2.280000       0.056672       0.002252       0.418372
       2.290000       0.057221       0.002264       0.421392
       2.300000       0.057777       0.002277       0.424428
       2.310000       0.058340       0.002290       0.427383
       2.320000       0.058910       0.002302       0.430107
       2.330000       0.059488       0.002315       0.432398
       2.340000       0.060074       0.002328       0.434055
       2.350000       0.060667       0.002341       0.434978
       2.360000       0.061269       0.002353       0.435244
       2.370000       0.061879       0.002366       0.435124
       2.380000       0.062497       0.002379       0.435013
       2.390000       0.063124       0.002392       0.435322
       2.400000       0.063759       0.002405       0.436363
       2.410000       0.064404       0.002419       0.438291
       2.420000       0.065058       0.002432       0.441107
       2.430000       0.065721       0.002445       0.444721
       2.440000       0.066394       0.002458       0.449026
       2.450000       0.067077       0.002472       0.453967
       2.460000       0.067770       0.002485       0.459550
       2.470000       0.068473       0.002498       0.465814
       2.480000       0.069187       0.002512       0.472780
       2.490000       0.069911       0.002525       0.480422
       2.500000       0.070647       0.002539       0.488660
       2.510000       0.071395       0.002553       0.497395
       2.520000       0.072154       0.002566       0.506544
       2.530000       0.072925       0.002580       0.516082
       2.540000       0.073708       0.002594       0.526048
       2.550000       0.074504       0.002608       0.536528
       2.560000       0.075313       0.002622       0.547629
       2.570000       0.076136       0.002636       0.559446
       2.580000       0.076972       0.002650       0.572055
       2.590000       0.077822       0.002664       0.585506
       2.600000       0.078686       0.002678       0.599802
       2.610000       0.079566       0.002692       0.614861
       2.620000       0.080460       0.002706       0.630474
       2.630000       0.081370       0.002721       0.646257
       2.640000       0.082297       0.002735       0.661656
       2.650000       0.083240       0.002750       0.675972
       2.660000       0.084200       0.002764       0.688455
       2.670000       0.085177       0.002779       0.698422
       2.680000       0.086173       0.002794       0.705394
       2.690000       0.087187       0.002808       0.709205
       2.700000       0.088221       0.002823       0.710049
       2.710000       0.089274       0.002838       0.708441
       2.720000       0.090348       0.002853       0.705105
       2.730000       0.091442       0.002868       0.700836
       2.740000       0.092559       0.002883       0.696370
       2.750000       0.093697       0.002898       0.692294
       2.760000       0.094859       0.002913       0.688994
       2.770000       0.096045       0.002929       0.686647
       2.780000       0.097255       0.002944       0.685247
       2.790000       0.098491       0.002960       0.684660
       2.800000       0.099754       0.002975       0.684700
       2.810000       0.101043       0.002991       0.685190
       2.820000       0.102361       0.003007       0.685990
       2.830000       0.103708       0.003022       0.687005
       2.840000       0.105085       0.003038       0.688158
       2.850000       0.106494       0.003054       0.689367
       2.860000       0.107935       0.003070       0.690516
       2.870000       0.109410       0.003086       0.691446
       2.880000       0.110920       0.003103       0.691941
       2.890000       0.112466       0.003119       0.691728
       2.900000       0.114050       0.003135       0.690478
       2.910000       0.115673       0.003152       0.687839
       2.920000       0.117338       0.003168       0.683510
       2.930000       0.119044       0.003185       0.677337
       2.940000       0.120795       0.003202       0.669399
       2.950000       0.122592       0.003219       0.660048
       2.960000       0.124437       0.003236       0.649888
       2.970000       0.126333       0.003253       0.639691
       2.980000       0.128280       0.003270       0.630276
       2.990000       0.130283       0.003287       0.622376
       3.000000       0.132342       0.003305       0.616542
       3.010000       0.134462       0.003322       0.613083
       3.020000       0.136644       0.003340       0.612072
       3.030000       0.138891       0.003357       0.613382
       3.040000       0.141208       0.003375       0.616745
       3.050000       0.143596       0.003393       0.621796
       3.060000       0.146061       0.003411       0.628096
       3.070000       0.148605       0.003430       0.635138
       3.080000       0.151233       0.003448       0.642349
       3.090000       0.153950       0.003466       0.649109
       3.100000       0.156760       0.003485       0.654781
       3.110000       0.159668       0.003504       0.658777
       3.120000       0.162680       0.003522       0.660614
       3.130000       0.165802       0.003541       0.659969
       3.140000       0.169041       0.003561       0.656697
       3.150000       0.172403       0.003580       0.650824
       3.160000       0.175896       0.003599       0.642505
       3.170000       0.179528       0.003619       0.631978
       3.180000       0.183308       0.003639       0.619513
       3.190000       0.187246       0.003659       0.605404
       3.200000       0.191353       0.003679       0.589975
       3.210000       0.195640       0.003699       0.573598
       3.220000       0.200120       0.003719       0.556693
       3.230000       0.204807       0.003740       0.539712
       3.240000       0.209715       0.003761       0.523109
       3.250000       0.214863       0.003782       0.507310
       3.260000       0.220269       0.003803       0.492687
       3.270000       0.225952       0.003824       0.479535
       3.280000       0.231937       0.003846       0.468048
       3.290000       0.238248       0.003867       0.458321
       3.300000       0.244913       0.003889       0.450367
       3.310000       0.251965       0.003912       0.444167
       3.320000       0.259439       0.003934       0.439708
       3.330000       0.267373       0.003957       0.437016
       3.340000       0.275814       0.003980       0.436140
       3.350000       0.284810       0.004003       0.437117
       3.360000       0.294419       0.004027       0.439917
       3.370000       0.304705       0.004050       0.444414
       3.380000       0.315742       0.004075       0.450381
       3.390000       0.327612       0.004099       0.457535
       3.400000       0.340410       0.004124       0.465607
       3.410000       0.354244       0.004149       0.474425
       3.420000       0.369238       0.004174       0.483961
       3.430000       0.385531       0.004200       0.494321
       3.440000       0.403284       0.004227       0.505673
       3.450000       0.422677       0.004253       0.518148
       3.460000       0.443915       0.004280       0.531739
       3.470000       0.467226       0.004308       0.546235
       3.480000       0.492860       0.004336       0.561194
       3.490000       0.521086       0.004365       0.575947
       3.500000       0.552184       0.004394       0.589628
       3.510000       0.586423       0.004424       0.601230
       3.520000       0.624042       0.004455       0.609691
       3.530000       0.665196       0.004486       0.614020
       3.540000       0.709901       0.004518       0.613447
       3.550000       0.757944       0.004551       0.607571
       3.560000       0.808790       0.004585       0.596472
       3.570000       0.861482       0.004620       0.580749
       3.580000       0.914598       0.004656       0.561446
       3.590000       0.966300       0.004693       0.539881
       3.600000       1.014545       0.004732       0.517430
       3.610000       1.057460       0.004772       0.495334
       3.620000       1.093811       0.004814       0.474568
       3.630000       1.123403       0.004857       0.455796
       3.640000       1.147237       0.004903       0.439375
       3.650000       1.167342       0.004951       0.425411
       3.660000       1.186364       0.005001       0.413825
       3.670000       1.207083       0.005054       0.404428
       3.680000       1.232009       0.005110       0.396997
       3.690000       1.263124       0.005170       0.391349
       3.700000       1.301751       0.005233       0.387383
       3.710000       1.348487       0.005301       0.385101
       3.720000       1.403144       0.005372       0.384582
       3.730000       1.464682       0.005449       0.385941
       3.740000       1.531149       0.005529       0.389281
       3.750000       1.599714       0.005614       0.394647
       3.760000       1.666876       0.005703       0.402007
       3.770000       1.728937       0.005795       0.411237
       3.780000       1.782688       0.005890       0.422142
       3.790000       1.826138       0.005987       0.434480
       3.800000       1.858972       0.006086       0.448003
       3.810000       1.882532       0.006185       0.462493
       3.820000       1.899309       0.006283       0.477770
       3.830000       1.912205       0.006377       0.493678
       3.840000       1.923909       0.006465       0.510033
       3.850000       1.936587       0.006544       0.526555
       3.860000       1.951910       0.006613       0.542816
       3.870000       1.971242       0.006671       0.558226
       3.880000       1.995780       0.006720       0.572080
       3.890000       2.026503       0.006762       0.583658
       3.900000       2.063941       0.006801       0.592347
       3.910000       2.107899       0.006840       0.597748
       3.920000       2.157278       0.006881       0.599743
       3.930000       2.210118       0.006927       0.598499
       3.940000       2.263887       0.006978       0.594434
       3.950000       2.315936       0.007031       0.588124
       3.960000       2.363990       0.007084       0.580192
       3.970000       2.406501       0.007134       0.571213
       3.980000       2.442819       0.007178       0.561645
       3.990000       2.473164       0.007215       0.551819
       4.000000       2.498440       0.007242       0.541972
       4.010000       2.519956       0.007261       0.532300
       4.020000       2.539077       0.007274       0.523017
       4.030000       2.556888       0.007283       0.514386
       4.040000       2.573965       0.007292       0.506737
       4.050000       2.590308       0.007304       0.500456
       4.060000       2.605423       0.007322       0.495961
       4.070000       2.618469       0.007346       0.493650
       4.080000       2.628367       0.007379       0.493857
       4.090000       2.633928       0.007420       0.496804
       4.100000       2.634087       0.007470       0.502574
       4.110000       2.628296       0.007530       0.511096
       4.120000       2.616958       0.007597       0.522147
       4.130000       2.601627       0.007673       0.535366
       4.140000       2.584805       0.007756       0.550267
       4.150000       2.569349       0.007845       0.566244
       4.160000       2.557740       0.007939       0.582579
       4.170000       2.551485       0.008035       0.598456
       4.180000       2.550839       0.008130       0.612994
       4.190000       2.554840       0.008223       0.625316
       4.200000       2.561581       0.008312       0.634643
       4.210000       2.568572       0.008397       0.640394
       4.220000       2.573132       0.008477       0.642276
       4.230000       2.572779       0.008555       0.640355
       4.240000       2.565633       0.008633       0.635072
       4.250000       2.550780       0.008714       0.627198
       4.260000       2.528529       0.008802       0.617747
       4.270000       2.500458       0.008899       0.607846
       4.280000       2.469240       0.009007       0.598610
       4.290000       2.438242       0.009128       0.591046
       4.300000       2.410996       0.009264       0.585979
       4.310000       2.390672       0.009413       0.584021
       4.320000       2.379664       0.009575       0.585564
       4.330000       2.379393       0.009748       0.590797
       4.340000       2.390313       0.009929       0.599737
       4.350000       2.412093       0.010115       0.612270
       4.360000       2.443872       0.010305       0.628188
       4.370000       2.484494       0.010498       0.647220
       4.380000       2.532614       0.010697       0.669030
       4.390000       2.586689       0.010906       0.693190
       4.400000       2.644927       0.011129       0.719119
       4.410000       2.705379       0.011373       0.746030
       4.420000       2.766268       0.011644       0.772917
       4.430000       2.826495       0.011946       0.798606
       4.440000       2.886067       0.012285       0.821905
       4.450000       2.946174       0.012663       0.841804
       4.460000       3.008769       0.013082       0.857684
       4.470000       3.075783       0.013541       0.869465
       4.480000       3.148268       0.014038       0.877622
       4.490000       3.225762       0.014567       0.883073
       4.500000       3.306032       0.015117       0.886980
       4.510000       3.385217       0.015679       0.890527
       4.520000       3.458299       0.016239       0.894740
       4.530000       3.519790       0.016783       0.900358
       4.540000       3.564536       0.017304       0.907768
       4.550000       3.588547       0.017796       0.916961
       4.560000       3.589702       0.018257       0.927515
       4.570000       3.568159       0.018688       0.938613
       4.580000       3.526305       0.019090       0.949094
       4.590000       3.468210       0.019455       0.957569
       4.600000       3.398776       0.019774       0.962591
       4.610000       3.322903       0.020030       0.962877
       4.620000       3.244992       0.020213       0.957523
       4.630000       3.168838       0.020316       0.946146
       4.640000       3.097784       0.020347       0.928901
       4.650000       3.034842       0.020325       0.906366
       4.660000       2.982623       0.020280       0.879354
       4.670000       2.943061       0.020244       0.848726
       4.680000       2.917070       0.020247       0.815284
       4.690000       2.904277       0.020317       0.779753
       4.700000       2.902964       0.020471       0.742821
       4.710000       2.910269       0.020719       0.705195
       4.720000       2.922673       0.021064       0.667613
       4.730000       2.936692       0.021498       0.630802
       4.740000       2.949582       0.022004       0.595403
       4.750000       2.959833       0.022555       0.561902
       4.760000       2.967277       0.023114       0.530598
       4.770000       2.972841       0.023633       0.501622
       4.780000       2.978102       0.024064       0.474990
       4.790000       2.984813       0.024362       0.450662
       4.800000       2.994490       0.024499       0.428586
       4.810000       3.008027       0.024465       0.408715
       4.820000       3.025340       0.024278       0.390998
       4.830000       3.045083       0.023972       0.375367
       4.840000       3.064600       0.023595       0.361715
       4.850000       3.080253       0.023194       0.349892
       4.860000       3.088184       0.022812       0.339702
       4.870000       3.085358       0.022482       0.330912
       4.880000       3.070508       0.022227       0.323276
       4.890000       3.044585       0.022062       0.316560
       4.900000       3.010527       0.021996       0.310577
       4.910000       2.972487       0.022031       0.305211
       4.920000       2.934887       0.022170       0.300426
       4.930000       2.901682       0.022413       0.296243
       4.940000       2.875976       0.022758       0.292712
       4.950000       2.859940       0.023207       0.289874
       4.960000       2.854850       0.023761       0.287731
       4.970000       2.861085       0.024421       0.286237
       4.980000       2.878076       0.025186       0.285304
       4.990000       2.904271       0.026046       0.284827
       5.000000       2.937267       0.026985       0.284717
       5.010000       2.974190       0.027973       0.284925
       5.020000       3.012292       0.028967       0.285461
       5.030000       3.049595       0.029915       0.286378
       5.040000       3.085331       0.030757       0.287749
       5.050000       3.120022       0.031443       0.289630
       5.060000       3.155201       0.031939       0.292043
       5.070000       3.192924       0.032241       0.294967
       5.080000       3.235247       0.032371       0.298356
       5.090000       3.283774       0.032376       0.302150
       5.100000       3.339277       0.032313       0.306288
       5.110000       3.401420       0.032240       0.310705
       5.120000       3.468609       0.032200       0.315304
       5.130000       3.538058       0.032222       0.319941
       5.140000       3.606085       0.032316       0.324413
       5.150000       3.668590       0.032481       0.328479
       5.160000       3.721609       0.032703       0.331893
       5.170000       3.761855       0.032963       0.334447
       5.180000       3.787197       0.033238       0.336002
       5.190000       3.797032       0.033510       0.336501
       5.200000       3.792449       0.033764       0.335961
       5.210000       3.776107       0.033996       0.334468
       5.220000       3.751784       0.034215       0.332168
       5.230000       3.723667       0.034444       0.329258
       5.240000       3.695561       0.034717       0.325984
       5.250000       3.670182       0.035070       0.322619
       5.260000       3.648756       0.035542       0.319430
       5.270000       3.631023       0.036159       0.316644
       5.280000       3.615703       0.036936       0.314414
       5.290000       3.601269       0.037870       0.312808
       5.300000       3.586754       0.038940       0.311803
       5.310000       3.572275       0.040106       0.311319
       5.320000       3.559067       0.041310       0.311254
       5.330000       3.549078       0.042484       0.311531
       5.340000       3.544373       0.043551       0.312130
       5.350000       3.546597       0.044440       0.313106
       5.360000       3.556669       0.045093       0.314575
       5.370000       3.574723       0.045468       0.316684
       5.380000       3.600292       0.045545       0.319586
       5.390000       3.632619       0.045330       0.323408
       5.400000       3.671015       0.044858       0.328238
       5.410000       3.715084       0.044186       0.334116
       5.420000       3.764762       0.043394       0.341036
       5.430000       3.820196       0.042563       0.348950
       5.440000       3.881605       0.041775       0.357780
       5.450000       3.949223       0.041096       0.367446
       5.460000       4.023374       0.040577       0.377890
       5.470000       4.104567       0.040248       0.389119
       5.480000       4.193480       0.040122       0.401221
       5.490000       4.290776       0.040197       0.414376
       5.500000       4.396793       0.040449       0.428836
       5.510000       4.511294       0.040841       0.444897
       5.520000       4.633433       0.041317       0.462861
       5.530000       4.761996       0.041808       0.483016
       5.540000       4.895843       0.042242       0.505613
       5.550000       5.034387       0.042553       0.530864
       5.560000       5.177914       0.042696       0.558947
       5.570000       5.327598       0.042658       0.590007
       5.580000       5.485227       0.042458       0.624175
       5.590000       5.652783       0.042142       0.661555
       5.600000       5.832081       0.041772       0.702206
       5.610000       6.024584       0.041414       0.746074
       5.620000       6.231383       0.041128       0.792904
       5.630000       6.453247       0.040962       0.842145
       5.640000       6.690651       0.040957       0.892889
       5.650000       6.943700       0.041140       0.943911
       5.660000       7.211938       0.041533       0.993815
       5.670000       7.494056       0.042151       1.041315
       5.680000       7.787542       0.043005       1.085556
       5.690000       8.088362       0.044103       1.126359
       5.700000       8.390762       0.045447       1.164280
       5.710000       8.687308       0.047035       1.200427
       5.720000       8.969280       0.048857       1.236094
       5.730000       9.227426       0.050889       1.272332
       5.740000       9.452955       0.053097       1.309569
       5.750000       9.638540       0.055429       1.347402
       5.760000       9.779128       0.057825       1.384591
       5.770000       9.872430       0.060216       1.419309
       5.780000       9.919081       0.062539       1.449602
       5.790000       9.922457       0.064740       1.473950
       5.800000       9.888098       0.066776       1.491762
       5.810000       9.822798       0.068614       1.503609
       5.820000       9.733573       0.070221       1.511124
       5.830000       9.626823       0.071561       1.516599
       5.840000       9.507924       0.072600       1.522433
       5.850000       9.381248       0.073312       1.530582
       5.860000       9.250395       0.073693       1.542147
       5.870000       9.118396       0.073758       1.557141
       5.880000       8.987732       0.073542       1.574458
       5.890000       8.860238       0.073086       1.592058
       5.900000       8.737062       0.072433       1.607342
       5.910000       8.618788       0.071616       1.617693
       5.920000       8.505666       0.070665       1.621070
       5.930000       8.397769       0.069601       1.616512
       5.940000       8.294929       0.068444       1.604379
       5.950000       8.196499       0.067214       1.586280
       5.960000       8.101185       0.065932       1.564726
       5.970000       8.007213       0.064630       1.542650
       5.980000       7.912889       0.063353       1.522931
       5.990000       7.817329       0.062157       1.508008
       6.000000       7.720983       0.061104       1.499599
       6.010000       7.625675       0.060257       1.498542
       6.020000       7.534164       0.059669       1.504708
       6.030000       7.449449       0.059382       1.517013
       6.040000       7.374070       0.059423       1.533518
       6.050000       7.309545       0.059806       1.551635
       6.060000       7.255989       0.060529       1.568454
       6.070000       7.211937       0.061576       1.581170
       6.080000       7.174440       0.062913       1.587545
       6.090000       7.139514       0.064489       1.586306
       6.100000       7.102904       0.066239       1.577356
       6.110000       7.061011       0.068083       1.561739
       6.120000       7.011695       0.069941       1.541378
       6.130000       6.954630       0.071742       1.518702
       6.140000       6.891055       0.073427       1.496260
       6.150000       6.822998       0.074952       1.476419
       6.160000       6.752338       0.076279       1.461130
       6.170000       6.680172       0.077368       1.451781
       6.180000       6.606771       0.078172       1.449107
       6.190000       6.532088       0.078645       1.453154
       6.200000       6.456493       0.078752       1.463298
       6.210000       6.381361       0.078486       1.478292
       6.220000       6.309234       0.077873       1.496382
       6.230000       6.243552       0.076974       1.515472
       6.240000       6.188122       0.075884       1.533361
       6.250000       6.146554       0.074717       1.548022
       6.260000       6.121829       0.073590       1.557889
       6.270000       6.116002       0.072610       1.562102
       6.280000       6.129949       0.071858       1.560626
       6.290000       6.163074       0.071385       1.554217
       6.300000       6.212997       0.071205       1.544223
       6.310000       6.275350       0.071299       1.532290
       6.320000       6.343858       0.071614       1.520086
       6.330000       6.410846       0.072071       1.509099
       6.340000       6.468164       0.072575       1.500537
       6.350000       6.508342       0.073027       1.495308
       6.360000       6.525657       0.073346       1.494014
       6.370000       6.516815       0.073481       1.496969
       6.380000       6.481149       0.073419       1.504217
       6.390000       6.420428       0.073182       1.515572
       6.400000       6.338455       0.072810       1.530670
       6.410000       6.240579       0.072354       1.549029
       6.420000       6.133101       0.071863       1.570093
       6.430000       6.022551       0.071382       1.593220
       6.440000       5.914881       0.070964       1.617635
       6.450000       5.814804       0.070662       1.642366
       6.460000       5.725508       0.070538       1.666229
       6.470000       5.648859       0.070653       1.687944
       6.480000       5.585991       0.071064       1.706378
       6.490000       5.537989       0.071820       1.720854
       6.500000       5.506335       0.072959       1.731396
       6.510000       5.492891       0.074508       1.738789
       6.520000       5.499444       0.076479       1.744427
       6.530000       5.527030       0.078867       1.750017
       6.540000       5.575339       0.081646       1.757257
       6.550000       5.642429       0.084767       1.767600
       6.560000       5.724816       0.088154       1.782168
       6.570000       5.817850       0.091707       1.801776
       6.580000       5.916300       0.095309       1.827031
       6.590000       6.015054       0.098841       1.858428
       6.600000       6.109860       0.102188       1.896426
       6.610000       6.197985       0.105253       1.941476
       6.620000       6.278570       0.107949       1.994015
       6.630000       6.352519       0.110200       2.054445
       6.640000       6.421921       0.111937       2.123088
       6.650000       6.489181       0.113103       2.200117
       6.660000       6.556132       0.113672       2.285423
       6.670000       6.623329       0.113654       2.378395
       6.680000       6.689673       0.113109       2.477652
       6.690000       6.752423       0.112131       2.580792
       6.700000       6.807622       0.110837       2.684322
       6.710000       6.850816       0.109347       2.783862
       6.720000       6.877882       0.107766       2.874657
       6.730000       6.885761       0.106178       2.952271
       6.740000       6.873003       0.104639       3.013246
       6.750000       6.840084       0.103173       3.055523
       6.760000       6.789460       0.101780       3.078547
       6.770000       6.725292       0.100446       3.083099
       6.780000       6.652802       0.099163       3.071009
       6.790000       6.577352       0.097942       3.044793
       6.800000       6.503465       0.096816       3.007282
       6.810000       6.434049       0.095837       2.961257
       6.820000       6.370078       0.095071       2.909165
       6.830000       6.310850       0.094582       2.852995
       6.840000       6.254734       0.094433       2.794325
       6.850000       6.200071       0.094679       2.734508
       6.860000       6.145938       0.095369       2.674877
       6.870000       6.092559       0.096537       2.616876
       6.880000       6.041406       0.098203       2.562042
       6.890000       5.995040       0.100367       2.511860
       6.900000       5.956713       0.102999       2.467549
       6.910000       5.929726       0.106041       2.429879
       6.920000       5.916593       0.109399       2.399074
       6.930000       5.918212       0.112946       2.374815
       6.940000       5.933282       0.116537       2.356328
       6.950000       5.958157       0.120020       2.342534
       6.960000       5.987186       0.123257       2.332237
       6.970000       6.013464       0.126143       2.324298
       6.980000       6.029886       0.128604       2.317759
       6.990000       6.030322       0.130594       2.311854
       7.000000       6.010736       0.132088       2.305943
       7.010000       5.970008       0.133081       2.299407
       7.020000       5.910195       0.133594       2.291598
       7.030000       5.836096       0.133692       2.281869
       7.040000       5.754207       0.133486       2.269663
       7.050000       5.671341       0.133136       2.254623
       7.060000       5.593317       0.132826       2.236634
       7.070000       5.524040       0.132752       2.215792
       7.080000       5.465164       0.133093       2.192302
       7.090000       5.416308       0.134002       2.166349
       7.100000       5.375656       0.135596       2.138013
       7.110000       5.340665       0.137960       2.107270
       7.120000       5.308626       0.141140       2.074095
       7.130000       5.276937       0.145151       2.038636
       7.140000       5.243147       0.149966       2.001364
       7.150000       5.204923       0.155521       1.963146
       7.160000       5.160139       0.161700       1.925193
       7.170000       5.107086       0.168347       1.888902
       7.180000       5.044712       0.175268       1.855644
       7.190000       4.972731       0.182255       1.826565
       7.200000       4.891542       0.189123       1.802440
       7.210000       4.802010       0.195736       1.783615
       7.220000       4.705248       0.202034       1.770034
       7.230000       4.602463       0.208039       1.761330
       7.240000       4.494903       0.213848       1.756955
       7.250000       4.383869       0.219600       1.756288
       7.260000       4.270763       0.225452       1.758693
       7.270000       4.157152       0.231544       1.763512
       7.280000       4.044805       0.237968       1.769999
       7.290000       3.935637       0.244741       1.777273
       7.300000       3.831525       0.251792       1.784336
       7.310000       3.734025       0.258970       1.790173
       7.320000       3.644105       0.266067       1.793880
       7.330000       3.561996       0.272861       1.794764
       7.340000       3.487208       0.279167       1.792359
       7.350000       3.418702       0.284870       1.786399
       7.360000       3.355186       0.289947       1.776789
       7.370000       3.295461       0.294468       1.763616
       7.380000       3.238756       0.298569       1.747196
       7.390000       3.184932       0.302416       1.728102
       7.400000       3.134504       0.306155       1.707148
       7.410000       3.088495       0.309880       1.685305
       7.420000       3.048178       0.313614       1.663584
       7.430000       3.014833       0.317318       1.642909
       7.440000       2.989537       0.320903       1.624013
       7.450000       2.972999       0.324243       1.607372
       7.460000       2.965425       0.327197       1.593182
       7.470000       2.966430       0.329617       1.581387
       7.480000       2.975072       0.331370       1.571719
       7.490000       2.990050       0.332361       1.563758
       7.500000       3.010029       0.332563       1.556969
       7.510000       3.033986       0.332056       1.550730
       7.520000       3.061396       0.331040       1.544361
       7.530000       3.092157       0.329828       1.537186
       7.540000       3.126261       0.328797       1.528638
       7.550000       3.163327       0.328313       1.518366
       7.560000       3.202198       0.328652       1.506322
       7.570000       3.240710       0.329934       1.492779
       7.580000       3.275721       0.332083       1.478283
       7.590000       3.303400       0.334827       1.463561
       7.600000       3.319735       0.337743       1.449413
       7.610000       3.321243       0.340343       1.436601
       7.620000       3.305746       0.342179       1.425767
       7.630000       3.273037       0.342951       1.417375
       7.640000       3.225142       0.342572       1.411685
       7.650000       3.166018       0.341177       1.408734
       7.660000       3.100740       0.339081       1.408334
       7.670000       3.034464       0.336702       1.410085
       7.680000       2.971517       0.334486       1.413444
       7.690000       2.914858       0.332844       1.417846
       7.700000       2.865965       0.332096       1.422854
       7.710000       2.825091       0.332435       1.428280
       7.720000       2.791695       0.333904       1.434234
       7.730000       2.764895       0.336391       1.441069
       7.740000       2.743762       0.339651       1.449253
       7.750000       2.727408       0.343360       1.459222
       7.760000       2.714948       0.347189       1.471259
       7.770000       2.705438       0.350868       1.485417
       7.780000       2.697888       0.354239       1.501503
       7.790000       2.691325       0.357246       1.519087
       7.800000       2.684833       0.359896       1.537539
       7.810000       2.677500       0.362193       1.556069
       7.820000       2.668282       0.364090       1.573760
       7.830000       2.655894       0.365460       1.589634
       7.840000       2.638845       0.366116       1.602734
       7.850000       2.615654       0.365856       1.612226
       7.860000       2.585198       0.364533       1.617482
       7.870000       2.547035       0.362105       1.618115
       7.880000       2.501600       0.358660       1.613998
       7.890000       2.450188       0.354396       1.605279
       7.900000       2.394759       0.349572       1.592427
       7.910000       2.337606       0.344465       1.576250
       7.920000       2.281017       0.339342       1.557855
       7.930000       2.227024       0.334470       1.538520
       7.940000       2.177293       0.330129       1.519505
       7.950000       2.133142       0.326617       1.501871
       7.960000       2.095620       0.324224       1.486348
       7.970000       2.065558       0.323202       1.473297
       7.980000       2.043558       0.323720       1.462749
       7.990000       2.029924       0.325842       1.454491
       8.000000       2.024605       0.329514       1.448146
       8.010000       2.027194       0.334578       1.443233
       8.020000       2.036994       0.340793       1.439200
       8.030000       2.053122       0.347876       1.435452
       8.040000       2.074581       0.355532       1.431398
       8.050000       2.100246       0.363487       1.426543
       8.060000       2.128768       0.371503       1.420612
       8.070000       2.158426       0.379382       1.413660
       8.080000       2.187052       0.386975       1.406134
       8.090000       2.212090       0.394187       1.398842
       8.100000       2.230850       0.400979       1.392824
       8.110000       2.240907       0.407364       1.389151
       8.120000       2.240537       0.413382       1.388715
       8.130000       2.229118       0.419070       1.392069
       8.140000       2.207355       0.424424       1.399346
       8.150000       2.177268       0.429376       1.410261
       8.160000       2.141897       0.433795       1.424168
       8.170000       2.104760       0.437503       1.440168
       8.180000       2.069221       0.440312       1.457253
       8.190000       2.037947       0.442065       1.474482
       8.200000       2.012574       0.442688       1.491141
       8.210000       1.993645       0.442220       1.506855
       8.220000       1.980771       0.440839       1.521584
       8.230000       1.972956       0.438842       1.535515
       8.240000       1.968974       0.436594       1.548906
       8.250000       1.967667       0.434465       1.561934
       8.260000       1.968078       0.432755       1.574600
       8.270000       1.969385       0.431643       1.586681
       8.280000       1.970739       0.431155       1.597735
       8.290000       1.971127       0.431171       1.607130
       8.300000       1.969379       0.431450       1.614145
       8.310000       1.964317       0.431686       1.618119
       8.320000       1.954990       0.431566       1.618656
       8.330000       1.940884       0.430832       1.615786
       8.340000       1.922054       0.429324       1.610040
       8.350000       1.899159       0.427018       1.602379
       8.360000       1.873408       0.424035       1.594022
       8.370000       1.846426       0.420646       1.586235
       8.380000       1.820058       0.417245       1.580132
       8.390000       1.796103       0.414295       1.576519
       8.400000       1.776061       0.412258       1.575793
       8.410000       1.760949       0.411510       1.577911
       8.420000       1.751246       0.412272       1.582449
       8.430000       1.746965       0.414569       1.588742
       8.440000       1.747819       0.418228       1.596070
       8.450000       1.753399       0.422906       1.603839
       8.460000       1.763302       0.428162       1.611689
       8.470000       1.777163       0.433558       1.619519
       8.480000       1.794598       0.438754       1.627440
       8.490000       1.815116       0.443586       1.635705
       8.500000       1.838066       0.448073       1.644652
       8.510000       1.862658       0.452387       1.654660
       8.520000       1.888056       0.456779       1.666103
       8.530000       1.913480       0.461502       1.679296
       8.540000       1.938271       0.466748       1.694423
       8.550000       1.961888       0.472583       1.711481
       8.560000       1.983871       0.478923       1.730253
       8.570000       2.003819       0.485524       1.750325
       8.580000       2.021387       0.492016       1.771150
       8.590000       2.036293       0.497955       1.792132
       8.600000       2.048303       0.502887       1.812710
       8.610000       2.057179       0.506397       1.832423
       8.620000       2.062571       0.508154       1.850947
       8.630000       2.063874       0.507925       1.868106
       8.640000       2.060099       0.505589       1.883897
       8.650000       2.049848       0.501154       1.898535
       8.660000       2.031493       0.494781       1.912494
       8.670000       2.003552       0.486795       1.926522
       8.680000       1.965181       0.477677       1.941586
       8.690000       1.916583       0.468017       1.958764
       8.700000       1.859159       0.458453       1.979113
       8.710000       1.795319       0.449588       2.003550
       8.720000       1.728035       0.441937       2.032777
       8.730000       1.660309       0.435884       2.067221
       8.740000       1.594741       0.431670       2.107004
       8.750000       1.533285       0.429400       2.151907
       8.760000       1.477178       0.429082       2.201358
       8.770000       1.427009       0.430655       2.254465
       8.780000       1.382849       0.434025       2.310118
       8.790000       1.344405       0.439071       2.367187
       8.800000       1.311160       0.445625       2.424778
       8.810000       1.282483       0.453432       2.482472
       8.820000       1.257722       0.462096       2.540445
       8.830000       1.236269       0.471049       2.599411
       8.840000       1.217607       0.479545       2.660404
       8.850000       1.201350       0.486731       2.724506
       8.860000       1.187244       0.491779       2.792630
       8.870000       1.175173       0.494055       2.865463
       8.880000       1.165131       0.493279       2.943535
       8.890000       1.157192       0.489590       3.027371
       8.900000       1.151458       0.483519       3.117573
       8.910000       1.147998       0.475864       3.214803
       8.920000       1.146775       0.467539       3.319632
       8.930000       1.147614       0.459446       3.432375
       8.940000       1.150216       0.452379       3.552983
       8.950000       1.154231       0.446973       3.681073
       8.960000       1.159373       0.443684       3.816094
       8.970000       1.165534       0.442786       3.957556
       8.980000       1.172844       0.444386       4.105238
       8.990000       1.181643       0.448437       4.259310
       9.000000       1.192393       0.454761       4.420349
       9.010000       1.205546       0.463081       4.589281
       9.020000       1.221426       0.473069       4.767328
       9.030000       1.240153       0.484391       4.955952
       9.040000       1.261632       0.496749       5.156807
       9.050000       1.285600       0.509878       5.371641
       9.060000       1.311722       0.523514       5.602174
       9.070000       1.339684       0.537331       5.849965
       9.080000       1.369268       0.550899       6.116309
       9.090000       1.400370       0.563693       6.402160
       9.100000       1.432967       0.575154       6.708011
       9.110000       1.467035       0.584804       7.033668
       9.120000       1.502446       0.592342       7.377853
       9.130000       1.538892       0.597713       7.737661
       9.140000       1.575854       0.601100       8.107976
       9.150000       1.612631       0.602863       8.481002
       9.160000       1.648414       0.603446       8.846171
       9.170000       1.682370       0.603278       9.190627
       9.180000       1.713685       0.602711       9.500433
       9.190000       1.741539       0.601973       9.762386
       9.200000       1.765027       0.601170       9.966038
       9.210000       1.783082       0.600322      10.105290
       9.220000       1.794494       0.599445      10.179052
       9.230000       1.798042       0.598630      10.190782
       9.240000       1.792745       0.598111      10.147243
       9.250000       1.778111       0.598251      10.057031
       9.260000       1.754308       0.599466       9.929375
       9.270000       1.722150       0.602095       9.773331
       9.280000       1.682936       0.606277       9.597281
       9.290000       1.638194       0.611862       9.408587
       9.300000       1.589473       0.618391       9.213354
       9.310000       1.538244       0.625136       9.016286
       9.320000       1.485914       0.631222       8.820651
       9.330000       1.433874       0.635780       8.628332
       9.340000       1.383504       0.638134       8.439962
       9.350000       1.336124       0.637952       8.255182
       9.360000       1.292882       0.635331       8.073041
       9.370000       1.254638       0.630762       7.892521
       9.380000       1.221868       0.624990       7.713027
       9.390000       1.194615       0.618805       7.534689
       9.400000       1.172494       0.612853       7.358293
       9.410000       1.154750       0.607499       7.184869
       9.420000       1.140353       0.602792       7.015076
       9.430000       1.128147       0.598515       6.848649
       9.440000       1.117013       0.594314       6.684151
       9.450000       1.106047       0.589851       6.519132
       9.460000       1.094698       0.584947       6.350691
       9.470000       1.082839       0.579664       6.176273
       9.480000       1.070735       0.574298       5.994487
       9.490000       1.058919       0.569296       5.805675
       9.500000       1.048028       0.565151       5.612074
       9.510000       1.038643       0.562302       5.417518
       9.520000       1.031176       0.561101       5.226799
       9.530000       1.025830       0.561813       5.044887
       9.540000       1.022587       0.564647       4.876196
       9.550000       1.021248       0.569770       4.724031
       9.560000       1.021469       0.577303       4.590247
       9.570000       1.022826       0.587277       4.475115
       9.580000       1.024888       0.599596       4.377335
       9.590000       1.027294       0.613982       4.294181
       9.600000       1.029830       0.629950       4.221749
       9.610000       1.032458       0.646789       4.155342
       9.620000       1.035306       0.663574       4.089986
       9.630000       1.038597       0.679206       4.021105
       9.640000       1.042595       0.692493       3.945238
       9.650000       1.047560       0.702288       3.860646
       9.660000       1.053758       0.707654       3.767582
       9.670000       1.061478       0.708043       3.668108
       9.680000       1.071044       0.703410       3.565507
       9.690000       1.082783       0.694224       3.463519
       9.700000       1.096980       0.681392       3.365645
       9.710000       1.113810       0.666111       3.274722
       9.720000       1.133282       0.649706       3.192776
       9.730000       1.155196       0.633469       3.121080
       9.740000       1.179146       0.618539       3.060275
       9.750000       1.204560       0.605817       3.010455
       9.760000       1.230775       0.595924       2.971167
       9.770000       1.257106       0.589210       2.941364
       9.780000       1.282866       0.585789       2.919358
       9.790000       1.307336       0.585590       2.902872
       9.800000       1.329697       0.588416       2.889220
       9.810000       1.349010       0.593993       2.875642
       9.820000       1.364263       0.601997       2.859719
       9.830000       1.374509       0.612039       2.839762
       9.840000       1.379028       0.623640       2.815050
       9.850000       1.377455       0.636197       2.785835
       9.860000       1.369813       0.648984       2.753150
       9.870000       1.356463       0.661208       2.718509
       9.880000       1.337998       0.672119       2.683623
       9.890000       1.315170       0.681160       2.650167
       9.900000       1.288869       0.688093       2.619614
       9.910000       1.260133       0.693093       2.593111
       9.920000       1.230134       0.696729       2.571401
       9.930000       1.200101       0.699867       2.554818
       9.940000       1.171190       0.703482       2.543369
       9.950000       1.144344       0.708467       2.536865
       9.960000       1.120197       0.715464       2.535050
       9.970000       1.099022       0.724765       2.537665
       9.980000       1.080754       0.736280       2.544419
       9.990000       1.065036       0.749571       2.554875
      10.000000       1.051328       0.763954       2.568323
      10.010000       1.039042       0.778636       2.583687
      10.020000       1.027690       0.792891       2.599564
      10.030000       1.017001       0.806205       2.614408
      10.040000       1.006959       0.818365       2.626809
      10.050000       0.997756       0.829452       2.635768
      10.060000       0.989673       0.839746       2.640834
      10.070000       0.982958       0.849583       2.642034
      10.080000       0.977738       0.859225       2.639649
      10.090000       0.973995       0.868786       2.633971
      10.100000       0.971602       0.878226       2.625157
      10.110000       0.970363       0.887388       2.613225
      10.120000       0.970058       0.896032       2.598148
      10.130000       0.970455       0.903865       2.579983
      10.140000       0.971311       0.910528       2.558965
      10.150000       0.972364       0.915569       2.535568
      10.160000       0.973320       0.918436       2.510524
      10.170000       0.973854       0.918527       2.484796
      10.180000       0.973647       0.915322       2.459500
      10.190000       0.972451       0.908566       2.435767
      10.200000       0.970189       0.898428       2.414590
      10.210000       0.967031       0.885571       2.396693
      10.220000       0.963406       0.871067       2.382428
      10.230000       0.959943       0.856220       2.371727
      10.240000       0.957342       0.842318       2.364072
      10.250000       0.956237       0.830431       2.358544
      10.260000       0.957080       0.821272       2.353944
      10.270000       0.960080       0.815160       2.349021
      10.280000       0.965190       0.812050       2.342745
      10.290000       0.972150       0.811630       2.334532
      10.300000       0.980551       0.813409       2.324339
      10.310000       0.989900       0.816808       2.312594
      10.320000       0.999681       0.821205       2.300003
      10.330000       1.009393       0.825979       2.287338
      10.340000       1.018579       0.830564       2.275295
      10.350000       1.026856       0.834540       2.264445
      10.360000       1.033936       0.837730       2.255245
      10.370000       1.039613       0.840266       2.248047
      10.380000       1.043723       0.842541       2.243078
      10.390000       1.046083       0.845078       2.240381
      10.400000       1.046457       0.848338       2.239776
      10.410000       1.044576       0.852570       2.240860
      10.420000       1.040231       0.857745       2.243073
      10.430000       1.033386       0.863593       2.245794
      10.440000       1.024289       0.869715       2.248438
      10.450000       1.013491       0.875705       2.250518
      10.460000       1.001771       0.881227       2.251677
      10.470000       0.989977       0.886022       2.251672
      10.480000       0.978857       0.889891       2.250335
      10.490000       0.968930       0.892656       2.247535
      10.500000       0.960458       0.894164       2.243171
      10.510000       0.953492       0.894304       2.237199
      10.520000       0.947970       0.893035       2.229669
      10.530000       0.943814       0.890432       2.220732
      10.540000       0.940989       0.886718       2.210593
      10.550000       0.939516       0.882290       2.199417
      10.560000       0.939460       0.877698       2.187253
      10.570000       0.940896       0.873580       2.174035
      10.580000       0.943877       0.870549       2.159651
      10.590000       0.948409       0.869100       2.144059
      10.600000       0.954436       0.869554       2.127351
      10.610000       0.961849       0.872092       2.109743
      10.620000       0.970506       0.876848       2.091489
      10.630000       0.980263       0.884017       2.072764
      10.640000       0.991005       0.893919       2.053573
      10.650000       1.002656       0.906975       2.033716
      10.660000       1.015158       0.923594       2.012826
      10.670000       1.028445       0.944027       1.990474
      10.680000       1.042397       0.968221       1.966317
      10.690000       1.056822       0.995740       1.940255
      10.700000       1.071440       1.025762       1.912549
      10.710000       1.085895       1.057159       1.883862
      10.720000       1.099771       1.088656       1.855210
      10.730000       1.112626       1.119014       1.827838
      10.740000       1.124019       1.147189       1.803056
      10.750000       1.133522       1.172419       1.782067
      10.760000       1.140716       1.194214       1.765814
      10.770000       1.145190       1.212285       1.754862
      10.780000       1.146571       1.226458       1.749317
      10.790000       1.144603       1.236652       1.748777
      10.800000       1.139248       1.242918       1.752324
      10.810000       1.130763       1.245514       1.758546
      10.820000       1.119692       1.244943       1.765640
      10.830000       1.106770       1.241898       1.771582
      10.840000       1.092753       1.237135       1.774373
      10.850000       1.078264       1.231357       1.772313
      10.860000       1.063702       1.225136       1.764249
      10.870000       1.049241       1.218921       1.749713
      10.880000       1.034910       1.213086       1.728924
      10.890000       1.020703       1.207978       1.702664
      10.900000       1.006683       1.203951       1.672084
      10.910000       0.993040       1.201370       1.638521
      10.920000       0.980087       1.200597       1.603367
      10.930000       0.968207       1.201971       1.567987
      10.940000       0.957767       1.205770       1.533657
      10.950000       0.949029       1.212172       1.501489
      10.960000       0.942079       1.221215       1.472364
      10.970000       0.936791       1.232776       1.446883
      10.980000       0.932841       1.246581       1.425347
      10.990000       0.929754       1.262240       1.407765
      11.000000       0.926992       1.279297       1.393869
      11.010000       0.924045       1.297251       1.383150
      11.020000       0.920517       1.315577       1.374914
      11.030000       0.916173       1.333730       1.368365
      11.040000       0.910937       1.351205       1.362714
      11.050000       0.904880       1.367632       1.357306
      11.060000       0.898206       1.382906       1.351738
      11.070000       0.891246       1.397286       1.345942
      11.080000       0.884464       1.411428       1.340196
      11.090000       0.878445       1.426312       1.335068
      11.100000       0.873844       1.443060       1.331296
      11.110000       0.871307       1.462698       1.329652
      11.120000       0.871376       1.485933       1.330804
      11.130000       0.874398       1.513013       1.335210
      11.140000       0.880463       1.543714       1.343045
      11.150000       0.889370       1.577410       1.354161
      11.160000       0.900635       1.613179       1.368075
      11.170000       0.913525       1.649862       1.383991
      11.180000       0.927134       1.686100       1.400863
      11.190000       0.940479       1.720357       1.417498
      11.200000       0.952622       1.751000       1.432711
      11.210000       0.962773       1.776444       1.445474
      11.220000       0.970379       1.795379       1.455037
      11.230000       0.975188       1.807047       1.460982
      11.240000       0.977281       1.811477       1.463201
      11.250000       0.977059       1.809578       1.461823
      11.260000       0.975166       1.802982       1.457104
      11.270000       0.972363       1.793660       1.449314
      11.280000       0.969372       1.783478       1.438640
      11.290000       0.966755       1.773827       1.425122
      11.300000       0.964850       1.765485       1.408679
      11.310000       0.963782       1.758676       1.389209
      11.320000       0.963524       1.753275       1.366761
      11.330000       0.963983       1.749029       1.341694
      11.340000       0.965068       1.745708       1.314749
      11.350000       0.966723       1.743165       1.286987
      11.360000       0.968929       1.741323       1.259597
      11.370000       0.971675       1.740135       1.233653
      11.380000       0.974911       1.739553       1.209899
      11.390000       0.978497       1.739487       1.188615
      11.400000       0.982165       1.739746       1.169603
      11.410000       0.985521       1.739964       1.152272
      11.420000       0.988108       1.739551       1.135816
      11.430000       0.989502       1.737737       1.119449
      11.440000       0.989430       1.733706       1.102633
      11.450000       0.987834       1.726787       1.085247
      11.460000       0.984872       1.716609       1.067632
      11.470000       0.980836       1.703174       1.050508
      11.480000       0.976034       1.686816       1.034797
      11.490000       0.970681       1.668116       1.021416
      11.500000       0.964836       1.647802       1.011101
      11.510000       0.958410       1.626659       1.004285
      11.520000       0.951225       1.605452       1.001048
      11.530000       0.943111       1.584885       1.001126
      11.540000       0.934005       1.565601       1.003963
      11.550000       0.924020       1.548222       1.008794
      11.560000       0.913454       1.533376       1.014747
      11.570000       0.902744       1.521678       1.020966
      11.580000       0.892361       1.513656       1.026713
      11.590000       0.882709       1.509656       1.031451
      11.600000       0.874049       1.509799       1.034850
      11.610000       0.866488       1.513994       1.036744
      11.620000       0.860003       1.521999       1.037050
      11.630000       0.854505       1.533455       1.035693
      11.640000       0.849880       1.547872       1.032578
      11.650000       0.846016       1.564573       1.027598
      11.660000       0.842800       1.582670       1.020671
      11.670000       0.840111       1.601110       1.011788
      11.680000       0.837823       1.618780       1.001045
      11.690000       0.835814       1.634632       0.988643
      11.700000       0.833977       1.647735       0.974865
      11.710000       0.832217       1.657286       0.960018
      11.720000       0.830445       1.662612       0.944364
      11.730000       0.828580       1.663240       0.928077
      11.740000       0.826554       1.659039       0.911240
      11.750000       0.824320       1.650347       0.893898
      11.760000       0.821829       1.637988       0.876142
      11.770000       0.818989       1.623124       0.858188
      11.780000       0.815625       1.606982       0.840416
      11.790000       0.811467       1.590572       0.823352
      11.800000       0.806187       1.574479       0.807612
      11.810000       0.799467       1.558791       0.793831
      11.820000       0.791071       1.543163       0.782599
      11.830000       0.780902       1.526973       0.774409
      11.840000       0.769016       1.509560       0.769619
      11.850000       0.755622       1.490445       0.768435
      11.860000       0.741053       1.469513       0.770906
      11.870000       0.725741       1.447077       0.776930
      11.880000       0.710192       1.423840       0.786264
      11.890000       0.694939       1.400783       0.798537
      11.900000       0.680499       1.379017       0.813260
      11.910000       0.667311       1.359654       0.829863
      11.920000       0.655694       1.343702       0.847727
      11.930000       0.645812       1.331983       0.866216
      11.940000       0.637672       1.325074       0.884699
      11.950000       0.631149       1.323291       0.902563
      11.960000       0.626016       1.326680       0.919245
      11.970000       0.621987       1.335012       0.934282
      11.980000       0.618753       1.347757       0.947374
      11.990000       0.616005       1.364062       0.958423
      12.000000       0.613444       1.382766       0.967518
      12.010000       0.610801       1.402489       0.974869
      12.020000       0.607837       1.421770       0.980723
      12.030000       0.604359       1.439211       0.985288
      12.040000       0.600215       1.453590       0.988710
      12.050000       0.595290       1.463914       0.991070
      12.060000       0.589501       1.469481       0.992409
      12.070000       0.582799       1.469971       0.992738
      12.080000       0.575181       1.465552       0.992027
      12.090000       0.566698       1.456940       0.990185
      12.100000       0.557473       1.445354       0.987052
      12.110000       0.547692       1.432334       0.982413
      12.120000       0.537609       1.419499       0.976042
      12.130000       0.527526       1.408306       0.967767
      12.140000       0.517771       1.399867       0.957521
      12.150000       0.508668       1.394858       0.945363
      12.160000       0.500492       1.393510       0.931467
      12.170000       0.493445       1.395678       0.916087
      12.180000       0.487632       1.400934       0.899509
      12.190000       0.483071       1.408684       0.882032
      12.200000       0.479713       1.418262       0.863945
      12.210000       0.477463       1.429000       0.845539
      12.220000       0.476206       1.440256       0.827094
      12.230000       0.475826       1.451399       0.808882
      12.240000       0.476211       1.461781       0.791146
      12.250000       0.477266       1.470730       0.774094
      12.260000       0.478916       1.477594       0.757896
      12.270000       0.481095       1.481833       0.742697
      12.280000       0.483729       1.483108       0.728631
      12.290000       0.486706       1.481307       0.715823
      12.300000       0.489844       1.476504       0.704378
      12.310000       0.492887       1.468863       0.694355
      12.320000       0.495519       1.458551       0.685737
      12.330000       0.497409       1.445700       0.678429
      12.340000       0.498267       1.430459       0.672256
      12.350000       0.497908       1.413084       0.666991
      12.360000       0.496288       1.394052       0.662397
      12.370000       0.493513       1.374125       0.658275
      12.380000       0.489817       1.354345       0.654502
      12.390000       0.485519       1.335942       0.651046
      12.400000       0.480971       1.320177       0.647959
      12.410000       0.476517       1.308147       0.645339
      12.420000       0.472451       1.300601       0.643285
      12.430000       0.468991       1.297817       0.641854
      12.440000       0.466261       1.299563       0.641024
      12.450000       0.464289       1.305163       0.640678
      12.460000       0.463019       1.313665       0.640587
      12.470000       0.462332       1.324071       0.640424
      12.480000       0.462076       1.335561       0.639782
      12.490000       0.462089       1.347648       0.638218
      12.500000       0.462220       1.360203       0.635319
      12.510000       0.462341       1.373368       0.630762
      12.520000       0.462365       1.387396       0.624359
      12.530000       0.462250       1.402454       0.616088
      12.540000       0.462000       1.418457       0.606091
      12.550000       0.461648       1.434951       0.594665
      12.560000       0.461242       1.451103       0.582230
      12.570000       0.460822       1.465808       0.569284
      12.580000       0.460405       1.477929       0.556348
      12.590000       0.459987       1.486588       0.543911
      12.600000       0.459546       1.491406       0.532392
      12.610000       0.459065       1.492578       0.522122
      12.620000       0.458545       1.490772       0.513342
      12.630000       0.458004       1.486899       0.506213
      12.640000       0.457472       1.481871       0.500833
      12.650000       0.456968       1.476428       0.497244
      12.660000       0.456489       1.471076       0.495456
      12.670000       0.456001       1.466112       0.495460
      12.680000       0.455458       1.461681       0.497253
      12.690000       0.454818       1.457837       0.500846
      12.700000       0.454060       1.454586       0.506282
      12.710000       0.453193       1.451909       0.513624
      12.720000       0.452252       1.449791       0.522939
      12.730000       0.451289       1.448250       0.534279
      12.740000       0.450358       1.447367       0.547660
      12.750000       0.449515       1.447310       0.563060
      12.760000       0.448808       1.448326       0.580435
      12.770000       0.448273       1.450730       0.599764
      12.780000       0.447939       1.454889       0.621083
      12.790000       0.447819       1.461198       0.644515
      12.800000       0.447907       1.470040       0.670257
      12.810000       0.448155       1.481702       0.698529
      12.820000       0.448460       1.496262       0.729494
      12.830000       0.448649       1.513462       0.763148
      12.840000       0.448489       1.532609       0.799233
      12.850000       0.447717       1.552558       0.837164
      12.860000       0.446095       1.571809       0.876026
      12.870000       0.443456       1.588715       0.914640
      12.880000       0.439751       1.601773       0.951701
      12.890000       0.435047       1.609882       0.985946
      12.900000       0.429502       1.612494       1.016291
      12.910000       0.423310       1.609609       1.041877
      12.920000       0.416649       1.601637       1.062016
      12.930000       0.409658       1.589206       1.076086
      12.940000       0.402431       1.573017       1.083456
      12.950000       0.395031       1.553792       1.083513
      12.960000       0.387518       1.532303       1.075812
      12.970000       0.379950       1.509422       1.060290
      12.980000       0.372386       1.486117       1.037442
      12.990000       0.364872       1.463346       1.008366
      13.000000       0.357431       1.441899       0.974669
      13.010000       0.350069       1.422266       0.938251
      13.020000       0.342786       1.404591       0.901065
      13.030000       0.335590       1.388758       0.864904
      13.040000       0.328509       1.374546       0.831257
      13.050000       0.321579       1.361782       0.801241
      13.060000       0.314835       1.350412       0.775601
      13.070000       0.308308       1.340472       0.754749
      13.080000       0.302016       1.331983       0.738804
      13.090000       0.295973       1.324840       0.727642
      13.100000       0.290196       1.318761       0.720920
      13.110000       0.284705       1.313326       0.718090
      13.120000       0.279535       1.308101       0.718416
      13.130000       0.274728       1.302782       0.721006
      13.140000       0.270330       1.297280       0.724890
      13.150000       0.266375       1.291690       0.729117
      13.160000       0.262871       1.286166       0.732874
      13.170000       0.259793       1.280769       0.735579
      13.180000       0.257084       1.275394       0.736923
      13.190000       0.254668       1.269808       0.736853
      13.200000       0.252473       1.263798       0.735518
      13.210000       0.250442       1.257343       0.733209
      13.220000       0.248540       1.250737       0.730312
      13.230000       0.246752       1.244604       0.727274
      13.240000       0.245082       1.239809       0.724575
      13.250000       0.243540       1.237283       0.722683
      13.260000       0.242145       1.237854       0.721992
      13.270000       0.240921       1.242122       0.722736
      13.280000       0.239894       1.250403       0.724901
      13.290000       0.239094       1.262718       0.728146
      13.300000       0.238543       1.278806       0.731771
      13.310000       0.238253       1.298140       0.734739
      13.320000       0.238212       1.319965       0.735805
      13.330000       0.238388       1.343381       0.733726
      13.340000       0.238737       1.367436       0.727531
      13.350000       0.239213       1.391217       0.716755
      13.360000       0.239782       1.413897       0.701548
      13.370000       0.240433       1.434749       0.682629
      13.380000       0.241170       1.453151       0.661089
      13.390000       0.242009       1.468642       0.638154
      13.400000       0.242957       1.481012       0.614971
      13.410000       0.244009       1.490386       0.592476
      13.420000       0.245132       1.497218       0.571355
      13.430000       0.246271       1.502186       0.552065
      13.440000       0.247342       1.505998       0.534882
      13.450000       0.248248       1.509210       0.519950
      13.460000       0.248894       1.512101       0.507324
      13.470000       0.249203       1.514633       0.496989
      13.480000       0.249132       1.516482       0.488869
      13.490000       0.248688       1.517162       0.482828
      13.500000       0.247929       1.516193       0.478654
      13.510000       0.246963       1.513279       0.476048
      13.520000       0.245934       1.508411       0.474620
      13.530000       0.244982       1.501831       0.473905
      13.540000       0.244219       1.493874       0.473419
      13.550000       0.243698       1.484773       0.472721
      13.560000       0.243410       1.474513       0.471483
      13.570000       0.243295       1.462803       0.469533
      13.580000       0.243278       1.449170       0.466850
      13.590000       0.243295       1.433129       0.463545
      13.600000       0.243316       1.414358       0.459812
      13.610000       0.243350       1.392831       0.455888
      13.620000       0.243444       1.368866       0.452032
      13.630000       0.243675       1.343091       0.448505
      13.640000       0.244139       1.316364       0.445569
      13.650000       0.244948       1.289675       0.443474
      13.660000       0.246216       1.264049       0.442450
      13.670000       0.248049       1.240450       0.442688
      13.680000       0.250526       1.219677       0.444327
      13.690000       0.253679       1.202274       0.447444
      13.700000       0.257489       1.188462       0.452053
      13.710000       0.261885       1.178136       0.458122
      13.720000       0.266759       1.170921       0.465587
      13.730000       0.271984       1.166263       0.474367
      13.740000       0.277424       1.163534       0.484367
      13.750000       0.282935       1.162111       0.495452
      13.760000       0.288364       1.161429       0.507412
      13.770000       0.293540       1.161000       0.519902
      13.780000       0.298286       1.160400       0.532393
      13.790000       0.302420       1.159255       0.544139
      13.800000       0.305777       1.157221       0.554209
      13.810000       0.308218       1.153970       0.561608
      13.820000       0.309641       1.149194       0.565461
      13.830000       0.309987       1.142640       0.565236
      13.840000       0.309250       1.134176       0.560902
      13.850000       0.307471       1.123875       0.552960
      13.860000       0.304726       1.112048       0.542311
      13.870000       0.301122       1.099208       0.530045
      13.880000       0.296777       1.085964       0.517223
      13.890000       0.291819       1.072864       0.504727
      13.900000       0.286379       1.060261       0.493203
      13.910000       0.280592       1.048231       0.483078
      13.920000       0.274588       1.036598       0.474607
      13.930000       0.268488       1.025047       0.467922
      13.940000       0.262399       1.013303       0.463060
      13.950000       0.256411       1.001296       0.459976
      13.960000       0.250608       0.989267       0.458547
      13.970000       0.245069       0.977764       0.458586
      13.980000       0.239879       0.967559       0.459865
      13.990000       0.235127       0.959488       0.462156
      14.000000       0.230894       0.954282       0.465265
      14.010000       0.227242       0.952419       0.469053
      14.020000       0.224190       0.954042       0.473444
      14.030000       0.221707       0.958944       0.478411
      14.040000       0.219712       0.966626       0.483962
      14.050000       0.218087       0.976404       0.490127
      14.060000       0.216706       0.987570       0.496946
      14.070000       0.215456       0.999554       0.504456
      14.080000       0.214258       1.012060       0.512684
      14.090000       0.213071       1.025122       0.521629
      14.100000       0.211890       1.039068       0.531256
      14.110000       0.210728       1.054391       0.541504
      14.120000       0.209610       1.071593       0.552298
      14.130000       0.208562       1.091025       0.563573
      14.140000       0.207603       1.112766       0.575301
      14.150000       0.206747       1.136532       0.587499
      14.160000       0.205990       1.161622       0.600231
      14.170000       0.205311       1.186906       0.613596
      14.180000       0.204670       1.210887       0.627710
      14.190000       0.204018       1.231850       0.642692
      14.200000       0.203311       1.248107       0.658646
      14.210000       0.202522       1.258298       0.675659
      14.220000       0.201650       1.261688       0.693801
      14.230000       0.200717       1.258344       0.713126
      14.240000       0.199748       1.249126       0.733679
      14.250000       0.198756       1.235436       0.755474
      14.260000       0.197727       1.218841       0.778469
      14.270000       0.196628       1.200681       0.802536
      14.280000       0.195420       1.181824       0.827445
      14.290000       0.194081       1.162619       0.852866
      14.300000       0.192626       1.143028       0.878395
      14.310000       0.191107       1.122851       0.903584
      14.320000       0.189607       1.101944       0.927957
      14.330000       0.188224       1.080370       0.951003
      14.340000       0.187047       1.058426       0.972154
      14.350000       0.186145       1.036587       0.990779
      14.360000       0.185549       1.015391       1.006235
      14.370000       0.185248       0.995331       1.017953
      14.380000       0.185199       0.976794       1.025547
      14.390000       0.185336       0.960056       1.028877
      14.400000       0.185586       0.945317       1.028056
      14.410000       0.185891       0.932757       1.023388
      14.420000       0.186217       0.922566       1.015302
      14.430000       0.186561       0.914935       1.004309
      14.440000       0.186947       0.910015       0.990986
      14.450000       0.187417       0.907854       0.975977
      14.460000       0.188018       0.908325       0.959984
      14.470000       0.188787       0.911081       0.943740
      14.480000       0.189742       0.915531       0.927941
      14.490000       0.190869       0.920844       0.913182
      14.500000       0.192119       0.926006       0.899904
      14.510000       0.193418       0.929929       0.888363
      14.520000       0.194674       0.931606       0.878641
      14.530000       0.195795       0.930270       0.870667
      14.540000       0.196698       0.925488       0.864257
      14.550000       0.197316       0.917144       0.859144
      14.560000       0.197597       0.905350       0.854996
      14.570000       0.197514       0.890335       0.851434
      14.580000       0.197071       0.872397       0.848046
      14.590000       0.196313       0.851918       0.844402
      14.600000       0.195329       0.829417       0.840087
      14.610000       0.194236       0.805578       0.834745
      14.620000       0.193164       0.781221       0.828118
      14.630000       0.192228       0.757238       0.820081
      14.640000       0.191520       0.734505       0.810645
      14.650000       0.191094       0.713811       0.799944
      14.660000       0.190975       0.695812       0.788210
      14.670000       0.191156       0.680998       0.775732
      14.680000       0.191619       0.669691       0.762822
      14.690000       0.192338       0.662053       0.749773
      14.700000       0.193292       0.658089       0.736838
      14.710000       0.194469       0.657668       0.724207
      14.720000       0.195856       0.660533       0.712019
      14.730000       0.197436       0.666330       0.700378
      14.740000       0.199185       0.674637       0.689367
      14.750000       0.201068       0.685009       0.679069
      14.760000       0.203054       0.697011       0.669582
      14.770000       0.205113       0.710226       0.661020
      14.780000       0.207223       0.724254       0.653517
      14.790000       0.209356       0.738692       0.647215
      14.800000       0.211474       0.753137       0.642255
      14.810000       0.213520       0.767216       0.638758
      14.820000       0.215417       0.780643       0.636816
      14.830000       0.217073       0.793278       0.636487
      14.840000       0.218385       0.805155       0.637786
      14.850000       0.219242       0.816466       0.640678
      14.860000       0.219532       0.827510       0.645067
      14.870000       0.219160       0.838619       0.650779
      14.880000       0.218064       0.850073       0.657544
      14.890000       0.216233       0.862015       0.664967
      14.900000       0.213722       0.874376       0.672514
      14.910000       0.210641       0.886855       0.679511
      14.920000       0.207145       0.898969       0.685179
      14.930000       0.203410       0.910185       0.688716
      14.940000       0.199605       0.920080       0.689396
      14.950000       0.195884       0.928466       0.686688
      14.960000       0.192373       0.935428       0.680347
      14.970000       0.189164       0.941258       0.670465
      14.980000       0.186315       0.946333       0.657449
      14.990000       0.183852       0.950988       0.641935
      15.000000       0.181765       0.955440       0.624679
      15.010000       0.180015       0.959783       0.606449
      15.020000       0.178536       0.964043       0.587952
      15.030000       0.177248       0.968279       0.569802
      15.040000       0.176073       0.972676       0.552500
      15.050000       0.174954       0.977589       0.536439
      15.060000       0.173859       0.983513       0.521897
      15.070000       0.172783       0.990972       0.509035
      15.080000       0.171743       1.000368       0.497900
      15.090000       0.170759       1.011847       0.488434
      15.100000       0.169849       1.025243       0.480490
      15.110000       0.169023       1.040115       0.473864
      15.120000       0.168287       1.055868       0.468336
      15.130000       0.167644       1.071914       0.463701
      15.140000       0.167098       1.087797       0.459794
      15.150000       0.166649       1.103238       0.456502
      15.160000       0.166287       1.118092       0.453758
      15.170000       0.165985       1.132235       0.451536
      15.180000       0.165693       1.145460       0.449831
      15.190000       0.165349       1.157424       0.448650
      15.200000       0.164884       1.167683       0.448002
      15.210000       0.164241       1.175792       0.447891
      15.220000       0.163393       1.181434       0.448310
      15.230000       0.162349       1.184527       0.449241
      15.240000       0.161154       1.185271       0.450634
      15.250000       0.159879       1.184122       0.452410
      15.260000       0.158602       1.181718       0.454459
      15.270000       0.157389       1.178765       0.456653
      15.280000       0.156278       1.175936       0.458868
      15.290000       0.155278       1.173780       0.461006
      15.300000       0.154372       1.172672       0.463006
      15.310000       0.153538       1.172789       0.464845
      15.320000       0.152758       1.174123       0.466525
      15.330000       0.152032       1.176505       0.468051
      15.340000       0.151379       1.179652       0.469422
      15.350000       0.150823       1.183191       0.470623
      15.360000       0.150382       1.186699       0.471636
      15.370000       0.150050       1.189726       0.472461
      15.380000       0.149792       1.191825       0.473135
      15.390000       0.149546       1.192581       0.473742
      15.400000       0.149235       1.191642       0.474404
      15.410000       0.148787       1.188767       0.475257
      15.420000       0.148151       1.183860       0.476411
      15.430000       0.147309       1.176996       0.477926
      15.440000       0.146279       1.168419       0.479790
      15.450000       0.145101       1.158494       0.481921
      15.460000       0.143829       1.147636       0.484175
      15.470000       0.142515       1.136219       0.486349
      15.480000       0.141209       1.124496       0.488189
      15.490000       0.139955       1.112572       0.489397
      15.500000       0.138796       1.100435       0.489644
      15.510000       0.137771       1.088024       0.488598
      15.520000       0.136911       1.075314       0.485968
      15.530000       0.136237       1.062390       0.481544
      15.540000       0.135754       1.049495       0.475248
      15.550000       0.135454       1.037059       0.467160
      15.560000       0.135320       1.025677       0.457523
      15.570000       0.135332       1.016055       0.446705
      15.580000       0.135473       1.008921       0.435146
      15.590000       0.135731       1.004902       0.423290
      15.600000       0.136102       1.004420       0.411530
      15.610000       0.136592       1.007607       0.400184
      15.620000       0.137212       1.014270       0.389494
      15.630000       0.137977       1.023897       0.379636
      15.640000       0.138898       1.035702       0.370743
      15.650000       0.139965       1.048701       0.362913
      15.660000       0.141148       1.061820       0.356217
      15.670000       0.142385       1.074018       0.350689
      15.680000       0.143595       1.084407       0.346314
      15.690000       0.144680       1.092354       0.343022
      15.700000       0.145544       1.097543       0.340684
      15.710000       0.146100       1.099986       0.339127
      15.720000       0.146287       1.100001       0.338152
      15.730000       0.146066       1.098145       0.337551
      15.740000       0.145430       1.095133       0.337141
      15.750000       0.144405       1.091747       0.336777
      15.760000       0.143047       1.088752       0.336368
      15.770000       0.141441       1.086793       0.335877
      15.780000       0.139686       1.086317       0.335315
      15.790000       0.137877       1.087497       0.334727
      15.800000       0.136083       1.090187       0.334171
      15.810000       0.134346       1.093922       0.333706
      15.820000       0.132678       1.097967       0.333371
      15.830000       0.131068       1.101416       0.333177
      15.840000       0.129502       1.103324       0.333106
      15.850000       0.127962       1.102849       0.333117
      15.860000       0.126438       1.099368       0.333170
      15.870000       0.124928       1.092556       0.333238
      15.880000       0.123440       1.082419       0.333328
      15.890000       0.121990       1.069281       0.333482
      15.900000       0.120601       1.053702       0.333774
      15.910000       0.119300       1.036366       0.334288
      15.920000       0.118106       1.017949       0.335104
      15.930000       0.117033       0.999030       0.336280
      15.940000       0.116080       0.980057       0.337851
      15.950000       0.115238       0.961380       0.339822
      15.960000       0.114489       0.943294       0.342176
      15.970000       0.113817       0.926084       0.344880
      15.980000       0.113209       0.910020       0.347886
      15.990000       0.112659       0.895341       0.351134
      16.000000       0.112172       0.882220       0.354548
      16.010000       0.111753       0.870739       0.358030
      16.020000       0.111411       0.860875       0.361449
      16.030000       0.111150       0.852500       0.364629
      16.040000       0.110969       0.845387       0.367345
      16.050000       0.110866       0.839237       0.369324
      16.060000       0.110843       0.833737       0.370267
      16.070000       0.110912       0.828629       0.369881
      16.080000       0.111095       0.823786       0.367935
      16.090000       0.111421       0.819251       0.364307
      16.100000       0.111919       0.815224       0.359020
      16.110000       0.112610       0.812007       0.352256
      16.120000       0.113505       0.809909       0.344328
      16.130000       0.114600       0.809154       0.335626
      16.140000       0.115879       0.809804       0.326562
      16.150000       0.117312       0.811722       0.317504
      16.160000       0.118857       0.814584       0.308752
      16.170000       0.120458       0.817938       0.300518
      16.180000       0.122047       0.821276       0.292936
      16.190000       0.123543       0.824120       0.286075
      16.200000       0.124866       0.826085       0.279960
      16.210000       0.125948       0.826917       0.274600
      16.220000       0.126747       0.826502       0.269999
      16.230000       0.127255       0.824854       0.266167
      16.240000       0.127495       0.822079       0.263125
      16.250000       0.127513       0.818338       0.260895
      16.260000       0.127354       0.813808       0.259499
      16.270000       0.127060       0.808660       0.258948
      16.280000       0.126660       0.803054       0.259230
      16.290000       0.126175       0.797135       0.260308
      16.300000       0.125629       0.791012       0.262107
      16.310000       0.125048       0.784751       0.264520
      16.320000       0.124463       0.778361       0.267415
      16.330000       0.123904       0.771813       0.270648
      16.340000       0.123395       0.765075       0.274079
      16.350000       0.122951       0.758138       0.277583
      16.360000       0.122581       0.751038       0.281059
      16.370000       0.122283       0.743849       0.284434
      16.380000       0.122052       0.736686       0.287664
      16.390000       0.121881       0.729691       0.290723
      16.400000       0.121758       0.723033       0.293602
      16.410000       0.121670       0.716886       0.296295
      16.420000       0.121599       0.711403       0.298805
      16.430000       0.121514       0.706679       0.301132
      16.440000       0.121376       0.702726       0.303278
      16.450000       0.121138       0.699463       0.305231
      16.460000       0.120748       0.696739       0.306954
      16.470000       0.120163       0.694372       0.308370
      16.480000       0.119350       0.692203       0.309357
      16.490000       0.118294       0.690143       0.309754
      16.500000       0.117003       0.688186       0.309377
      16.510000       0.115502       0.686405       0.308061
      16.520000       0.113834       0.684927       0.305702
      16.530000       0.112048       0.683909       0.302295
      16.540000       0.110201       0.683517       0.297958
      16.550000       0.108341       0.683904       0.292916
      16.560000       0.106508       0.685188       0.287471
      16.570000       0.104726       0.687430       0.281943
      16.580000       0.103007       0.690630       0.276623
      16.590000       0.101360       0.694734       0.271732
      16.600000       0.099795       0.699663       0.267401
      16.610000       0.098333       0.705330       0.263666
      16.620000       0.097003       0.711630       0.260480
      16.630000       0.095839       0.718420       0.257729
      16.640000       0.094870       0.725473       0.255253
      16.650000       0.094114       0.732453       0.252860
      16.660000       0.093572       0.738908       0.250346
      16.670000       0.093228       0.744299       0.247510
      16.680000       0.093051       0.748049       0.244172
      16.690000       0.092996       0.749613       0.240199
      16.700000       0.093014       0.748564       0.235526
      16.710000       0.093056       0.744673       0.230172
      16.720000       0.093080       0.737968       0.224239
      16.730000       0.093055       0.728752       0.217894
      16.740000       0.092965       0.717559       0.211342
      16.750000       0.092808       0.705060       0.204791
      16.760000       0.092590       0.691946       0.198428
      16.770000       0.092327       0.678821       0.192394
      16.780000       0.092041       0.666143       0.186785
      16.790000       0.091755       0.654218       0.181646
      16.800000       0.091496       0.643226       0.176978
      16.810000       0.091289       0.633274       0.172753
      16.820000       0.091162       0.624439       0.168916
      16.830000       0.091140       0.616793       0.165405
      16.840000       0.091247       0.610416       0.162162
      16.850000       0.091503       0.605382       0.159137
      16.860000       0.091918       0.601735       0.156297
      16.870000       0.092488       0.599450       0.153620
      16.880000       0.093196       0.598393       0.151091
      16.890000       0.094007       0.598300       0.148695
      16.900000       0.094874       0.598794       0.146404
      16.910000       0.095746       0.599432       0.144178
      16.920000       0.096569       0.599782       0.141971
      16.930000       0.097299       0.599498       0.139734
      16.940000       0.097894       0.598375       0.137434
      16.950000       0.098324       0.596361       0.135058
      16.960000       0.098565       0.593542       0.132612
      16.970000       0.098609       0.590110       0.130116
      16.980000       0.098465       0.586315       0.127591
      16.990000       0.098169       0.582432       0.125056
      17.000000       0.097778       0.578722       0.122527
      17.010000       0.097359       0.575403       0.120022
      17.020000       0.096981       0.572621       0.117571
      17.030000       0.096702       0.570431       0.115213
      17.040000       0.096562       0.568794       0.112993
      17.050000       0.096583       0.567599       0.110954
      17.060000       0.096777       0.566699       0.109128
      17.070000       0.097144       0.565942       0.107531
      17.080000       0.097680       0.565199       0.106161
      17.090000       0.098376       0.564367       0.104999
      17.100000       0.099214       0.563373       0.104015
      17.110000       0.100173       0.562178       0.103171
      17.120000       0.101224       0.560777       0.102429
      17.130000       0.102333       0.559206       0.101752
      17.140000       0.103459       0.557538       0.101108
      17.150000       0.104560       0.555871       0.100477
      17.160000       0.105592       0.554314       0.099850
      17.170000       0.106516       0.552962       0.099231
      17.180000       0.107299       0.551883       0.098639
      17.190000       0.107918       0.551096       0.098097
      17.200000       0.108358       0.550571       0.097633
      17.210000       0.108616       0.550229       0.097276
      17.220000       0.108693       0.549963       0.097050
      17.230000       0.108600       0.549653       0.096973
      17.240000       0.108354       0.549186       0.097059
      17.250000       0.107981       0.548462       0.097310
      17.260000       0.107511       0.547391       0.097722
      17.270000       0.106981       0.545904       0.098279
      17.280000       0.106427       0.543962       0.098959
      17.290000       0.105880       0.541581       0.099736
      17.300000       0.105365       0.538848       0.100583
      17.310000       0.104897       0.535928       0.101472
      17.320000       0.104486       0.533043       0.102381
      17.330000       0.104138       0.530434       0.103285
      17.340000       0.103853       0.528314       0.104158
      17.350000       0.103628       0.526830       0.104971
      17.360000       0.103454       0.526042       0.105694
      17.370000       0.103317       0.525943       0.106298
      17.380000       0.103195       0.526482       0.106759
      17.390000       0.103059       0.527591       0.107057
      17.400000       0.102872       0.529185       0.107183
      17.410000       0.102585       0.531151       0.107129
      17.420000       0.102147       0.533324       0.106901
      17.430000       0.101509       0.535484       0.106509
      17.440000       0.100633       0.537386       0.105979
      17.450000       0.099505       0.538780       0.105341
      17.460000       0.098134       0.539448       0.104634
      17.470000       0.096546       0.539207       0.103897
      17.480000       0.094783       0.537909       0.103167
      17.490000       0.092893       0.535447       0.102471
      17.500000       0.090927       0.531770       0.101824
      17.510000       0.088940       0.526910       0.101228
      17.520000       0.086983       0.521001       0.100673
      17.530000       0.085103       0.514285       0.100134
      17.540000       0.083338       0.507088       0.099581
      17.550000       0.081720       0.499780       0.098989
      17.560000       0.080267       0.492725       0.098339
      17.570000       0.078992       0.486223       0.097632
      17.580000       0.077897       0.480472       0.096887
      17.590000       0.076975       0.475543       0.096136
      17.600000       0.076214       0.471388       0.095420
      17.610000       0.075596       0.467868       0.094776
      17.620000       0.075097       0.464787       0.094237
      17.630000       0.074696       0.461925       0.093829
      17.640000       0.074369       0.459073       0.093574
      17.650000       0.074096       0.456056       0.093487
      17.660000       0.073855       0.452764       0.093581
      17.670000       0.073633       0.449164       0.093864
      17.680000       0.073417       0.445305       0.094341
      17.690000       0.073208       0.441304       0.095012
      17.700000       0.073017       0.437318       0.095873
      17.710000       0.072868       0.433513       0.096917
      17.720000       0.072796       0.430024       0.098134
      17.730000       0.072839       0.426929       0.099515
      17.740000       0.073032       0.424240       0.101052
      17.750000       0.073401       0.421912       0.102742
      17.760000       0.073957       0.419878       0.104587
      17.770000       0.074699       0.418084       0.106596
      17.780000       0.075613       0.416504       0.108783
      17.790000       0.076674       0.415139       0.111171
      17.800000       0.077845       0.413990       0.113781
      17.810000       0.079080       0.413039       0.116638
      17.820000       0.080327       0.412237       0.119760
      17.830000       0.081524       0.411509       0.123165
      17.840000       0.082602       0.410763       0.126871
      17.850000       0.083493       0.409880       0.130895
      17.860000       0.084127       0.408708       0.135255
      17.870000       0.084450       0.407058       0.139970
      17.880000       0.084427       0.404721       0.145055
      17.890000       0.084053       0.401528       0.150519
      17.900000       0.083357       0.397415       0.156362
      17.910000       0.082397       0.392480       0.162586
      17.920000       0.081252       0.386990       0.169195
      17.930000       0.080014       0.381336       0.176208
      17.940000       0.078767       0.375934       0.183655
      17.950000       0.077582       0.371139       0.191568
      17.960000       0.076507       0.367169       0.199969
      17.970000       0.075566       0.364074       0.208848
      17.980000       0.074758       0.361748       0.218152
      17.990000       0.074070       0.359981       0.227775
      18.000000       0.073476       0.358519       0.237567
      18.010000       0.072945       0.357140       0.247347
      18.020000       0.072444       0.355701       0.256936
      18.030000       0.071939       0.354167       0.266180
      18.040000       0.071401       0.352606       0.274972
      18.050000       0.070809       0.351156       0.283258
      18.060000       0.070155       0.349989       0.291017
      18.070000       0.069449       0.349262       0.298243
      18.080000       0.068713       0.349084       0.304918
      18.090000       0.067979       0.349493       0.311000
      18.100000       0.067279       0.350447       0.316422
      18.110000       0.066640       0.351838       0.321099
      18.120000       0.066082       0.353511       0.324948
      18.130000       0.065615       0.355282       0.327902
      18.140000       0.065239       0.356969       0.329917
      18.150000       0.064950       0.358409       0.330982
      18.160000       0.064737       0.359481       0.331112
      18.170000       0.064587       0.360100       0.330354
      18.180000       0.064487       0.360216       0.328784
      18.190000       0.064425       0.359802       0.326499
      18.200000       0.064389       0.358851       0.323616
      18.210000       0.064371       0.357377       0.320257
      18.220000       0.064366       0.355414       0.316541
      18.230000       0.064367       0.353012       0.312580
      18.240000       0.064367       0.350229       0.308481
      18.250000       0.064353       0.347117       0.304346
      18.260000       0.064307       0.343713       0.300275
      18.270000       0.064206       0.340017       0.296354
      18.280000       0.064029       0.335987       0.292647
      18.290000       0.063761       0.331546       0.289183
      18.300000       0.063400       0.326610       0.285947
      18.310000       0.062958       0.321126       0.282890
      18.320000       0.062460       0.315106       0.279932
      18.330000       0.061941       0.308643       0.276982
      18.340000       0.061439       0.301898       0.273962
      18.350000       0.060992       0.295081       0.270832
      18.360000       0.060640       0.288425       0.267598
      18.370000       0.060415       0.282159       0.264321
      18.380000       0.060341       0.276489       0.261093
      18.390000       0.060434       0.271583       0.258012
      18.400000       0.060696       0.267549       0.255158
      18.410000       0.061115       0.264432       0.252578
      18.420000       0.061668       0.262204       0.250279
      18.430000       0.062322       0.260771       0.248234
      18.440000       0.063035       0.259990       0.246386
      18.450000       0.063758       0.259686       0.244660
      18.460000       0.064443       0.259685       0.242978
      18.470000       0.065044       0.259839       0.241273
      18.480000       0.065521       0.260043       0.239499
      18.490000       0.065849       0.260245       0.237640
      18.500000       0.066020       0.260423       0.235715
      18.510000       0.066039       0.260566       0.233763
      18.520000       0.065927       0.260637       0.231844
      18.530000       0.065706       0.260573       0.230020
      18.540000       0.065405       0.260288       0.228353
      18.550000       0.065048       0.259701       0.226898
      18.560000       0.064663       0.258760       0.225693
      18.570000       0.064275       0.257450       0.224759
      18.580000       0.063911       0.255792       0.224095
      18.590000       0.063596       0.253825       0.223681
      18.600000       0.063352       0.251595       0.223480
      18.610000       0.063197       0.249139       0.223441
      18.620000       0.063145       0.246491       0.223497
      18.630000       0.063209       0.243682       0.223570
      18.640000       0.063400       0.240748       0.223567
      18.650000       0.063728       0.237737       0.223394
      18.660000       0.064201       0.234703       0.222961
      18.670000       0.064824       0.231696       0.222202
      18.680000       0.065592       0.228752       0.221086
      18.690000       0.066494       0.225883       0.219629
      18.700000       0.067503       0.223084       0.217891
      18.710000       0.068584       0.220342       0.215970
      18.720000       0.069694       0.217658       0.213985
      18.730000       0.070786       0.215059       0.212062
      18.740000       0.071815       0.212594       0.210321
      18.750000       0.072738       0.210332       0.208862
      18.760000       0.073523       0.208341       0.207763
      18.770000       0.074151       0.206680       0.207076
      18.780000       0.074623       0.205396       0.206826
      18.790000       0.074964       0.204525       0.207014
      18.800000       0.075222       0.204099       0.207617
      18.810000       0.075457       0.204146       0.208579
      18.820000       0.075737       0.204674       0.209812
      18.830000       0.076121       0.205662       0.211190
      18.840000       0.076651       0.207042       0.212553
      18.850000       0.077350       0.208703       0.213720
      18.860000       0.078215       0.210503       0.214507
      18.870000       0.079221       0.212302       0.214753
      18.880000       0.080326       0.213996       0.214351
      18.890000       0.081475       0.215532       0.213271
      18.900000       0.082611       0.216918       0.211568
      18.910000       0.083686       0.218201       0.209377
      18.920000       0.084663       0.219442       0.206883
      18.930000       0.085525       0.220681       0.204281
      18.940000       0.086270       0.221910       0.201737
      18.950000       0.086908       0.223063       0.199362
      18.960000       0.087455       0.224025       0.197210
      18.970000       0.087927       0.224661       0.195285
      18.980000       0.088343       0.224845       0.193564
      18.990000       0.088718       0.224492       0.192018
      19.000000       0.089066       0.223581       0.190628
      19.010000       0.089396       0.222161       0.189385
      19.020000       0.089710       0.220342       0.188295
      19.030000       0.090005       0.218263       0.187373
      19.040000       0.090269       0.216054       0.186629
      19.050000       0.090489       0.213797       0.186065
      19.060000       0.090654       0.211503       0.185669
      19.070000       0.090765       0.209116       0.185404
      19.080000       0.090834       0.206543       0.185215
      19.090000       0.090886       0.203700       0.185030
      19.100000       0.090958       0.200546       0.184764
      19.110000       0.091089       0.197105       0.184331
      19.120000       0.091314       0.193460       0.183651
      19.130000       0.091663       0.189732       0.182657
      19.140000       0.092154       0.186048       0.181301
      19.150000       0.092792       0.182525       0.179556
      19.160000       0.093571       0.179248       0.177428
      19.170000       0.094474       0.176273       0.174950
      19.180000       0.095476       0.173628       0.172190
      19.190000       0.096548       0.171319       0.169243
      19.200000       0.097659       0.169343       0.166220
      19.210000       0.098783       0.167695       0.163235
      19.220000       0.099897       0.166375       0.160383
      19.230000       0.100987       0.165391       0.157726
      19.240000       0.102049       0.164760       0.155292
      19.250000       0.103090       0.164502       0.153070
      19.260000       0.104131       0.164630       0.151028
      19.270000       0.105204       0.165146       0.149125
      19.280000       0.106348       0.166021       0.147324
      19.290000       0.107606       0.167193       0.145602
      19.300000       0.109017       0.168562       0.143958
      19.310000       0.110615       0.170007       0.142401
      19.320000       0.112417       0.171398       0.140946
      19.330000       0.114431       0.172621       0.139602
      19.340000       0.116646       0.173598       0.138359
      19.350000       0.119045       0.174296       0.137194
      19.360000       0.121601       0.174730       0.136071
      19.370000       0.124282       0.174948       0.134948
      19.380000       0.127048       0.175009       0.133794
      19.390000       0.129848       0.174963       0.132591
      19.400000       0.132618       0.174832       0.131348
      19.410000       0.135273       0.174611       0.130098
      19.420000       0.137718       0.174282       0.128892
      19.430000       0.139845       0.173837       0.127798
      19.440000       0.141551       0.173291       0.126887
      19.450000       0.142746       0.172682       0.126223
      19.460000       0.143371       0.172059       0.125854
      19.470000       0.143402       0.171461       0.125805
      19.480000       0.142851       0.170893       0.126071
      19.490000       0.141762       0.170327       0.126626
      19.500000       0.140195       0.169699       0.127425
      19.510000       0.138222       0.168932       0.128420
      19.520000       0.135916       0.167958       0.129569
      19.530000       0.133352       0.166745       0.130849
      19.540000       0.130609       0.165306       0.132258
      19.550000       0.127771       0.163698       0.133817
      19.560000       0.124919       0.162013       0.135568
      19.570000       0.122135       0.160355       0.137561
      19.580000       0.119491       0.158824       0.139846
      19.590000       0.117045       0.157503       0.142452
      19.600000       0.114836       0.156455       0.145366
      19.610000       0.112886       0.155717       0.148520
      19.620000       0.111199       0.155307       0.151773
      19.630000       0.109767       0.155224       0.154917
      19.640000       0.108574       0.155455       0.157691
      19.650000       0.107597       0.155976       0.159820
      19.660000       0.106808       0.156759       0.161067
      19.670000       0.106175       0.157769       0.161284
      19.680000       0.105661       0.158968       0.160443
      19.690000       0.105233       0.160322       0.158647
      19.700000       0.104865       0.161808       0.156098
      19.710000       0.104544       0.163426       0.153060
      19.720000       0.104272       0.165208       0.149805
      19.730000       0.104062       0.167208       0.146586
      19.740000       0.103931       0.169492       0.143606
      19.750000       0.103897       0.172115       0.141014
      19.760000       0.103967       0.175102       0.138909
      19.770000       0.104132       0.178433       0.137350
      19.780000       0.104371       0.182043       0.136363
      19.790000       0.104656       0.185824       0.135955
      19.800000       0.104954       0.189642       0.136117
      19.810000       0.105241       0.193347       0.136825
      19.820000       0.105505       0.196784       0.138044
      19.830000       0.105747       0.199792       0.139719
      19.840000       0.105974       0.202218       0.141782
      19.850000       0.106197       0.203916       0.144154
      19.860000       0.106424       0.204762       0.146747
      19.870000       0.106660       0.204676       0.149473
      19.880000       0.106907       0.203636       0.152242
      19.890000       0.107164       0.201687       0.154959
      19.900000       0.107427       0.198948       0.157529
      19.910000       0.107689       0.195591       0.159852
      19.920000       0.107944       0.191829       0.161838
      19.930000       0.108191       0.187890       0.163411
      19.940000       0.108434       0.183991       0.164523
      19.950000       0.108690       0.180318       0.165166
      19.960000       0.108978       0.177020       0.165363
      19.970000       0.109316       0.174207       0.165172
      19.980000       0.109710       0.171951       0.164670
      19.990000       0.110155       0.170292       0.163941
      20.000000       0.110631       0.169245       0.163065
