  # energy grid [eV]     epsi_x  epsi_y  epsi_z
       0.000000            NaN            NaN            NaN
       0.010000       0.000098       0.000014       0.000151
       0.020000       0.000196       0.000027       0.000301
       0.030000       0.000295       0.000041       0.000452
       0.040000       0.000393       0.000055       0.000604
       0.050000       0.000491       0.000069       0.000756
       0.060000       0.000589       0.000082       0.000910
       0.070000       0.000688       0.000096       0.001064
       0.080000       0.000786       0.000110       0.001220
       0.090000       0.000884       0.000124       0.001377
       0.100000       0.000983       0.000137       0.001536
       0.110000       0.001081       0.000151       0.001696
       0.120000       0.001179       0.000165       0.001859
       0.130000       0.001278       0.000179       0.002025
       0.140000       0.001377       0.000192       0.002193
       0.150000       0.001475       0.000206       0.002364
       0.160000       0.001574       0.000220       0.002538
       0.170000       0.001672       0.000234       0.002716
       0.180000       0.001771       0.000248       0.002898
       0.190000       0.001870       0.000261       0.003084
       0.200000       0.001969       0.000275       0.003275
       0.210000       0.002068       0.000289       0.003472
       0.220000       0.002167       0.000303       0.003673
       0.230000       0.002266       0.000316       0.003881
       0.240000       0.002365       0.000330       0.004096
       0.250000       0.002465       0.000344       0.004318
       0.260000       0.002564       0.000358       0.004549
       0.270000       0.002664       0.000372       0.004788
       0.280000       0.002763       0.000386       0.005037
       0.290000       0.002863       0.000399       0.005296
       0.300000       0.002963       0.000413       0.005567
       0.310000       0.003063       0.000427       0.005851
       0.320000       0.003163       0.000441       0.006149
       0.330000       0.003263       0.000455       0.006463
       0.340000       0.003364       0.000469       0.006794
       0.350000       0.003464       0.000483       0.007144
       0.360000       0.003565       0.000496       0.007516
       0.370000       0.003665       0.000510       0.007911
       0.380000       0.003766       0.000524       0.008332
       0.390000       0.003867       0.000538       0.008782
       0.400000       0.003968       0.000552       0.009266
       0.410000       0.004070       0.000566       0.009785
       0.420000       0.004171       0.000580       0.010347
       0.430000       0.004273       0.000594       0.010954
       0.440000       0.004375       0.000608       0.011614
       0.450000       0.004477       0.000622       0.012334
       0.460000       0.004579       0.000636       0.013120
       0.470000       0.004681       0.000650       0.013983
       0.480000       0.004784       0.000664       0.014933
       0.490000       0.004887       0.000678       0.015982
       0.500000       0.004989       0.000692       0.017143
       0.510000       0.005093       0.000706       0.018433
       0.520000       0.005196       0.000720       0.019868
       0.530000       0.005299       0.000734       0.021469
       0.540000       0.005403       0.000748       0.023257
       0.550000       0.005507       0.000762       0.025255
       0.560000       0.005611       0.000776       0.027483
       0.570000       0.005716       0.000790       0.029963
       0.580000       0.005820       0.000805       0.032709
       0.590000       0.005925       0.000819       0.035722
       0.600000       0.006030       0.000833       0.038988
       0.610000       0.006136       0.000847       0.042464
       0.620000       0.006241       0.000861       0.046065
       0.630000       0.006347       0.000876       0.049660
       0.640000       0.006453       0.000890       0.053067
       0.650000       0.006560       0.000904       0.056058
       0.660000       0.006666       0.000918       0.058388
       0.670000       0.006773       0.000933       0.059839
       0.680000       0.006880       0.000947       0.060266
       0.690000       0.006988       0.000961       0.059638
       0.700000       0.007095       0.000975       0.058042
       0.710000       0.007203       0.000990       0.055666
       0.720000       0.007312       0.001004       0.052746
       0.730000       0.007420       0.001019       0.049523
       0.740000       0.007529       0.001033       0.046207
       0.750000       0.007639       0.001047       0.042956
       0.760000       0.007748       0.001062       0.039878
       0.770000       0.007858       0.001076       0.037037
       0.780000       0.007968       0.001091       0.034462
       0.790000       0.008079       0.001105       0.032159
       0.800000       0.008190       0.001120       0.030120
       0.810000       0.008301       0.001134       0.028328
       0.820000       0.008412       0.001149       0.026762
       0.830000       0.008524       0.001163       0.025400
       0.840000       0.008636       0.001178       0.024221
       0.850000       0.008749       0.001193       0.023204
       0.860000       0.008862       0.001207       0.022332
       0.870000       0.008975       0.001222       0.021588
       0.880000       0.009089       0.001237       0.020959
       0.890000       0.009203       0.001251       0.020432
       0.900000       0.009318       0.001266       0.019998
       0.910000       0.009433       0.001281       0.019646
       0.920000       0.009548       0.001296       0.019370
       0.930000       0.009664       0.001310       0.019164
       0.940000       0.009780       0.001325       0.019022
       0.950000       0.009897       0.001340       0.018940
       0.960000       0.010014       0.001355       0.018915
       0.970000       0.010131       0.001370       0.018944
       0.980000       0.010249       0.001385       0.019025
       0.990000       0.010367       0.001400       0.019158
       1.000000       0.010486       0.001415       0.019341
       1.010000       0.010606       0.001430       0.019576
       1.020000       0.010725       0.001445       0.019862
       1.030000       0.010845       0.001460       0.020202
       1.040000       0.010966       0.001475       0.020596
       1.050000       0.011087       0.001490       0.021049
       1.060000       0.011209       0.001505       0.021564
       1.070000       0.011331       0.001520       0.022144
       1.080000       0.011454       0.001536       0.022796
       1.090000       0.011577       0.001551       0.023526
       1.100000       0.011701       0.001566       0.024340
       1.110000       0.011825       0.001581       0.025249
       1.120000       0.011950       0.001597       0.026261
       1.130000       0.012075       0.001612       0.027390
       1.140000       0.012201       0.001628       0.028650
       1.150000       0.012327       0.001643       0.030056
       1.160000       0.012454       0.001658       0.031627
       1.170000       0.012582       0.001674       0.033386
       1.180000       0.012710       0.001689       0.035357
       1.190000       0.012839       0.001705       0.037568
       1.200000       0.012968       0.001721       0.040050
       1.210000       0.013098       0.001736       0.042840
       1.220000       0.013229       0.001752       0.045972
       1.230000       0.013360       0.001768       0.049485
       1.240000       0.013492       0.001783       0.053415
       1.250000       0.013624       0.001799       0.057789
       1.260000       0.013758       0.001815       0.062620
       1.270000       0.013891       0.001831       0.067896
       1.280000       0.014026       0.001847       0.073565
       1.290000       0.014161       0.001862       0.079515
       1.300000       0.014297       0.001878       0.085564
       1.310000       0.014433       0.001894       0.091443
       1.320000       0.014570       0.001910       0.096805
       1.330000       0.014708       0.001926       0.101257
       1.340000       0.014847       0.001943       0.104411
       1.350000       0.014986       0.001959       0.105965
       1.360000       0.015127       0.001975       0.105772
       1.370000       0.015268       0.001991       0.103872
       1.380000       0.015409       0.002007       0.100489
       1.390000       0.015552       0.002024       0.095970
       1.400000       0.015695       0.002040       0.090713
       1.410000       0.015839       0.002056       0.085097
       1.420000       0.015984       0.002073       0.079437
       1.430000       0.016129       0.002089       0.073966
       1.440000       0.016276       0.002106       0.068834
       1.450000       0.016423       0.002122       0.064126
       1.460000       0.016571       0.002139       0.059877
       1.470000       0.016720       0.002156       0.056087
       1.480000       0.016870       0.002172       0.052737
       1.490000       0.017021       0.002189       0.049795
       1.500000       0.017172       0.002206       0.047226
       1.510000       0.017325       0.002223       0.044993
       1.520000       0.017479       0.002240       0.043060
       1.530000       0.017633       0.002257       0.041395
       1.540000       0.017788       0.002274       0.039970
       1.550000       0.017945       0.002291       0.038757
       1.560000       0.018102       0.002308       0.037736
       1.570000       0.018260       0.002325       0.036887
       1.580000       0.018420       0.002342       0.036193
       1.590000       0.018580       0.002360       0.035641
       1.600000       0.018741       0.002377       0.035219
       1.610000       0.018904       0.002394       0.034918
       1.620000       0.019067       0.002412       0.034731
       1.630000       0.019232       0.002429       0.034652
       1.640000       0.019397       0.002447       0.034675
       1.650000       0.019564       0.002464       0.034799
       1.660000       0.019732       0.002482       0.035022
       1.670000       0.019901       0.002500       0.035344
       1.680000       0.020071       0.002517       0.035764
       1.690000       0.020242       0.002535       0.036287
       1.700000       0.020415       0.002553       0.036915
       1.710000       0.020588       0.002571       0.037654
       1.720000       0.020763       0.002589       0.038510
       1.730000       0.020939       0.002607       0.039490
       1.740000       0.021117       0.002625       0.040606
       1.750000       0.021295       0.002643       0.041869
       1.760000       0.021475       0.002661       0.043293
       1.770000       0.021656       0.002680       0.044896
       1.780000       0.021839       0.002698       0.046696
       1.790000       0.022023       0.002717       0.048717
       1.800000       0.022208       0.002735       0.050986
       1.810000       0.022395       0.002754       0.053534
       1.820000       0.022583       0.002772       0.056397
       1.830000       0.022772       0.002791       0.059614
       1.840000       0.022963       0.002810       0.063233
       1.850000       0.023155       0.002829       0.067304
       1.860000       0.023349       0.002848       0.071884
       1.870000       0.023545       0.002867       0.077030
       1.880000       0.023741       0.002886       0.082801
       1.890000       0.023940       0.002905       0.089249
       1.900000       0.024140       0.002924       0.096410
       1.910000       0.024342       0.002943       0.104295
       1.920000       0.024545       0.002963       0.112868
       1.930000       0.024750       0.002982       0.122027
       1.940000       0.024956       0.003002       0.131581
       1.950000       0.025165       0.003021       0.141233
       1.960000       0.025375       0.003041       0.150575
       1.970000       0.025586       0.003061       0.159108
       1.980000       0.025800       0.003081       0.166291
       1.990000       0.026015       0.003100       0.171610
       2.000000       0.026232       0.003120       0.174659
       2.010000       0.026452       0.003141       0.175207
       2.020000       0.026673       0.003161       0.173237
       2.030000       0.026895       0.003181       0.168946
       2.040000       0.027120       0.003201       0.162707
       2.050000       0.027347       0.003222       0.155011
       2.060000       0.027576       0.003242       0.146391
       2.070000       0.027807       0.003263       0.137351
       2.080000       0.028040       0.003284       0.128317
       2.090000       0.028275       0.003305       0.119611
       2.100000       0.028512       0.003326       0.111450
       2.110000       0.028752       0.003347       0.103958
       2.120000       0.028993       0.003368       0.097189
       2.130000       0.029237       0.003389       0.091146
       2.140000       0.029484       0.003410       0.085800
       2.150000       0.029732       0.003432       0.081105
       2.160000       0.029983       0.003453       0.077007
       2.170000       0.030237       0.003475       0.073449
       2.180000       0.030493       0.003497       0.070376
       2.190000       0.030751       0.003518       0.067738
       2.200000       0.031012       0.003540       0.065491
       2.210000       0.031275       0.003562       0.063594
       2.220000       0.031541       0.003585       0.062013
       2.230000       0.031810       0.003607       0.060719
       2.240000       0.032082       0.003629       0.059687
       2.250000       0.032356       0.003652       0.058897
       2.260000       0.032633       0.003674       0.058333
       2.270000       0.032913       0.003697       0.057982
       2.280000       0.033196       0.003720       0.057833
       2.290000       0.033482       0.003743       0.057880
       2.300000       0.033771       0.003766       0.058120
       2.310000       0.034063       0.003790       0.058552
       2.320000       0.034359       0.003813       0.059176
       2.330000       0.034657       0.003836       0.059997
       2.340000       0.034959       0.003860       0.061023
       2.350000       0.035264       0.003884       0.062264
       2.360000       0.035572       0.003908       0.063733
       2.370000       0.035884       0.003932       0.065447
       2.380000       0.036200       0.003956       0.067427
       2.390000       0.036519       0.003981       0.069697
       2.400000       0.036841       0.004005       0.072286
       2.410000       0.037168       0.004030       0.075231
       2.420000       0.037498       0.004054       0.078571
       2.430000       0.037832       0.004079       0.082353
       2.440000       0.038170       0.004105       0.086632
       2.450000       0.038512       0.004130       0.091466
       2.460000       0.038859       0.004155       0.096923
       2.470000       0.039209       0.004181       0.103074
       2.480000       0.039564       0.004207       0.109993
       2.490000       0.039923       0.004233       0.117750
       2.500000       0.040287       0.004259       0.126403
       2.510000       0.040655       0.004285       0.135988
       2.520000       0.041028       0.004312       0.146499
       2.530000       0.041405       0.004338       0.157868
       2.540000       0.041788       0.004365       0.169943
       2.550000       0.042175       0.004392       0.182470
       2.560000       0.042568       0.004419       0.195083
       2.570000       0.042966       0.004447       0.207323
       2.580000       0.043369       0.004474       0.218670
       2.590000       0.043777       0.004502       0.228603
       2.600000       0.044191       0.004530       0.236652
       2.610000       0.044611       0.004558       0.242451
       2.620000       0.045036       0.004587       0.245760
       2.630000       0.045468       0.004616       0.246466
       2.640000       0.045905       0.004644       0.244584
       2.650000       0.046349       0.004674       0.240236
       2.660000       0.046799       0.004703       0.233651
       2.670000       0.047256       0.004733       0.225152
       2.680000       0.047719       0.004762       0.215143
       2.690000       0.048189       0.004793       0.204085
       2.700000       0.048666       0.004823       0.192459
       2.710000       0.049151       0.004853       0.180718
       2.720000       0.049642       0.004884       0.169248
       2.730000       0.050142       0.004915       0.158348
       2.740000       0.050649       0.004947       0.148218
       2.750000       0.051164       0.004979       0.138970
       2.760000       0.051687       0.005011       0.130646
       2.770000       0.052218       0.005043       0.123238
       2.780000       0.052758       0.005075       0.116705
       2.790000       0.053307       0.005108       0.110987
       2.800000       0.053865       0.005141       0.106018
       2.810000       0.054432       0.005175       0.101729
       2.820000       0.055009       0.005209       0.098055
       2.830000       0.055596       0.005243       0.094938
       2.840000       0.056193       0.005277       0.092324
       2.850000       0.056800       0.005312       0.090167
       2.860000       0.057418       0.005348       0.088430
       2.870000       0.058046       0.005383       0.087079
       2.880000       0.058687       0.005419       0.086089
       2.890000       0.059338       0.005456       0.085439
       2.900000       0.060002       0.005492       0.085113
       2.910000       0.060678       0.005530       0.085103
       2.920000       0.061367       0.005567       0.085402
       2.930000       0.062069       0.005605       0.086011
       2.940000       0.062785       0.005644       0.086934
       2.950000       0.063515       0.005683       0.088180
       2.960000       0.064259       0.005723       0.089762
       2.970000       0.065018       0.005763       0.091701
       2.980000       0.065793       0.005803       0.094020
       2.990000       0.066583       0.005844       0.096749
       3.000000       0.067390       0.005886       0.099926
       3.010000       0.068214       0.005928       0.103592
       3.020000       0.069056       0.005970       0.107795
       3.030000       0.069916       0.006014       0.112591
       3.040000       0.070795       0.006058       0.118036
       3.050000       0.071693       0.006102       0.124195
       3.060000       0.072612       0.006147       0.131128
       3.070000       0.073552       0.006193       0.138896
       3.080000       0.074514       0.006240       0.147547
       3.090000       0.075498       0.006287       0.157111
       3.100000       0.076506       0.006335       0.167583
       3.110000       0.077539       0.006384       0.178908
       3.120000       0.078597       0.006434       0.190954
       3.130000       0.079682       0.006484       0.203501
       3.140000       0.080795       0.006536       0.216230
       3.150000       0.081936       0.006588       0.228739
       3.160000       0.083107       0.006641       0.240575
       3.170000       0.084310       0.006696       0.251287
       3.180000       0.085545       0.006751       0.260472
       3.190000       0.086815       0.006807       0.267813
       3.200000       0.088120       0.006865       0.273095
       3.210000       0.089463       0.006923       0.276195
       3.220000       0.090845       0.006983       0.277071
       3.230000       0.092267       0.007045       0.275748
       3.240000       0.093733       0.007107       0.272307
       3.250000       0.095244       0.007171       0.266888
       3.260000       0.096803       0.007237       0.259701
       3.270000       0.098411       0.007304       0.251024
       3.280000       0.100071       0.007373       0.241210
       3.290000       0.101787       0.007443       0.230655
       3.300000       0.103561       0.007515       0.219774
       3.310000       0.105397       0.007590       0.208945
       3.320000       0.107297       0.007666       0.198486
       3.330000       0.109266       0.007744       0.188630
       3.340000       0.111308       0.007825       0.179526
       3.350000       0.113426       0.007908       0.171257
       3.360000       0.115627       0.007994       0.163858
       3.370000       0.117913       0.008083       0.157330
       3.380000       0.120293       0.008174       0.151657
       3.390000       0.122770       0.008269       0.146813
       3.400000       0.125353       0.008367       0.142765
       3.410000       0.128047       0.008468       0.139479
       3.420000       0.130861       0.008574       0.136919
       3.430000       0.133803       0.008683       0.135053
       3.440000       0.136883       0.008797       0.133854
       3.450000       0.140111       0.008916       0.133299
       3.460000       0.143498       0.009040       0.133373
       3.470000       0.147056       0.009169       0.134070
       3.480000       0.150799       0.009304       0.135392
       3.490000       0.154744       0.009446       0.137350
       3.500000       0.158905       0.009596       0.139965
       3.510000       0.163303       0.009752       0.143269
       3.520000       0.167957       0.009918       0.147304
       3.530000       0.172893       0.010092       0.152122
       3.540000       0.178134       0.010277       0.157784
       3.550000       0.183712       0.010473       0.164362
       3.560000       0.189659       0.010682       0.171931
       3.570000       0.196012       0.010904       0.180566
       3.580000       0.202813       0.011142       0.190338
       3.590000       0.210110       0.011396       0.201295
       3.600000       0.217958       0.011669       0.213449
       3.610000       0.226418       0.011964       0.226755
       3.620000       0.235559       0.012282       0.241090
       3.630000       0.245463       0.012626       0.256230
       3.640000       0.256221       0.013001       0.271849
       3.650000       0.267939       0.013409       0.287529
       3.660000       0.280735       0.013855       0.302797
       3.670000       0.294748       0.014344       0.317181
       3.680000       0.310133       0.014882       0.330261
       3.690000       0.327069       0.015476       0.341710
       3.700000       0.345754       0.016131       0.351314
       3.710000       0.366412       0.016858       0.358961
       3.720000       0.389287       0.017663       0.364623
       3.730000       0.414640       0.018557       0.368325
       3.740000       0.442737       0.019547       0.370116
       3.750000       0.473836       0.020641       0.370048
       3.760000       0.508158       0.021844       0.368155
       3.770000       0.545846       0.023155       0.364460
       3.780000       0.586913       0.024569       0.358979
       3.790000       0.631184       0.026068       0.351752
       3.800000       0.678232       0.027623       0.342874
       3.810000       0.727346       0.029189       0.332535
       3.820000       0.777540       0.030710       0.321035
       3.830000       0.827622       0.032122       0.308777
       3.840000       0.876318       0.033363       0.296231
       3.850000       0.922375       0.034377       0.283873
       3.860000       0.964621       0.035123       0.272131
       3.870000       1.001921       0.035577       0.261349
       3.880000       1.033113       0.035729       0.251769
       3.890000       1.056989       0.035582       0.243537
       3.900000       1.072408       0.035155       0.236728
       3.910000       1.078509       0.034485       0.231363
       3.920000       1.074967       0.033624       0.227430
       3.930000       1.062196       0.032640       0.224907
       3.940000       1.041418       0.031600       0.223766
       3.950000       1.014572       0.030569       0.223990
       3.960000       0.984054       0.029599       0.225571
       3.970000       0.952376       0.028729       0.228517
       3.980000       0.921856       0.027987       0.232854
       3.990000       0.894402       0.027389       0.238617
       4.000000       0.871436       0.026943       0.245855
       4.010000       0.853923       0.026651       0.254620
       4.020000       0.842445       0.026515       0.264955
       4.030000       0.837293       0.026530       0.276883
       4.040000       0.838540       0.026696       0.290383
       4.050000       0.846082       0.027006       0.305366
       4.060000       0.859639       0.027454       0.321656
       4.070000       0.878733       0.028033       0.338967
       4.080000       0.902648       0.028727       0.356912
       4.090000       0.930392       0.029520       0.375025
       4.100000       0.960711       0.030388       0.392808
       4.110000       0.992177       0.031306       0.409798
       4.120000       1.023372       0.032249       0.425611
       4.130000       1.053121       0.033198       0.439980
       4.140000       1.080724       0.034146       0.452749
       4.150000       1.106046       0.035094       0.463861
       4.160000       1.129470       0.036055       0.473332
       4.170000       1.151717       0.037047       0.481218
       4.180000       1.173642       0.038082       0.487592
       4.190000       1.196062       0.039166       0.492528
       4.200000       1.219644       0.040291       0.496085
       4.210000       1.244820       0.041433       0.498304
       4.220000       1.271744       0.042553       0.499196
       4.230000       1.300291       0.043601       0.498743
       4.240000       1.330109       0.044521       0.496897
       4.250000       1.360701       0.045259       0.493600
       4.260000       1.391502       0.045769       0.488821
       4.270000       1.421937       0.046026       0.482605
       4.280000       1.451458       0.046029       0.475122
       4.290000       1.479551       0.045805       0.466695
       4.300000       1.505725       0.045412       0.457790
       4.310000       1.529482       0.044925       0.448971
       4.320000       1.550337       0.044429       0.440832
       4.330000       1.567952       0.044005       0.433938
       4.340000       1.582375       0.043720       0.428768
       4.350000       1.594280       0.043622       0.425692
       4.360000       1.605050       0.043737       0.424953
       4.370000       1.616617       0.044072       0.426673
       4.380000       1.631110       0.044615       0.430868
       4.390000       1.650438       0.045332       0.437463
       4.400000       1.675980       0.046177       0.446322
       4.410000       1.708457       0.047090       0.457266
       4.420000       1.747989       0.048010       0.470086
       4.430000       1.794277       0.048887       0.484534
       4.440000       1.846808       0.049688       0.500311
       4.450000       1.904999       0.050409       0.517055
       4.460000       1.968221       0.051069       0.534357
       4.470000       2.035735       0.051701       0.551795
       4.480000       2.106603       0.052337       0.568989
       4.490000       2.179604       0.053001       0.585643
       4.500000       2.253157       0.053699       0.601556
       4.510000       2.325242       0.054424       0.616617
       4.520000       2.393332       0.055163       0.630778
       4.530000       2.454437       0.055906       0.644017
       4.540000       2.505320       0.056653       0.656318
       4.550000       2.542913       0.057421       0.667644
       4.560000       2.564893       0.058240       0.677939
       4.570000       2.570213       0.059143       0.687121
       4.580000       2.559388       0.060165       0.695090
       4.590000       2.534330       0.061323       0.701728
       4.600000       2.497791       0.062621       0.706897
       4.610000       2.452657       0.064036       0.710431
       4.620000       2.401421       0.065528       0.712147
       4.630000       2.345985       0.067039       0.711860
       4.640000       2.287736       0.068500       0.709442
       4.650000       2.227728       0.069838       0.704877
       4.660000       2.166836       0.070980       0.698342
       4.670000       2.105859       0.071862       0.690250
       4.680000       2.045603       0.072443       0.681258
       4.690000       1.986952       0.072710       0.672221
       4.700000       1.930914       0.072685       0.664103
       4.710000       1.878570       0.072428       0.657858
       4.720000       1.830942       0.072016       0.654332
       4.730000       1.788772       0.071531       0.654180
       4.740000       1.752331       0.071035       0.657824
       4.750000       1.721325       0.070556       0.665428
       4.760000       1.694968       0.070086       0.676903
       4.770000       1.672217       0.069583       0.691922
       4.780000       1.652079       0.068991       0.709959
       4.790000       1.633898       0.068259       0.730353
       4.800000       1.617510       0.067363       0.752393
       4.810000       1.603219       0.066314       0.775406
       4.820000       1.591602       0.065166       0.798815
       4.830000       1.583205       0.063999       0.822165
       4.840000       1.578254       0.062908       0.845101
       4.850000       1.576457       0.061987       0.867332
       4.860000       1.577001       0.061314       0.888577
       4.870000       1.578759       0.060950       0.908528
       4.880000       1.580650       0.060938       0.926830
       4.890000       1.582038       0.061300       0.943096
       4.900000       1.582988       0.062041       0.956938
       4.910000       1.584267       0.063151       0.968034
       4.920000       1.587083       0.064594       0.976214
       4.930000       1.592689       0.066314       0.981543
       4.940000       1.602029       0.068227       0.984390
       4.950000       1.615526       0.070221       0.985446
       4.960000       1.633105       0.072166       0.985662
       4.970000       1.654392       0.073928       0.986126
       4.980000       1.679027       0.075396       0.987890
       4.990000       1.706945       0.076502       0.991825
       5.000000       1.738508       0.077233       0.998505
       5.010000       1.774408       0.077634       1.008152
       5.020000       1.815376       0.077778       1.020618
       5.030000       1.861823       0.077750       1.035398
       5.040000       1.913521       0.077620       1.051667
       5.050000       1.969437       0.077441       1.068343
       5.060000       2.027744       0.077252       1.084180
       5.070000       2.086001       0.077089       1.097874
       5.080000       2.141502       0.076996       1.108188
       5.090000       2.191725       0.077025       1.114082
       5.100000       2.234810       0.077230       1.114840
       5.110000       2.269878       0.077654       1.110153
       5.120000       2.297015       0.078312       1.100118
       5.130000       2.316855       0.079191       1.085140
       5.140000       2.329941       0.080237       1.065752
       5.150000       2.336168       0.081364       1.042441
       5.160000       2.334633       0.082465       1.015555
       5.170000       2.323981       0.083436       0.985349
       5.180000       2.303128       0.084201       0.952126
       5.190000       2.272012       0.084737       0.916402
       5.200000       2.232030       0.085077       0.878978
       5.210000       2.185971       0.085310       0.840893
       5.220000       2.137499       0.085553       0.803275
       5.230000       2.090428       0.085930       0.767167
       5.240000       2.048033       0.086543       0.733400
       5.250000       2.012600       0.087463       0.702545
       5.260000       1.985238       0.088718       0.674929
       5.270000       1.965947       0.090295       0.650683
       5.280000       1.953880       0.092154       0.629801
       5.290000       1.947741       0.094236       0.612179
       5.300000       1.946241       0.096485       0.597633
       5.310000       1.948464       0.098862       0.585909
       5.320000       1.954021       0.101343       0.576686
       5.330000       1.962929       0.103918       0.569579
       5.340000       1.975261       0.106565       0.564161
       5.350000       1.990756       0.109237       0.560011
       5.360000       2.008565       0.111852       0.556767
       5.370000       2.027261       0.114303       0.554192
       5.380000       2.045140       0.116479       0.552205
       5.390000       2.060719       0.118301       0.550888
       5.400000       2.073230       0.119743       0.550442
       5.410000       2.082911       0.120847       0.551138
       5.420000       2.090957       0.121711       0.553249
       5.430000       2.099133       0.122467       0.557006
       5.440000       2.109216       0.123245       0.562565
       5.450000       2.122451       0.124137       0.570005
       5.460000       2.139196       0.125165       0.579337
       5.470000       2.158841       0.126267       0.590529
       5.480000       2.180018       0.127299       0.603535
       5.490000       2.201018       0.128054       0.618323
       5.500000       2.220297       0.128299       0.634894
       5.510000       2.236906       0.127823       0.653294
       5.520000       2.250725       0.126484       0.673617
       5.530000       2.262416       0.124248       0.695989
       5.540000       2.273131       0.121200       0.720551
       5.550000       2.284040       0.117526       0.747430
       5.560000       2.295851       0.113476       0.776708
       5.570000       2.308481       0.109309       0.808401
       5.580000       2.321023       0.105263       0.842440
       5.590000       2.332064       0.101522       0.878655
       5.600000       2.340245       0.098220       0.916764
       5.610000       2.344848       0.095440       0.956376
       5.620000       2.346143       0.093229       0.997024
       5.630000       2.345335       0.091610       1.038247
       5.640000       2.344161       0.090588       1.079700
       5.650000       2.344336       0.090156       1.121248
       5.660000       2.347096       0.090305       1.163019
       5.670000       2.353011       0.091024       1.205377
       5.680000       2.362117       0.092299       1.248863
       5.690000       2.374280       0.094120       1.294111
       5.700000       2.389632       0.096477       1.341766
       5.710000       2.408863       0.099355       1.392361
       5.720000       2.433246       0.102728       1.446176
       5.730000       2.464409       0.106550       1.503107
       5.740000       2.503985       0.110747       1.562611
       5.750000       2.553313       0.115209       1.623809
       5.760000       2.613301       0.119803       1.685705
       5.770000       2.684472       0.124381       1.747466
       5.780000       2.767121       0.128804       1.808632
       5.790000       2.861485       0.132963       1.869165
       5.800000       2.967799       0.136774       1.929322
       5.810000       3.086198       0.140166       1.989411
       5.820000       3.216524       0.143054       2.049550
       5.830000       3.358161       0.145323       2.109495
       5.840000       3.510053       0.146834       2.168592
       5.850000       3.670944       0.147463       2.225832
       5.860000       3.839775       0.147154       2.279970
       5.870000       4.016041       0.145953       2.329662
       5.880000       4.199931       0.144020       2.373604
       5.890000       4.392177       0.141600       2.410678
       5.900000       4.593717       0.138971       2.440111
       5.910000       4.805338       0.136390       2.461639
       5.920000       5.027412       0.134061       2.475586
       5.930000       5.259762       0.132116       2.482806
       5.940000       5.501604       0.130625       2.484467
       5.950000       5.751535       0.129600       2.481812
       5.960000       6.007532       0.129020       2.476011
       5.970000       6.266928       0.128838       2.468165
       5.980000       6.526414       0.129000       2.459396
       5.990000       6.782024       0.129459       2.450891
       6.000000       7.029131       0.130189       2.443807
       6.010000       7.262440       0.131195       2.439052
       6.020000       7.476069       0.132513       2.437017
       6.030000       7.663826       0.134202       2.437371
       6.040000       7.819796       0.136315       2.439013
       6.050000       7.939212       0.138885       2.440214
       6.060000       8.019373       0.141894       2.438957
       6.070000       8.060250       0.145256       2.433404
       6.080000       8.064431       0.148809       2.422374
       6.090000       8.036361       0.152313       2.405682
       6.100000       7.981187       0.155483       2.384229
       6.110000       7.903699       0.158028       2.359806
       6.120000       7.807743       0.159704       2.334692
       6.130000       7.696140       0.160364       2.311172
       6.140000       7.570893       0.159987       2.291121
       6.150000       7.433467       0.158679       2.275757
       6.160000       7.285066       0.156649       2.265556
       6.170000       7.126986       0.154172       2.260303
       6.180000       6.961061       0.151542       2.259210
       6.190000       6.790070       0.149024       2.261081
       6.200000       6.617862       0.146828       2.264503
       6.210000       6.449037       0.145082       2.268033
       6.220000       6.288238       0.143828       2.270349
       6.230000       6.139359       0.143029       2.270362
       6.240000       6.004981       0.142589       2.267303
       6.250000       5.886224       0.142383       2.260813
       6.260000       5.782982       0.142298       2.251014
       6.270000       5.694372       0.142262       2.238515
       6.280000       5.619202       0.142273       2.224319
       6.290000       5.556311       0.142389       2.209611
       6.300000       5.504726       0.142712       2.195512
       6.310000       5.463638       0.143353       2.182897
       6.320000       5.432219       0.144402       2.172322
       6.330000       5.409377       0.145908       2.164099
       6.340000       5.393515       0.147865       2.158467
       6.350000       5.382349       0.150203       2.155791
       6.360000       5.372851       0.152784       2.156680
       6.370000       5.361341       0.155407       2.161961
       6.380000       5.343797       0.157827       2.172492
       6.390000       5.316378       0.159794       2.188877
       6.400000       5.276080       0.161102       2.211214
       6.410000       5.221344       0.161630       2.238975
       6.420000       5.152351       0.161366       2.271061
       6.430000       5.070869       0.160390       2.306016
       6.440000       4.979629       0.158836       2.342311
       6.450000       4.881490       0.156845       2.378618
       6.460000       4.778715       0.154538       2.414000
       6.470000       4.672671       0.152009       2.448014
       6.480000       4.564018       0.149343       2.480741
       6.490000       4.453243       0.146631       2.512783
       6.500000       4.341201       0.143982       2.545259
       6.510000       4.229418       0.141518       2.579796
       6.520000       4.120077       0.139357       2.618488
       6.530000       4.015803       0.137604       2.663790
       6.540000       3.919413       0.136332       2.718298
       6.550000       3.833683       0.135583       2.784401
       6.560000       3.761107       0.135368       2.863874
       6.570000       3.703625       0.135671       2.957487
       6.580000       3.662340       0.136458       3.064708
       6.590000       3.637329       0.137691       3.183562
       6.600000       3.627623       0.139342       3.310655
       6.610000       3.631390       0.141409       3.441377
       6.620000       3.646271       0.143924       3.570270
       6.630000       3.669767       0.146955       3.691555
       6.640000       3.699538       0.150589       3.799707
       6.650000       3.733548       0.154916       3.889978
       6.660000       3.770052       0.160002       3.958749
       6.670000       3.807488       0.165871       4.003704
       6.680000       3.844340       0.172480       4.023854
       6.690000       3.878990       0.179706       4.019479
       6.700000       3.909528       0.187329       3.991977
       6.710000       3.933597       0.195034       3.943629
       6.720000       3.948355       0.202437       3.877305
       6.730000       3.950688       0.209124       3.796198
       6.740000       3.937726       0.214722       3.703657
       6.750000       3.907543       0.218960       3.603115
       6.760000       3.859817       0.221721       3.498084
       6.770000       3.796182       0.223049       3.392147
       6.780000       3.720084       0.223121       3.288889
       6.790000       3.636147       0.222197       3.191759
       6.800000       3.549258       0.220562       3.103880
       6.810000       3.463645       0.218474       3.027837
       6.820000       3.382193       0.216142       2.965461
       6.830000       3.306153       0.213709       2.917655
       6.840000       3.235272       0.211270       2.884268
       6.850000       3.168308       0.208882       2.864080
       6.860000       3.103796       0.206589       2.854898
       6.870000       3.040844       0.204438       2.853759
       6.880000       2.979675       0.202477       2.857232
       6.890000       2.921742       0.200751       2.861748
       6.900000       2.869413       0.199293       2.863933
       6.910000       2.825438       0.198123       2.860883
       6.920000       2.792405       0.197258       2.850337
       6.930000       2.772340       0.196721       2.830745
       6.940000       2.766455       0.196546       2.801276
       6.950000       2.774972       0.196765       2.761854
       6.960000       2.796980       0.197379       2.713220
       6.970000       2.830339       0.198337       2.656972
       6.980000       2.871658       0.199512       2.595436
       6.990000       2.916496       0.200718       2.531357
       7.000000       2.959820       0.201732       2.467445
       7.010000       2.996788       0.202348       2.405962
       7.020000       3.023698       0.202432       2.348451
       7.030000       3.038851       0.201957       2.295683
       7.040000       3.043010       0.201023       2.247769
       7.050000       3.039236       0.199831       2.204368
       7.060000       3.032158       0.198642       2.164919
       7.070000       3.026934       0.197721       2.128858
       7.080000       3.028247       0.197289       2.095803
       7.090000       3.039589       0.197498       2.065649
       7.100000       3.062888       0.198408       2.038586
       7.110000       3.098434       0.200001       2.015015
       7.120000       3.144962       0.202182       1.995428
       7.130000       3.199807       0.204819       1.980280
       7.140000       3.259071       0.207771       1.969902
       7.150000       3.317827       0.210936       1.964465
       7.160000       3.370415       0.214282       1.963999
       7.170000       3.410925       0.217856       1.968435
       7.180000       3.433898       0.221763       1.977636
       7.190000       3.435213       0.226124       1.991354
       7.200000       3.412944       0.231024       2.009090
       7.210000       3.367868       0.236459       2.029866
       7.220000       3.303360       0.242303       2.051994
       7.230000       3.224645       0.248303       2.072979
       7.240000       3.137687       0.254091       2.089651
       7.250000       3.048124       0.259223       2.098584
       7.260000       2.960551       0.263258       2.096726
       7.270000       2.878242       0.265830       2.082034
       7.280000       2.803220       0.266732       2.053933
       7.290000       2.736516       0.265964       2.013429
       7.300000       2.678485       0.263741       1.962880
       7.310000       2.629119       0.260447       1.905513
       7.320000       2.588304       0.256563       1.844827
       7.330000       2.556006       0.252584       1.784055
       7.340000       2.532324       0.248950       1.725798
       7.350000       2.517392       0.246012       1.671888
       7.360000       2.511176       0.244013       1.623457
       7.370000       2.513262       0.243102       1.581118
       7.380000       2.522772       0.243345       1.545164
       7.390000       2.538473       0.244749       1.515708
       7.400000       2.559051       0.247277       1.492749
       7.410000       2.583429       0.250878       1.476182
       7.420000       2.610990       0.255498       1.465778
       7.430000       2.641596       0.261105       1.461160
       7.440000       2.675426       0.267694       1.461793
       7.450000       2.712745       0.275298       1.467009
       7.460000       2.753685       0.283976       1.476061
       7.470000       2.798115       0.293812       1.488200
       7.480000       2.845614       0.304903       1.502717
       7.490000       2.895570       0.317356       1.518949
       7.500000       2.947420       0.331292       1.536238
       7.510000       3.000961       0.346844       1.553892
       7.520000       3.056579       0.364163       1.571170
       7.530000       3.115226       0.383399       1.587309
       7.540000       3.178115       0.404683       1.601584
       7.550000       3.246233       0.428070       1.613385
       7.560000       3.319892       0.453486       1.622254
       7.570000       3.398522       0.480667       1.627862
       7.580000       3.480798       0.509124       1.629913
       7.590000       3.565030       0.538135       1.628043
       7.600000       3.649654       0.566813       1.621818
       7.610000       3.733594       0.594217       1.610867
       7.620000       3.816370       0.619514       1.595082
       7.630000       3.897948       0.642128       1.574775
       7.640000       3.978431       0.661813       1.550680
       7.650000       4.057704       0.678654       1.523797
       7.660000       4.135096       0.692973       1.495170
       7.670000       4.209111       0.705226       1.465709
       7.680000       4.277262       0.715923       1.436136
       7.690000       4.336103       0.725595       1.407041
       7.700000       4.381561       0.734786       1.378977
       7.710000       4.409599       0.744032       1.352514
       7.720000       4.417097       0.753798       1.328216
       7.730000       4.402669       0.764415       1.306567
       7.740000       4.367086       0.776020       1.287892
       7.750000       4.313102       0.788550       1.272334
       7.760000       4.244791       0.801772       1.259904
       7.770000       4.166686       0.815341       1.250584
       7.780000       4.082998       0.828847       1.244409
       7.790000       3.997066       0.841831       1.241499
       7.800000       3.911073       0.853778       1.241987
       7.810000       3.826035       0.864116       1.245883
       7.820000       3.742060       0.872250       1.252928
       7.830000       3.658820       0.877650       1.262467
       7.840000       3.576082       0.879942       1.273429
       7.850000       3.494138       0.878983       1.284398
       7.860000       3.414028       0.874879       1.293816
       7.870000       3.337513       0.867935       1.300270
       7.880000       3.266875       0.858587       1.302809
       7.890000       3.204640       0.847348       1.301172
       7.900000       3.153295       0.834798       1.295840
       7.910000       3.115040       0.821593       1.287881
       7.920000       3.091538       0.808460       1.278654
       7.930000       3.083659       0.796145       1.269493
       7.940000       3.091214       0.785333       1.261486
       7.950000       3.112725       0.776578       1.255398
       7.960000       3.145289       0.770294       1.251718
       7.970000       3.184629       0.766777       1.250737
       7.980000       3.225405       0.766252       1.252586
       7.990000       3.261844       0.768895       1.257179
       8.000000       3.288640       0.774825       1.264094
       8.010000       3.301936       0.784073       1.272475
       8.020000       3.300108       0.796543       1.281026
       8.030000       3.284073       0.811986       1.288172
       8.040000       3.256983       0.829974       1.292359
       8.050000       3.223429       0.849897       1.292408
       8.060000       3.188454       0.870990       1.287809
       8.070000       3.156688       0.892405       1.278832
       8.080000       3.131820       0.913303       1.266449
       8.090000       3.116418       0.932934       1.252084
       8.100000       3.111990       0.950663       1.237308
       8.110000       3.119148       0.965966       1.223579
       8.120000       3.137735       0.978401       1.212064
       8.130000       3.166886       0.987630       1.203582
       8.140000       3.205029       0.993440       1.198621
       8.150000       3.249938       0.995773       1.197394
       8.160000       3.298911       0.994722       1.199888
       8.170000       3.349147       0.990499       1.205882
       8.180000       3.398288       0.983404       1.214948
       8.190000       3.444983       0.973795       1.226446
       8.200000       3.489250       0.962077       1.239547
       8.210000       3.532466       0.948696       1.253261
       8.220000       3.576930       0.934123       1.266474
       8.230000       3.625128       0.918826       1.277971
       8.240000       3.678951       0.903230       1.286465
       8.250000       3.739064       0.887686       1.290676
       8.260000       3.804605       0.872492       1.289499
       8.270000       3.873203       0.857925       1.282246
       8.280000       3.941265       0.844290       1.268872
       8.290000       4.004440       0.831949       1.250064
       8.300000       4.058198       0.821331       1.227145
       8.310000       4.098503       0.812938       1.201833
       8.320000       4.122527       0.807341       1.175946
       8.330000       4.129265       0.805155       1.151157
       8.340000       4.119863       0.806996       1.128838
       8.350000       4.097514       0.813419       1.110002
       8.360000       4.066955       0.824852       1.095296
       8.370000       4.033697       0.841515       1.085047
       8.380000       4.003205       0.863349       1.079305
       8.390000       3.980224       0.889948       1.077890
       8.400000       3.968331       0.920499       1.080412
       8.410000       3.969719       0.953775       1.086292
       8.420000       3.985124       0.988191       1.094788
       8.430000       4.013816       1.021944       1.105073
       8.440000       4.053627       1.053224       1.116323
       8.450000       4.101064       1.080439       1.127846
       8.460000       4.151593       1.102400       1.139180
       8.470000       4.200138       1.118427       1.150165
       8.480000       4.241763       1.128365       1.160939
       8.490000       4.272368       1.132545       1.171842
       8.500000       4.289226       1.131715       1.183264
       8.510000       4.291230       1.126936       1.195470
       8.520000       4.278823       1.119458       1.208485
       8.530000       4.253703       1.110565       1.222080
       8.540000       4.218380       1.101400       1.235867
       8.550000       4.175687       1.092798       1.249444
       8.560000       4.128356       1.085194       1.262523
       8.570000       4.078778       1.078638       1.274957
       8.580000       4.028959       1.072900       1.286690
       8.590000       3.980569       1.067622       1.297653
       8.600000       3.934926       1.062443       1.307702
       8.610000       3.892843       1.057067       1.316621
       8.620000       3.854398       1.051297       1.324200
       8.630000       3.818780       1.045073       1.330335
       8.640000       3.784311       1.038535       1.335106
       8.650000       3.748653       1.032070       1.338801
       8.660000       3.709165       1.026300       1.341867
       8.670000       3.663323       1.021973       1.344825
       8.680000       3.609207       1.019797       1.348122
       8.690000       3.545953       1.020266       1.351987
       8.700000       3.474063       1.023533       1.356310
       8.710000       3.395425       1.029349       1.360609
       8.720000       3.312994       1.037093       1.364107
       8.730000       3.230246       1.045871       1.365908
       8.740000       3.150587       1.054666       1.365204
       8.750000       3.076872       1.062523       1.361466
       8.760000       3.011090       1.068687       1.354540
       8.770000       2.954203       1.072681       1.344668
       8.780000       2.906130       1.074272       1.332419
       8.790000       2.865850       1.073344       1.318581
       8.800000       2.831652       1.069737       1.304034
       8.810000       2.801496       1.063166       1.289642
       8.820000       2.773479       1.053274       1.276179
       8.830000       2.746299       1.039821       1.264275
       8.840000       2.719623       1.022923       1.254376
       8.850000       2.694243       1.003204       1.246716
       8.860000       2.671933       0.981785       1.241325
       8.870000       2.655047       0.960111       1.238061
       8.880000       2.645977       0.939684       1.236682
       8.890000       2.646627       0.921814       1.236912
       8.900000       2.658015       0.907444       1.238484
       8.910000       2.680010       0.897090       1.241152
       8.920000       2.711221       0.890854       1.244702
       8.930000       2.749030       0.888524       1.248977
       8.940000       2.789838       0.889694       1.253918
       8.950000       2.829519       0.893912       1.259609
       8.960000       2.864069       0.900785       1.266286
       8.970000       2.890269       0.910046       1.274307
       8.980000       2.906192       0.921551       1.284079
       8.990000       2.911354       0.935222       1.295965
       9.000000       2.906508       0.950973       1.310194
       9.010000       2.893135       0.968637       1.326810
       9.020000       2.872881       0.987923       1.345664
       9.030000       2.847122       1.008400       1.366477
       9.040000       2.816853       1.029496       1.388952
       9.050000       2.782857       1.050516       1.412906
       9.060000       2.746016       1.070692       1.438366
       9.070000       2.707498       1.089261       1.465590
       9.080000       2.668682       1.105599       1.494969
       9.090000       2.630854       1.119362       1.526854
       9.100000       2.594848       1.130569       1.561364
       9.110000       2.560810       1.139589       1.598260
       9.120000       2.528181       1.147025       1.636936
       9.130000       2.495860       1.153540       1.676547
       9.140000       2.462450       1.159693       1.716232
       9.150000       2.426532       1.165857       1.755344
       9.160000       2.386948       1.172243       1.793616
       9.170000       2.343070       1.178987       1.831200
       9.180000       2.295010       1.186243       1.868592
       9.190000       2.243645       1.194205       1.906469
       9.200000       2.190417       1.203039       1.945499
       9.210000       2.136960       1.212764       1.986179
       9.220000       2.084686       1.223158       2.028724
       9.230000       2.034512       1.233742       2.073052
       9.240000       1.986814       1.243874       2.118846
       9.250000       1.941591       1.252910       2.165672
       9.260000       1.898733       1.260376       2.213124
       9.270000       1.858267       1.266076       2.260917
       9.280000       1.820464       1.270108       2.308961
       9.290000       1.785809       1.272785       2.357378
       9.300000       1.754861       1.274489       2.406514
       9.310000       1.728098       1.275525       2.456935
       9.320000       1.705803       1.275991       2.509408
       9.330000       1.688031       1.275721       2.564848
       9.340000       1.674651       1.274302       2.624238
       9.350000       1.665437       1.271181       2.688520
       9.360000       1.660175       1.265848       2.758509
       9.370000       1.658725       1.258041       2.834852
       9.380000       1.661022       1.247932       2.918049
       9.390000       1.666986       1.236182       3.008549
       9.400000       1.676377       1.223876       3.106860
       9.410000       1.688680       1.212321       3.213634
       9.420000       1.703078       1.202802       3.329681
       9.430000       1.718553       1.196357       3.455941
       9.440000       1.734073       1.193634       3.593447
       9.450000       1.748781       1.194859       3.743313
       9.460000       1.762113       1.199895       3.906733
       9.470000       1.773815       1.208363       4.084953
       9.480000       1.783922       1.219753       4.279176
       9.490000       1.792730       1.233501       4.490385
       9.500000       1.800786       1.249026       4.719125
       9.510000       1.808863       1.265749       4.965287
       9.520000       1.817870       1.283133       5.227883
       9.530000       1.828683       1.300736       5.504832
       9.540000       1.841934       1.318225       5.792782
       9.550000       1.857856       1.335338       6.087038
       9.560000       1.876242       1.351789       6.381665
       9.570000       1.896574       1.367192       6.669776
       9.580000       1.918256       1.381033       6.943947
       9.590000       1.940877       1.392734       7.196692
       9.600000       1.964350       1.401744       7.420931
       9.610000       1.988876       1.407594       7.610463
       9.620000       2.014724       1.409894       7.760445
       9.630000       2.041942       1.408280       7.867810
       9.640000       2.070112       1.402401       7.931551
       9.650000       2.098253       1.391984       7.952746
       9.660000       2.124890       1.376982       7.934323
       9.670000       2.148289       1.357734       7.880652
       9.680000       2.166789       1.335040       7.797090
       9.690000       2.179165       1.310085       7.689586
       9.700000       2.184926       1.284254       7.564366
       9.710000       2.184439       1.258897       7.427622
       9.720000       2.178812       1.235145       7.285135
       9.730000       2.169552       1.213830       7.141824
       9.740000       2.158125       1.195493       7.001321
       9.750000       2.145576       1.180458       6.865691
       9.760000       2.132374       1.168929       6.735478
       9.770000       2.118501       1.161084       6.610091
       9.780000       2.103730       1.157152       6.488490
       9.790000       2.087938       1.157438       6.369930
       9.800000       2.071320       1.162289       6.254534
       9.810000       2.054393       1.171999       6.143455
       9.820000       2.037801       1.186672       6.038618
       9.830000       2.022007       1.206096       5.942134
       9.840000       2.007026       1.229648       5.855621
       9.850000       1.992314       1.256283       5.779630
       9.860000       1.976849       1.284624       5.713301
       9.870000       1.959374       1.313165       5.654323
       9.880000       1.938718       1.340537       5.599154
       9.890000       1.914132       1.365761       5.543466
       9.900000       1.885555       1.388393       5.482769
       9.910000       1.853724       1.408530       5.413155
       9.920000       1.820073       1.426699       5.332063
       9.930000       1.786408       1.443694       5.238898
       9.940000       1.754468       1.460428       5.135258
       9.950000       1.725507       1.477820       5.024672
       9.960000       1.700025       1.496696       4.911907
       9.970000       1.677710       1.517703       4.802095
       9.980000       1.657604       1.541244       4.699955
       9.990000       1.638418       1.567443       4.609245
      10.000000       1.618909       1.596174       4.532453
      10.010000       1.598200       1.627124       4.470641
      10.020000       1.575944       1.659865       4.423406
      10.030000       1.552329       1.693892       4.388905
      10.040000       1.527954       1.728598       4.363968
      10.050000       1.503652       1.763211       4.344310
      10.060000       1.480331       1.796732       4.324889
      10.070000       1.458852       1.827943       4.300441
      10.080000       1.439940       1.855530       4.266185
      10.090000       1.424153       1.878320       4.218563
      10.100000       1.411861       1.895552       4.155846
      10.110000       1.403248       1.907070       4.078395
      10.120000       1.398308       1.913330       3.988507
      10.130000       1.396828       1.915183       3.889886
      10.140000       1.398347       1.913541       3.786912
      10.150000       1.402122       1.909051       3.683909
      10.160000       1.407139       1.901919       3.584608
      10.170000       1.412201       1.891947       3.491845
      10.180000       1.416099       1.878735       3.407490
      10.190000       1.417832       1.861958       3.332508
      10.200000       1.416797       1.841598       3.267078
      10.210000       1.412896       1.818051       3.210754
      10.220000       1.406519       1.792106       3.162661
      10.230000       1.398438       1.764826       3.121740
      10.240000       1.389660       1.737396       3.086985
      10.250000       1.381314       1.710967       3.057592
      10.260000       1.374562       1.686549       3.032977
      10.270000       1.370527       1.664936       3.012665
      10.280000       1.370217       1.646687       2.996118
      10.290000       1.374444       1.632135       2.982588
      10.300000       1.383739       1.621415       2.971061
      10.310000       1.398302       1.614492       2.960277
      10.320000       1.417977       1.611218       2.948813
      10.330000       1.442278       1.611428       2.935205
      10.340000       1.470454       1.615068       2.918093
      10.350000       1.501598       1.622336       2.896385
      10.360000       1.534773       1.633760       2.869442
      10.370000       1.569104       1.650175       2.837224
      10.380000       1.603793       1.672571       2.800373
      10.390000       1.638065       1.701840       2.760166
      10.400000       1.671071       1.738473       2.718347
      10.410000       1.701829       1.782303       2.676866
      10.420000       1.729241       1.832330       2.637625
      10.430000       1.752197       1.886709       2.602291
      10.440000       1.769713       1.942918       2.572219
      10.450000       1.781089       1.998108       2.548459
      10.460000       1.786018       2.049592       2.531802
      10.470000       1.784631       2.095357       2.522821
      10.480000       1.777479       2.134447       2.521870
      10.490000       1.765472       2.167075       2.529055
      10.500000       1.749803       2.194436       2.544190
      10.510000       1.731837       2.218265       2.566796
      10.520000       1.712968       2.240303       2.596147
      10.530000       1.694418       2.261824       2.631367
      10.540000       1.677076       2.283344       2.671536
      10.550000       1.661396       2.304561       2.715779
      10.560000       1.647403       2.324477       2.763291
      10.570000       1.634761       2.341616       2.813321
      10.580000       1.622899       2.354256       2.865096
      10.590000       1.611146       2.360660       2.917736
      10.600000       1.598897       2.359343       2.970174
      10.610000       1.585769       2.349354       3.021075
      10.620000       1.571701       2.330521       3.068791
      10.630000       1.556954       2.303578       3.111351
      10.640000       1.542012       2.270137       3.146538
      10.650000       1.527437       2.232509       3.172077
      10.660000       1.513738       2.193427       3.185897
      10.670000       1.501279       2.155685       3.186407
      10.680000       1.490227       2.121750       3.172685
      10.690000       1.480514       2.093408       3.144558
      10.700000       1.471812       2.071525       3.102598
      10.710000       1.463534       2.055983       3.048099
      10.720000       1.454889       2.045788       2.983053
      10.730000       1.445013       2.039330       2.910087
      10.740000       1.433147       2.034713       2.832284
      10.750000       1.418804       2.030121       2.752892
      10.760000       1.401887       2.024134       2.674968
      10.770000       1.382715       2.015976       2.601077
      10.780000       1.361980       2.005640       2.533123
      10.790000       1.340659       1.993868       2.472341
      10.800000       1.319893       1.981973       2.419385
      10.810000       1.300876       1.971555       2.374475
      10.820000       1.284730       1.964176       2.337524
      10.830000       1.272397       1.961095       2.308226
      10.840000       1.264530       1.963115       2.286122
      10.850000       1.261406       1.970506       2.270643
      10.860000       1.262877       1.982999       2.261178
      10.870000       1.268386       1.999812       2.257154
      10.880000       1.277050       2.019759       2.258109
      10.890000       1.287833       2.041463       2.263722
      10.900000       1.299743       2.063646       2.273781
      10.910000       1.312014       2.085378       2.288102
      10.920000       1.324175       2.106163       2.306424
      10.930000       1.335969       2.125801       2.328332
      10.940000       1.347152       2.144118       2.353210
      10.950000       1.357279       2.160701       2.380258
      10.960000       1.365574       2.174803       2.408529
      10.970000       1.370974       2.185428       2.436991
      10.980000       1.372333       2.191530       2.464582
      10.990000       1.368715       2.192186       2.490277
      11.000000       1.359657       2.186674       2.513136
      11.010000       1.345325       2.174477       2.532355
      11.020000       1.326502       2.155295       2.547280
      11.030000       1.304457       2.129147       2.557389
      11.040000       1.280736       2.096536       2.562257
      11.050000       1.256933       2.058574       2.561515
      11.060000       1.234501       2.016960       2.554853
      11.070000       1.214619       1.973762       2.542065
      11.080000       1.198114       1.931056       2.523139
      11.090000       1.185442       1.890573       2.498362
      11.100000       1.176701       1.853474       2.468381
      11.110000       1.171659       1.820323       2.434217
      11.120000       1.169790       1.791242       2.397204
      11.130000       1.170313       1.766127       2.358868
      11.140000       1.172221       1.744833       2.320768
      11.150000       1.174340       1.727258       2.284333
      11.160000       1.175428       1.713332       2.250736
      11.170000       1.174322       1.702980       2.220829
      11.180000       1.170106       1.696072       2.195172
      11.190000       1.162248       1.692384       2.174094
      11.200000       1.150660       1.691559       2.157761
      11.210000       1.135671       1.693072       2.146186
      11.220000       1.117909       1.696231       2.139198
      11.230000       1.098161       1.700236       2.136367
      11.240000       1.077226       1.704298       2.136944
      11.250000       1.055802       1.707788       2.139854
      11.260000       1.034423       1.710350       2.143761
      11.270000       1.013440       1.711948       2.147207
      11.280000       0.993046       1.712806       2.148800
      11.290000       0.973332       1.713311       2.147400
      11.300000       0.954378       1.713929       2.142270
      11.310000       0.936334       1.715182       2.133147
      11.320000       0.919464       1.717634       2.120235
      11.330000       0.904103       1.721806       2.104116
      11.340000       0.890561       1.728006       2.085610
      11.350000       0.878998       1.736121       2.065594
      11.360000       0.869340       1.745484       2.044821
      11.370000       0.861265       1.754900       2.023795
      11.380000       0.854263       1.762866       2.002726
      11.390000       0.847738       1.767891       1.981599
      11.400000       0.841110       1.768806       1.960292
      11.410000       0.833894       1.764972       1.938721
      11.420000       0.825745       1.756338       1.916935
      11.430000       0.816484       1.743381       1.895167
      11.440000       0.806102       1.726963       1.873833
      11.450000       0.794748       1.708135       1.853490
      11.460000       0.782686       1.687929       1.834763
      11.470000       0.770233       1.667178       1.818243
      11.480000       0.757699       1.646435       1.804390
      11.490000       0.745342       1.625990       1.793457
      11.500000       0.733367       1.605962       1.785474
      11.510000       0.721938       1.586403       1.780276
      11.520000       0.711207       1.567374       1.777544
      11.530000       0.701345       1.548999       1.776853
      11.540000       0.692551       1.531500       1.777711
      11.550000       0.685058       1.515239       1.779629
      11.560000       0.679125       1.500734       1.782206
      11.570000       0.675008       1.488670       1.785213
      11.580000       0.672939       1.479846       1.788615
      11.590000       0.673092       1.475084       1.792539
      11.600000       0.675558       1.475085       1.797171
      11.610000       0.680323       1.480295       1.802659
      11.620000       0.687276       1.490820       1.809024
      11.630000       0.696224       1.506423       1.816117
      11.640000       0.706940       1.526586       1.823599
      11.650000       0.719210       1.550606       1.830959
      11.660000       0.732863       1.577651       1.837538
      11.670000       0.747779       1.606761       1.842569
      11.680000       0.763860       1.636806       1.845227
      11.690000       0.780979       1.666444       1.844688
      11.700000       0.798922       1.694172       1.840182
      11.710000       0.817345       1.718486       1.831047
      11.720000       0.835770       1.738135       1.816765
      11.730000       0.853622       1.752394       1.796991
      11.740000       0.870321       1.761248       1.771600
      11.750000       0.885414       1.765442       1.740735
      11.760000       0.898692       1.766367       1.704868
      11.770000       0.910270       1.765813       1.664823
      11.780000       0.920581       1.765672       1.621740
      11.790000       0.930280       1.767633       1.576967
      11.800000       0.940111       1.772934       1.531902
      11.810000       0.950778       1.782229       1.487825
      11.820000       0.962845       1.795563       1.445775
      11.830000       0.976701       1.812440       1.406468
      11.840000       0.992555       1.831942       1.370262
      11.850000       1.010442       1.852844       1.337168
      11.860000       1.030219       1.873712       1.306876
      11.870000       1.051567       1.893002       1.278834
      11.880000       1.073991       1.909184       1.252348
      11.890000       1.096845       1.920937       1.226727
      11.900000       1.119356       1.927369       1.201434
      11.910000       1.140655       1.928209       1.176219
      11.920000       1.159815       1.923911       1.151175
      11.930000       1.175900       1.915614       1.126694
      11.940000       1.188046       1.904972       1.103325
      11.950000       1.195517       1.893885       1.081599
      11.960000       1.197735       1.884164       1.061857
      11.970000       1.194294       1.877208       1.044160
      11.980000       1.184972       1.873771       1.028285
      11.990000       1.169766       1.873859       1.013811
      12.000000       1.148936       1.876792       1.000258
      12.010000       1.123026       1.881369       0.987242
      12.020000       1.092822       1.886066       0.974593
      12.030000       1.059260       1.889225       0.962407
      12.040000       1.023288       1.889194       0.951027
      12.050000       0.985759       1.884435       0.940951
      12.060000       0.947358       1.873599       0.932720
      12.070000       0.908597       1.855588       0.926808
      12.080000       0.869848       1.829639       0.923540
      12.090000       0.831398       1.795437       0.923040
      12.100000       0.793510       1.753254       0.925207
      12.110000       0.756468       1.704051       0.929711
      12.120000       0.720602       1.649471       0.935997
      12.130000       0.686276       1.591682       0.943299
      12.140000       0.653853       1.533089       0.950675
      12.150000       0.623644       1.475994       0.957060
      12.160000       0.595871       1.422301       0.961356
      12.170000       0.570649       1.373335       0.962549
      12.180000       0.547997       1.329814       0.959851
      12.190000       0.527869       1.291960       0.952821
      12.200000       0.510178       1.259693       0.941442
      12.210000       0.494836       1.232853       0.926136
      12.220000       0.481764       1.211369       0.907674
      12.230000       0.470896       1.195328       0.887018
      12.240000       0.462173       1.184931       0.865140
      12.250000       0.455530       1.180380       0.842861
      12.260000       0.450883       1.181756       0.820762
      12.270000       0.448125       1.188926       0.799171
      12.280000       0.447136       1.201512       0.778224
      12.290000       0.447787       1.218908       0.757948
      12.300000       0.449956       1.240317       0.738343
      12.310000       0.453526       1.264772       0.719429
      12.320000       0.458382       1.291126       0.701252
      12.330000       0.464389       1.318043       0.683861
      12.340000       0.471387       1.344045       0.667289
      12.350000       0.479183       1.367674       0.651548
      12.360000       0.487561       1.387761       0.636646
      12.370000       0.496301       1.403699       0.622631
      12.380000       0.505175       1.415596       0.609620
      12.390000       0.513945       1.424221       0.597814
      12.400000       0.522346       1.430756       0.587491
      12.410000       0.530091       1.436489       0.578971
      12.420000       0.536903       1.442561       0.572577
      12.430000       0.542577       1.449860       0.568601
      12.440000       0.547038       1.459044       0.567276
      12.450000       0.550371       1.470622       0.568753
      12.460000       0.552809       1.484991       0.573089
      12.470000       0.554679       1.502383       0.580232
      12.480000       0.556329       1.522742       0.590001
      12.490000       0.558070       1.545586       0.602069
      12.500000       0.560129       1.569948       0.615947
      12.510000       0.562636       1.594455       0.630990
      12.520000       0.565625       1.617539       0.646422
      12.530000       0.569047       1.637728       0.661403
      12.540000       0.572794       1.653905       0.675122
      12.550000       0.576718       1.665454       0.686900
      12.560000       0.580646       1.672279       0.696268
      12.570000       0.584399       1.674727       0.702986
      12.580000       0.587801       1.673466       0.707017
      12.590000       0.590697       1.669347       0.708456
      12.600000       0.592963       1.663247       0.707458
      12.610000       0.594515       1.655914       0.704190
      12.620000       0.595325       1.647876       0.698832
      12.630000       0.595427       1.639442       0.691615
      12.640000       0.594927       1.630808       0.682873
      12.650000       0.593993       1.622200       0.673087
      12.660000       0.592823       1.613972       0.662873
      12.670000       0.591600       1.606590       0.652915
      12.680000       0.590428       1.600502       0.643864
      12.690000       0.589300       1.595965       0.636234
      12.700000       0.588082       1.592923       0.630325
      12.710000       0.586548       1.591000       0.626194
      12.720000       0.584460       1.589618       0.623656
      12.730000       0.581654       1.588159       0.622332
      12.740000       0.578126       1.586091       0.621731
      12.750000       0.574059       1.582980       0.621352
      12.760000       0.569786       1.578411       0.620791
      12.770000       0.565712       1.571882       0.619819
      12.780000       0.562211       1.562785       0.618417
      12.790000       0.559553       1.550504       0.616742
      12.800000       0.557860       1.534595       0.615057
      12.810000       0.557101       1.514967       0.613642
      12.820000       0.557126       1.491963       0.612722
      12.830000       0.557709       1.466315       0.612421
      12.840000       0.558613       1.439018       0.612744
      12.850000       0.559651       1.411182       0.613588
      12.860000       0.560732       1.383918       0.614763
      12.870000       0.561876       1.358263       0.616033
      12.880000       0.563184       1.335121       0.617170
      12.890000       0.564798       1.315181       0.618005
      12.900000       0.566831       1.298805       0.618466
      12.910000       0.569318       1.285944       0.618580
      12.920000       0.572182       1.276116       0.618434
      12.930000       0.575251       1.268496       0.618110
      12.940000       0.578315       1.262094       0.617610
      12.950000       0.581209       1.255974       0.616810
      12.960000       0.583890       1.249427       0.615469
      12.970000       0.586465       1.242044       0.613281
      12.980000       0.589160       1.233686       0.609969
      12.990000       0.592241       1.224415       0.605359
      13.000000       0.595932       1.214440       0.599442
      13.010000       0.600359       1.204109       0.592370
      13.020000       0.605547       1.193924       0.584426
      13.030000       0.611448       1.184523       0.575972
      13.040000       0.617987       1.176600       0.567396
      13.050000       0.625092       1.170778       0.559068
      13.060000       0.632696       1.167515       0.551314
      13.070000       0.640714       1.167078       0.544393
      13.080000       0.649015       1.169611       0.538492
      13.090000       0.657403       1.175251       0.533725
      13.100000       0.665629       1.184201       0.530135
      13.110000       0.673416       1.196710       0.527706
      13.120000       0.680491       1.212948       0.526372
      13.130000       0.686604       1.232821       0.526031
      13.140000       0.691529       1.255802       0.526559
      13.150000       0.695062       1.280866       0.527808
      13.160000       0.697019       1.306554       0.529624
      13.170000       0.697254       1.331179       0.531844
      13.180000       0.695689       1.353097       0.534315
      13.190000       0.692332       1.370959       0.536905
      13.200000       0.687280       1.383877       0.539520
      13.210000       0.680699       1.391459       0.542112
      13.220000       0.672783       1.393760       0.544687
      13.230000       0.663712       1.391180       0.547292
      13.240000       0.653645       1.384327       0.550001
      13.250000       0.642731       1.373892       0.552893
      13.260000       0.631143       1.360545       0.556027
      13.270000       0.619109       1.344882       0.559435
      13.280000       0.606906       1.327410       0.563131
      13.290000       0.594845       1.308547       0.567136
      13.300000       0.583225       1.288608       0.571512
      13.310000       0.572296       1.267781       0.576386
      13.320000       0.562239       1.246134       0.581964
      13.330000       0.553151       1.223660       0.588517
      13.340000       0.545055       1.200355       0.596356
      13.350000       0.537912       1.176303       0.605797
      13.360000       0.531624       1.151721       0.617130
      13.370000       0.526041       1.126971       0.630596
      13.380000       0.520975       1.102544       0.646375
      13.390000       0.516216       1.079024       0.664579
      13.400000       0.511581       1.057054       0.685242
      13.410000       0.506955       1.037269       0.708307
      13.420000       0.502326       1.020210       0.733617
      13.430000       0.497793       1.006225       0.760908
      13.440000       0.493544       0.995405       0.789823
      13.450000       0.489808       0.987566       0.819928
      13.460000       0.486805       0.982291       0.850735
      13.470000       0.484715       0.979012       0.881725
      13.480000       0.483655       0.977117       0.912358
      13.490000       0.483688       0.976059       0.942089
      13.500000       0.484824       0.975440       0.970392
      13.510000       0.487037       0.975047       0.996787
      13.520000       0.490262       0.974832       1.020859
      13.530000       0.494399       0.974838       1.042259
      13.540000       0.499303       0.975109       1.060679
      13.550000       0.504779       0.975605       1.075822
      13.560000       0.510570       0.976159       1.087401
      13.570000       0.516372       0.976486       1.095172
      13.580000       0.521859       0.976240       1.098996
      13.590000       0.526731       0.975115       1.098905
      13.600000       0.530762       0.972948       1.095135
      13.610000       0.533836       0.969805       1.088120
      13.620000       0.535958       0.966017       1.078470
      13.630000       0.537242       0.962145       1.066940
      13.640000       0.537864       0.958901       1.054402
      13.650000       0.538021       0.957040       1.041813
      13.660000       0.537884       0.957267       1.030153
      13.670000       0.537575       0.960183       1.020351
      13.680000       0.537155       0.966258       1.013180
      13.690000       0.536622       0.975820       1.009174
      13.700000       0.535916       0.989028       1.008568
      13.710000       0.534920       1.005832       1.011284
      13.720000       0.533484       1.025911       1.016967
      13.730000       0.531463       1.048626       1.025038
      13.740000       0.528762       1.073001       1.034769
      13.750000       0.525379       1.097772       1.045373
      13.760000       0.521422       1.121520       1.056107
      13.770000       0.517084       1.142876       1.066399
      13.780000       0.512600       1.160752       1.075958
      13.790000       0.508194       1.174502       1.084843
      13.800000       0.504049       1.183972       1.093451
      13.810000       0.500300       1.189415       1.102412
      13.820000       0.497043       1.191342       1.112432
      13.830000       0.494351       1.190364       1.124130
      13.840000       0.492267       1.187040       1.137902
      13.850000       0.490781       1.181785       1.153851
      13.860000       0.489801       1.174805       1.171771
      13.870000       0.489144       1.166107       1.191201
      13.880000       0.488545       1.155557       1.211515
      13.890000       0.487696       1.142970       1.232045
      13.900000       0.486304       1.128210       1.252194
      13.910000       0.484154       1.111265       1.271502
      13.920000       0.481148       1.092264       1.289644
      13.930000       0.477320       1.071445       1.306371
      13.940000       0.472821       1.049097       1.321421
      13.950000       0.467873       1.025516       1.334434
      13.960000       0.462732       1.000998       1.344909
      13.970000       0.457654       0.975853       1.352209
      13.980000       0.452886       0.950429       1.355618
      13.990000       0.448656       0.925126       1.354460
      14.000000       0.445166       0.900404       1.348234
      14.010000       0.442569       0.876770       1.336742
      14.020000       0.440942       0.854744       1.320159
      14.030000       0.440270       0.834804       1.299043
      14.040000       0.440454       0.817328       1.274257
      14.050000       0.441354       0.802553       1.246872
      14.060000       0.442840       0.790559       1.218037
      14.070000       0.444841       0.781290       1.188859
      14.080000       0.447356       0.774565       1.160297
      14.090000       0.450433       0.770077       1.133086
      14.100000       0.454113       0.767381       1.107706
      14.110000       0.458381       0.765902       1.084379
      14.120000       0.463137       0.764980       1.063106
      14.130000       0.468207       0.763965       1.043721
      14.140000       0.473383       0.762318       1.025952
      14.150000       0.478477       0.759697       1.009474
      14.160000       0.483366       0.755983       0.993954
      14.170000       0.488013       0.751255       0.979094
      14.180000       0.492444       0.745737       0.964658
      14.190000       0.496720       0.739738       0.950510
      14.200000       0.500889       0.733637       0.936636
      14.210000       0.504969       0.727868       0.923153
      14.220000       0.508955       0.722912       0.910281
      14.230000       0.512841       0.719253       0.898289
      14.240000       0.516641       0.717299       0.887428
      14.250000       0.520386       0.717299       0.877877
      14.260000       0.524099       0.719276       0.869726
      14.270000       0.527758       0.722985       0.862987
      14.280000       0.531273       0.727924       0.857619
      14.290000       0.534498       0.733358       0.853549
      14.300000       0.537266       0.738380       0.850660
      14.310000       0.539417       0.741989       0.848778
      14.320000       0.540816       0.743195       0.847662
      14.330000       0.541344       0.741159       0.847019
      14.340000       0.540878       0.735320       0.846552
      14.350000       0.539283       0.725516       0.846018
      14.360000       0.536420       0.712023       0.845267
      14.370000       0.532164       0.695525       0.844259
      14.380000       0.526420       0.676986       0.843052
      14.390000       0.519131       0.657495       0.841783
      14.400000       0.510274       0.638090       0.840648
      14.410000       0.499871       0.619634       0.839879
      14.420000       0.487998       0.602760       0.839711
      14.430000       0.474809       0.587861       0.840341
      14.440000       0.460555       0.575126       0.841879
      14.450000       0.445580       0.564583       0.844321
      14.460000       0.430303       0.556140       0.847549
      14.470000       0.415163       0.549625       0.851374
      14.480000       0.400563       0.544812       0.855597
      14.490000       0.386820       0.541461       0.860079
      14.500000       0.374133       0.539336       0.864783
      14.510000       0.362575       0.538229       0.869766
      14.520000       0.352115       0.537966       0.875120
      14.530000       0.342653       0.538422       0.880880
      14.540000       0.334067       0.539535       0.886911
      14.550000       0.326256       0.541329       0.892831
      14.560000       0.319174       0.543936       0.897969
      14.570000       0.312842       0.547607       0.901420
      14.580000       0.307334       0.552702       0.902183
      14.590000       0.302750       0.559639       0.899373
      14.600000       0.299184       0.568840       0.892445
      14.610000       0.296678       0.580675       0.881335
      14.620000       0.295207       0.595425       0.866481
      14.630000       0.294661       0.613280       0.848710
      14.640000       0.294855       0.634351       0.829042
      14.650000       0.295554       0.658683       0.808498
      14.660000       0.296506       0.686232       0.787952
      14.670000       0.297488       0.716797       0.768052
      14.680000       0.298335       0.749908       0.749206
      14.690000       0.298963       0.784702       0.731606
      14.700000       0.299372       0.819834       0.715281
      14.710000       0.299617       0.853494       0.700154
      14.720000       0.299781       0.883556       0.686088
      14.730000       0.299942       0.907875       0.672925
      14.740000       0.300156       0.924658       0.660500
      14.750000       0.300453       0.932797       0.648646
      14.760000       0.300845       0.932064       0.637203
      14.770000       0.301331       0.923082       0.626022
      14.780000       0.301908       0.907140       0.614979
      14.790000       0.302569       0.885906       0.603984
      14.800000       0.303303       0.861152       0.592991
      14.810000       0.304083       0.834535       0.581983
      14.820000       0.304864       0.807467       0.570966
      14.830000       0.305575       0.781040       0.559957
      14.840000       0.306115       0.756006       0.548986
      14.850000       0.306370       0.732784       0.538096
      14.860000       0.306229       0.711491       0.527358
      14.870000       0.305612       0.692005       0.516867
      14.880000       0.304483       0.674026       0.506733
      14.890000       0.302856       0.657155       0.497072
      14.900000       0.300771       0.640961       0.487982
      14.910000       0.298277       0.625039       0.479529
      14.920000       0.295408       0.609059       0.471738
      14.930000       0.292181       0.592808       0.464590
      14.940000       0.288610       0.576220       0.458034
      14.950000       0.284727       0.559393       0.452002
      14.960000       0.280601       0.542578       0.446425
      14.970000       0.276339       0.526144       0.441258
      14.980000       0.272077       0.510511       0.436478
      14.990000       0.267960       0.496077       0.432103
      15.000000       0.264122       0.483154       0.428187
      15.010000       0.260668       0.471931       0.424820
      15.020000       0.257670       0.462480       0.422121
      15.030000       0.255156       0.454778       0.420217
      15.040000       0.253129       0.448759       0.419221
      15.050000       0.251571       0.444346       0.419208
      15.060000       0.250461       0.441485       0.420199
      15.070000       0.249778       0.440143       0.422147
      15.080000       0.249502       0.440303       0.424953
      15.090000       0.249601       0.441922       0.428474
      15.100000       0.250025       0.444898       0.432557
      15.110000       0.250704       0.449035       0.437070
      15.120000       0.251551       0.454026       0.441922
      15.130000       0.252476       0.459474       0.447092
      15.140000       0.253389       0.464943       0.452626
      15.150000       0.254221       0.470022       0.458643
      15.160000       0.254923       0.474388       0.465314
      15.170000       0.255474       0.477832       0.472828
      15.180000       0.255874       0.480262       0.481352
      15.190000       0.256129       0.481674       0.490973
      15.200000       0.256247       0.482136       0.501644
      15.210000       0.256225       0.481783       0.513139
      15.220000       0.256062       0.480811       0.525015
      15.230000       0.255763       0.479462       0.536603
      15.240000       0.255347       0.477987       0.547038
      15.250000       0.254850       0.476584       0.555339
      15.260000       0.254311       0.475358       0.560555
      15.270000       0.253776       0.474307       0.561931
      15.280000       0.253296       0.473354       0.559074
      15.290000       0.252943       0.472422       0.552038
      15.300000       0.252817       0.471505       0.541324
      15.310000       0.253035       0.470708       0.527768
      15.320000       0.253704       0.470246       0.512379
      15.330000       0.254888       0.470399       0.496172
      15.340000       0.256575       0.471446       0.480043
      15.350000       0.258658       0.473624       0.464698
      15.360000       0.260945       0.477088       0.450637
      15.370000       0.263194       0.481898       0.438169
      15.380000       0.265159       0.488027       0.427436
      15.390000       0.266658       0.495397       0.418434
      15.400000       0.267613       0.503923       0.411038
      15.410000       0.268069       0.513579       0.405017
      15.420000       0.268165       0.524435       0.400059
      15.430000       0.268090       0.536665       0.395809
      15.440000       0.268021       0.550521       0.391914
      15.450000       0.268085       0.566269       0.388064
      15.460000       0.268337       0.584124       0.384028
      15.470000       0.268761       0.604180       0.379662
      15.480000       0.269300       0.626361       0.374914
      15.490000       0.269892       0.650391       0.369801
      15.500000       0.270505       0.675799       0.364400
      15.510000       0.271151       0.701957       0.358834
      15.520000       0.271879       0.728138       0.353254
      15.530000       0.272748       0.753613       0.347823
      15.540000       0.273804       0.777731       0.342688
      15.550000       0.275063       0.799993       0.337956
      15.560000       0.276509       0.820075       0.333669
      15.570000       0.278107       0.837806       0.329792
      15.580000       0.279802       0.853106       0.326217
      15.590000       0.281519       0.865904       0.322779
      15.600000       0.283152       0.876068       0.319288
      15.610000       0.284558       0.883363       0.315565
      15.620000       0.285566       0.887463       0.311484
      15.630000       0.285993       0.888013       0.306996
      15.640000       0.285672       0.884753       0.302148
      15.650000       0.284470       0.877647       0.297075
      15.660000       0.282292       0.866971       0.291972
      15.670000       0.279090       0.853317       0.287065
      15.680000       0.274862       0.837503       0.282574
      15.690000       0.269667       0.820441       0.278686
      15.700000       0.263633       0.802991       0.275537
      15.710000       0.256969       0.785860       0.273199
      15.720000       0.249943       0.769539       0.271679
      15.730000       0.242863       0.754290       0.270927
      15.740000       0.236028       0.740173       0.270850
      15.750000       0.229693       0.727118       0.271329
      15.760000       0.224034       0.715007       0.272227
      15.770000       0.219138       0.703768       0.273407
      15.780000       0.214993       0.693420       0.274740
      15.790000       0.211504       0.684090       0.276127
      15.800000       0.208507       0.675965       0.277515
      15.810000       0.205810       0.669244       0.278919
      15.820000       0.203226       0.664076       0.280419
      15.830000       0.200623       0.660531       0.282160
      15.840000       0.197941       0.658594       0.284330
      15.850000       0.195201       0.658167       0.287138
      15.860000       0.192475       0.659067       0.290794
      15.870000       0.189854       0.661021       0.295486
      15.880000       0.187410       0.663667       0.301364
      15.890000       0.185168       0.666565       0.308514
      15.900000       0.183106       0.669240       0.316955
      15.910000       0.181163       0.671235       0.326620
      15.920000       0.179274       0.672197       0.337359
      15.930000       0.177394       0.671937       0.348945
      15.940000       0.175528       0.670472       0.361086
      15.950000       0.173727       0.668012       0.373440
      15.960000       0.172080       0.664901       0.385635
      15.970000       0.170692       0.661543       0.397285
      15.980000       0.169653       0.658324       0.408007
      15.990000       0.169018       0.655540       0.417432
      16.000000       0.168794       0.653340       0.425226
      16.010000       0.168932       0.651703       0.431106
      16.020000       0.169337       0.650440       0.434870
      16.030000       0.169884       0.649254       0.436429
      16.040000       0.170444       0.647831       0.435834
      16.050000       0.170918       0.645942       0.433283
      16.060000       0.171256       0.643525       0.429100
      16.070000       0.171466       0.640717       0.423690
      16.080000       0.171609       0.637836       0.417482
      16.090000       0.171770       0.635314       0.410877
      16.100000       0.172032       0.633605       0.404211
      16.110000       0.172449       0.633109       0.397726
      16.120000       0.173033       0.634112       0.391569
      16.130000       0.173753       0.636769       0.385789
      16.140000       0.174551       0.641106       0.380351
      16.150000       0.175352       0.647027       0.375158
      16.160000       0.176092       0.654322       0.370080
      16.170000       0.176716       0.662661       0.364976
      16.180000       0.177186       0.671593       0.359718
      16.190000       0.177474       0.680559       0.354192
      16.200000       0.177558       0.688935       0.348304
      16.210000       0.177426       0.696117       0.341982
      16.220000       0.177078       0.701632       0.335182
      16.230000       0.176533       0.705246       0.327891
      16.240000       0.175830       0.707030       0.320141
      16.250000       0.175029       0.707377       0.312010
      16.260000       0.174203       0.706937       0.303626
      16.270000       0.173435       0.706503       0.295154
      16.280000       0.172799       0.706850       0.286784
      16.290000       0.172353       0.708603       0.278718
      16.300000       0.172124       0.712136       0.271143
      16.310000       0.172103       0.717562       0.264218
      16.320000       0.172245       0.724773       0.258061
      16.330000       0.172475       0.733520       0.252740
      16.340000       0.172706       0.743495       0.248277
      16.350000       0.172849       0.754348       0.244657
      16.360000       0.172834       0.765672       0.241838
      16.370000       0.172617       0.776943       0.239766
      16.380000       0.172187       0.787488       0.238381
      16.390000       0.171563       0.796512       0.237611
      16.400000       0.170789       0.803194       0.237366
      16.410000       0.169915       0.806844       0.237525
      16.420000       0.168987       0.807043       0.237934
      16.430000       0.168028       0.803737       0.238417
      16.440000       0.167033       0.797233       0.238804
      16.450000       0.165972       0.788134       0.238952
      16.460000       0.164817       0.777224       0.238774
      16.470000       0.163558       0.765360       0.238246
      16.480000       0.162234       0.753385       0.237407
      16.490000       0.160931       0.742057       0.236348
      16.500000       0.159768       0.731990       0.235186
      16.510000       0.158876       0.723612       0.234048
      16.520000       0.158366       0.717130       0.233051
      16.530000       0.158313       0.712537       0.232287
      16.540000       0.158744       0.709646       0.231822
      16.550000       0.159639       0.708151       0.231697
      16.560000       0.160943       0.707683       0.231938
      16.570000       0.162577       0.707846       0.232564
      16.580000       0.164464       0.708234       0.233597
      16.590000       0.166544       0.708438       0.235067
      16.600000       0.168784       0.708066       0.237013
      16.610000       0.171177       0.706793       0.239478
      16.620000       0.173731       0.704435       0.242493
      16.630000       0.176454       0.701025       0.246073
      16.640000       0.179340       0.696850       0.250209
      16.650000       0.182365       0.692422       0.254861
      16.660000       0.185488       0.688381       0.259965
      16.670000       0.188667       0.685360       0.265437
      16.680000       0.191874       0.683855       0.271175
      16.690000       0.195111       0.684130       0.277065
      16.700000       0.198404       0.686180       0.282986
      16.710000       0.201794       0.689739       0.288812
      16.720000       0.205313       0.694340       0.294415
      16.730000       0.208966       0.699402       0.299659
      16.740000       0.212724       0.704331       0.304399
      16.750000       0.216527       0.708618       0.308474
      16.760000       0.220304       0.711898       0.311713
      16.770000       0.223984       0.713968       0.313934
      16.780000       0.227503       0.714753       0.314968
      16.790000       0.230798       0.714240       0.314674
      16.800000       0.233797       0.712425       0.312979
      16.810000       0.236414       0.709281       0.309898
      16.820000       0.238549       0.704772       0.305561
      16.830000       0.240103       0.698896       0.300201
      16.840000       0.240979       0.691731       0.294128
      16.850000       0.241097       0.683462       0.287674
      16.860000       0.240393       0.674380       0.281144
      16.870000       0.238825       0.664857       0.274776
      16.880000       0.236382       0.655311       0.268712
      16.890000       0.233095       0.646171       0.263006
      16.900000       0.229045       0.637850       0.257637
      16.910000       0.224363       0.630718       0.252538
      16.920000       0.219220       0.625081       0.247642
      16.930000       0.213797       0.621150       0.242907
      16.940000       0.208269       0.619007       0.238341
      16.950000       0.202777       0.618581       0.233992
      16.960000       0.197431       0.619648       0.229933
      16.970000       0.192307       0.621860       0.226233
      16.980000       0.187460       0.624806       0.222931
      16.990000       0.182927       0.628075       0.220029
      17.000000       0.178728       0.631300       0.217492
      17.010000       0.174864       0.634175       0.215255
      17.020000       0.171312       0.636434       0.213236
      17.030000       0.168029       0.637833       0.211349
      17.040000       0.164950       0.638133       0.209512
      17.050000       0.161999       0.637129       0.207662
      17.060000       0.159102       0.634692       0.205757
      17.070000       0.156200       0.630822       0.203779
      17.080000       0.153261       0.625675       0.201734
      17.090000       0.150291       0.619560       0.199639
      17.100000       0.147330       0.612899       0.197528
      17.110000       0.144452       0.606180       0.195442
      17.120000       0.141749       0.599910       0.193423
      17.130000       0.139315       0.594575       0.191518
      17.140000       0.137237       0.590612       0.189762
      17.150000       0.135582       0.588379       0.188183
      17.160000       0.134394       0.588113       0.186795
      17.170000       0.133681       0.589889       0.185606
      17.180000       0.133422       0.593581       0.184614
      17.190000       0.133559       0.598846       0.183814
      17.200000       0.134004       0.605152       0.183196
      17.210000       0.134640       0.611847       0.182744
      17.220000       0.135334       0.618264       0.182428
      17.230000       0.135954       0.623828       0.182213
      17.240000       0.136387       0.628136       0.182062
      17.250000       0.136552       0.630993       0.181959
      17.260000       0.136421       0.632396       0.181917
      17.270000       0.136016       0.632482       0.181985
      17.280000       0.135407       0.631453       0.182248
      17.290000       0.134688       0.629519       0.182805
      17.300000       0.133957       0.626848       0.183748
      17.310000       0.133299       0.623554       0.185141
      17.320000       0.132766       0.619705       0.187015
      17.330000       0.132381       0.615353       0.189369
      17.340000       0.132131       0.610560       0.192182
      17.350000       0.131981       0.605415       0.195433
      17.360000       0.131876       0.600030       0.199112
      17.370000       0.131756       0.594528       0.203219
      17.380000       0.131563       0.589015       0.207761
      17.390000       0.131251       0.583556       0.212737
      17.400000       0.130794       0.578166       0.218133
      17.410000       0.130186       0.572816       0.223912
      17.420000       0.129439       0.567458       0.230016
      17.430000       0.128582       0.562057       0.236366
      17.440000       0.127650       0.556618       0.242865
      17.450000       0.126684       0.551206       0.249399
      17.460000       0.125727       0.545949       0.255838
      17.470000       0.124820       0.541030       0.262038
      17.480000       0.124005       0.536660       0.267849
      17.490000       0.123329       0.533032       0.273128
      17.500000       0.122836       0.530260       0.277760
      17.510000       0.122570       0.528312       0.281668
      17.520000       0.122565       0.526976       0.284819
      17.530000       0.122836       0.525859       0.287203
      17.540000       0.123374       0.524450       0.288823
      17.550000       0.124146       0.522211       0.289680
      17.560000       0.125107       0.518692       0.289778
      17.570000       0.126205       0.513627       0.289144
      17.580000       0.127398       0.506997       0.287850
      17.590000       0.128665       0.499032       0.286025
      17.600000       0.130011       0.490162       0.283848
      17.610000       0.131467       0.480919       0.281519
      17.620000       0.133072       0.471828       0.279217
      17.630000       0.134857       0.463318       0.277072
      17.640000       0.136827       0.455682       0.275153
      17.650000       0.138950       0.449084       0.273487
      17.660000       0.141162       0.443612       0.272089
      17.670000       0.143377       0.439322       0.270992
      17.680000       0.145512       0.436268       0.270257
      17.690000       0.147505       0.434493       0.269969
      17.700000       0.149324       0.434001       0.270208
      17.710000       0.150969       0.434716       0.271026
      17.720000       0.152465       0.436464       0.272423
      17.730000       0.153850       0.438970       0.274341
      17.740000       0.155167       0.441893       0.276681
      17.750000       0.156451       0.444869       0.279325
      17.760000       0.157724       0.447560       0.282171
      17.770000       0.158986       0.449695       0.285155
      17.780000       0.160206       0.451089       0.288262
      17.790000       0.161323       0.451639       0.291509
      17.800000       0.162242       0.451315       0.294917
      17.810000       0.162850       0.450127       0.298488
      17.820000       0.163034       0.448104       0.302188
      17.830000       0.162697       0.445269       0.305954
      17.840000       0.161775       0.441637       0.309714
      17.850000       0.160252       0.437225       0.313402
      17.860000       0.158159       0.432073       0.316967
      17.870000       0.155572       0.426264       0.320369
      17.880000       0.152602       0.419939       0.323556
      17.890000       0.149381       0.413298       0.326450
      17.900000       0.146044       0.406590       0.328939
      17.910000       0.142719       0.400088       0.330879
      17.920000       0.139511       0.394055       0.332112
      17.930000       0.136504       0.388710       0.332491
      17.940000       0.133755       0.384190       0.331904
      17.950000       0.131297       0.380526       0.330305
      17.960000       0.129144       0.377637       0.327726
      17.970000       0.127296       0.375345       0.324280
      17.980000       0.125742       0.373417       0.320147
      17.990000       0.124474       0.371606       0.315542
      18.000000       0.123485       0.369712       0.310682
      18.010000       0.122777       0.367621       0.305751
      18.020000       0.122357       0.365316       0.300882
      18.030000       0.122235       0.362858       0.296149
      18.040000       0.122414       0.360351       0.291584
      18.050000       0.122882       0.357887       0.287195
      18.060000       0.123609       0.355516       0.282994
      18.070000       0.124542       0.353220       0.279001
      18.080000       0.125614       0.350930       0.275249
      18.090000       0.126745       0.348557       0.271773
      18.100000       0.127860       0.346031       0.268600
      18.110000       0.128893       0.343332       0.265748
      18.120000       0.129794       0.340495       0.263223
      18.130000       0.130533       0.337591       0.261027
      18.140000       0.131096       0.334699       0.259172
      18.150000       0.131471       0.331875       0.257675
      18.160000       0.131653       0.329146       0.256563
      18.170000       0.131634       0.326513       0.255867
      18.180000       0.131416       0.323964       0.255614
      18.190000       0.131006       0.321488       0.255817
      18.200000       0.130433       0.319084       0.256462
      18.210000       0.129740       0.316766       0.257503
      18.220000       0.128979       0.314556       0.258852
      18.230000       0.128209       0.312470       0.260374
      18.240000       0.127473       0.310503       0.261895
      18.250000       0.126801       0.308625       0.263220
      18.260000       0.126202       0.306780       0.264154
      18.270000       0.125669       0.304901       0.264544
      18.280000       0.125183       0.302916       0.264296
      18.290000       0.124723       0.300758       0.263387
      18.300000       0.124272       0.298372       0.261854
      18.310000       0.123818       0.295734       0.259778
      18.320000       0.123358       0.292873       0.257263
      18.330000       0.122888       0.289879       0.254426
      18.340000       0.122404       0.286902       0.251386
      18.350000       0.121893       0.284123       0.248253
      18.360000       0.121337       0.281722       0.245116
      18.370000       0.120716       0.279832       0.242025
      18.380000       0.120020       0.278519       0.238985
      18.390000       0.119251       0.277769       0.235966
      18.400000       0.118427       0.277499       0.232917
      18.410000       0.117578       0.277576       0.229791
      18.420000       0.116733       0.277844       0.226562
      18.430000       0.115923       0.278156       0.223243
      18.440000       0.115170       0.278403       0.219881
      18.450000       0.114496       0.278526       0.216556
      18.460000       0.113917       0.278516       0.213360
      18.470000       0.113440       0.278386       0.210380
      18.480000       0.113063       0.278146       0.207685
      18.490000       0.112766       0.277773       0.205319
      18.500000       0.112508       0.277211       0.203294
      18.510000       0.112238       0.276389       0.201596
      18.520000       0.111895       0.275245       0.200189
      18.530000       0.111430       0.273752       0.199022
      18.540000       0.110815       0.271926       0.198043
      18.550000       0.110052       0.269821       0.197204
      18.560000       0.109175       0.267512       0.196470
      18.570000       0.108241       0.265083       0.195816
      18.580000       0.107322       0.262608       0.195221
      18.590000       0.106489       0.260135       0.194652
      18.600000       0.105802       0.257685       0.194061
      18.610000       0.105298       0.255262       0.193382
      18.620000       0.104993       0.252869       0.192541
      18.630000       0.104874       0.250520       0.191470
      18.640000       0.104903       0.248245       0.190127
      18.650000       0.105025       0.246082       0.188510
      18.660000       0.105170       0.244063       0.186666
      18.670000       0.105269       0.242196       0.184687
      18.680000       0.105259       0.240460       0.182703
      18.690000       0.105089       0.238804       0.180868
      18.700000       0.104726       0.237149       0.179338
      18.710000       0.104156       0.235410       0.178249
      18.720000       0.103382       0.233502       0.177709
      18.730000       0.102427       0.231360       0.177778
      18.740000       0.101324       0.228941       0.178474
      18.750000       0.100116       0.226234       0.179777
      18.760000       0.098850       0.223262       0.181642
      18.770000       0.097577       0.220076       0.184009
      18.780000       0.096351       0.216752       0.186815
      18.790000       0.095222       0.213368       0.189989
      18.800000       0.094234       0.209996       0.193449
      18.810000       0.093416       0.206695       0.197094
      18.820000       0.092785       0.203518       0.200798
      18.830000       0.092346       0.200525       0.204411
      18.840000       0.092092       0.197792       0.207759
      18.850000       0.092015       0.195410       0.210655
      18.860000       0.092100       0.193477       0.212918
      18.870000       0.092331       0.192073       0.214393
      18.880000       0.092683       0.191252       0.214973
      18.890000       0.093125       0.191024       0.214628
      18.900000       0.093612       0.191360       0.213416
      18.910000       0.094086       0.192196       0.211491
      18.920000       0.094483       0.193441       0.209078
      18.930000       0.094738       0.194987       0.206444
      18.940000       0.094795       0.196719       0.203851
      18.950000       0.094620       0.198513       0.201522
      18.960000       0.094203       0.200247       0.199608
      18.970000       0.093563       0.201797       0.198191
      18.980000       0.092732       0.203051       0.197279
      18.990000       0.091749       0.203911       0.196832
      19.000000       0.090652       0.204302       0.196781
      19.010000       0.089467       0.204174       0.197045
      19.020000       0.088207       0.203508       0.197547
      19.030000       0.086879       0.202311       0.198217
      19.040000       0.085485       0.200611       0.198987
      19.050000       0.084031       0.198455       0.199793
      19.060000       0.082531       0.195910       0.200569
      19.070000       0.081007       0.193073       0.201255
      19.080000       0.079491       0.190073       0.201801
      19.090000       0.078023       0.187071       0.202163
      19.100000       0.076644       0.184242       0.202307
      19.110000       0.075396       0.181756       0.202204
      19.120000       0.074307       0.179756       0.201830
      19.130000       0.073392       0.178349       0.201169
      19.140000       0.072646       0.177597       0.200214
      19.150000       0.072050       0.177527       0.198971
      19.160000       0.071573       0.178137       0.197455
      19.170000       0.071187       0.179402       0.195680
      19.180000       0.070868       0.181282       0.193656
      19.190000       0.070603       0.183713       0.191382
      19.200000       0.070390       0.186613       0.188853
      19.210000       0.070235       0.189877       0.186065
      19.220000       0.070150       0.193388       0.183025
      19.230000       0.070150       0.197027       0.179753
      19.240000       0.070248       0.200693       0.176279
      19.250000       0.070456       0.204312       0.172642
      19.260000       0.070778       0.207841       0.168877
      19.270000       0.071207       0.211250       0.165023
      19.280000       0.071724       0.214507       0.161120
      19.290000       0.072298       0.217557       0.157218
      19.300000       0.072893       0.220313       0.153378
      19.310000       0.073471       0.222670       0.149667
      19.320000       0.074003       0.224525       0.146148
      19.330000       0.074472       0.225802       0.142871
      19.340000       0.074873       0.226471       0.139866
      19.350000       0.075212       0.226548       0.137141
      19.360000       0.075502       0.226083       0.134692
      19.370000       0.075754       0.225139       0.132505
      19.380000       0.075979       0.223780       0.130565
      19.390000       0.076178       0.222064       0.128863
      19.400000       0.076348       0.220046       0.127397
      19.410000       0.076484       0.217779       0.126174
      19.420000       0.076586       0.215320       0.125203
      19.430000       0.076656       0.212723       0.124495
      19.440000       0.076706       0.210035       0.124052
      19.450000       0.076755       0.207299       0.123865
      19.460000       0.076820       0.204550       0.123908
      19.470000       0.076916       0.201819       0.124141
      19.480000       0.077046       0.199136       0.124513
      19.490000       0.077203       0.196529       0.124966
      19.500000       0.077362       0.194025       0.125440
      19.510000       0.077492       0.191662       0.125881
      19.520000       0.077561       0.189484       0.126246
      19.530000       0.077546       0.187543       0.126495
      19.540000       0.077440       0.185888       0.126602
      19.550000       0.077256       0.184550       0.126545
      19.560000       0.077024       0.183532       0.126305
      19.570000       0.076783       0.182801       0.125874
      19.580000       0.076568       0.182283       0.125255
      19.590000       0.076405       0.181874       0.124471
      19.600000       0.076303       0.181455       0.123568
      19.610000       0.076254       0.180914       0.122611
      19.620000       0.076233       0.180171       0.121675
      19.630000       0.076207       0.179206       0.120829
      19.640000       0.076143       0.178054       0.120130
      19.650000       0.076009       0.176809       0.119613
      19.660000       0.075792       0.175600       0.119291
      19.670000       0.075494       0.174583       0.119162
      19.680000       0.075141       0.173916       0.119217
      19.690000       0.074777       0.173749       0.119448
      19.700000       0.074455       0.174201       0.119858
      19.710000       0.074231       0.175354       0.120458
      19.720000       0.074152       0.177234       0.121268
      19.730000       0.074250       0.179810       0.122311
      19.740000       0.074543       0.182988       0.123606
      19.750000       0.075027       0.186613       0.125168
      19.760000       0.075687       0.190476       0.126994
      19.770000       0.076490       0.194328       0.129070
      19.780000       0.077394       0.197907       0.131363
      19.790000       0.078345       0.200967       0.133827
      19.800000       0.079286       0.203307       0.136403
      19.810000       0.080164       0.204794       0.139033
      19.820000       0.080939       0.205375       0.141665
      19.830000       0.081591       0.205068       0.144269
      19.840000       0.082123       0.203947       0.146834
      19.850000       0.082557       0.202118       0.149369
      19.860000       0.082923       0.199704       0.151896
      19.870000       0.083252       0.196840       0.154431
      19.880000       0.083568       0.193668       0.156975
      19.890000       0.083891       0.190341       0.159508
      19.900000       0.084238       0.187010       0.161989
      19.910000       0.084626       0.183811       0.164359
      19.920000       0.085073       0.180853       0.166555
      19.930000       0.085598       0.178207       0.168519
      19.940000       0.086224       0.175912       0.170204
      19.950000       0.086973       0.173974       0.171584
      19.960000       0.087867       0.172377       0.172653
      19.970000       0.088926       0.171095       0.173427
      19.980000       0.090164       0.170097       0.173934
      19.990000       0.091586       0.169355       0.174211
      20.000000       0.093183       0.168852       0.174293
