  # energy grid [eV]     epsi_x  epsi_y  epsi_z
       0.000000            NaN            NaN            NaN
       0.010000       0.000091       0.000011       0.000143
       0.020000       0.000182       0.000021       0.000287
       0.030000       0.000273       0.000032       0.000430
       0.040000       0.000364       0.000043       0.000575
       0.050000       0.000455       0.000054       0.000720
       0.060000       0.000546       0.000064       0.000865
       0.070000       0.000637       0.000075       0.001012
       0.080000       0.000728       0.000086       0.001159
       0.090000       0.000819       0.000097       0.001308
       0.100000       0.000910       0.000107       0.001459
       0.110000       0.001001       0.000118       0.001611
       0.120000       0.001092       0.000129       0.001765
       0.130000       0.001183       0.000139       0.001921
       0.140000       0.001275       0.000150       0.002079
       0.150000       0.001366       0.000161       0.002240
       0.160000       0.001457       0.000172       0.002403
       0.170000       0.001549       0.000182       0.002570
       0.180000       0.001640       0.000193       0.002740
       0.190000       0.001731       0.000204       0.002913
       0.200000       0.001823       0.000215       0.003091
       0.210000       0.001915       0.000225       0.003272
       0.220000       0.002006       0.000236       0.003459
       0.230000       0.002098       0.000247       0.003651
       0.240000       0.002190       0.000258       0.003848
       0.250000       0.002282       0.000269       0.004051
       0.260000       0.002374       0.000279       0.004261
       0.270000       0.002466       0.000290       0.004478
       0.280000       0.002558       0.000301       0.004703
       0.290000       0.002651       0.000312       0.004936
       0.300000       0.002743       0.000322       0.005179
       0.310000       0.002835       0.000333       0.005433
       0.320000       0.002928       0.000344       0.005697
       0.330000       0.003021       0.000355       0.005974
       0.340000       0.003113       0.000366       0.006264
       0.350000       0.003206       0.000377       0.006570
       0.360000       0.003299       0.000387       0.006892
       0.370000       0.003393       0.000398       0.007232
       0.380000       0.003486       0.000409       0.007592
       0.390000       0.003579       0.000420       0.007975
       0.400000       0.003673       0.000431       0.008382
       0.410000       0.003766       0.000442       0.008817
       0.420000       0.003860       0.000453       0.009283
       0.430000       0.003954       0.000463       0.009784
       0.440000       0.004048       0.000474       0.010323
       0.450000       0.004143       0.000485       0.010905
       0.460000       0.004237       0.000496       0.011537
       0.470000       0.004332       0.000507       0.012224
       0.480000       0.004426       0.000518       0.012973
       0.490000       0.004521       0.000529       0.013793
       0.500000       0.004616       0.000540       0.014694
       0.510000       0.004712       0.000551       0.015686
       0.520000       0.004807       0.000562       0.016782
       0.530000       0.004903       0.000573       0.017997
       0.540000       0.004998       0.000584       0.019347
       0.550000       0.005094       0.000595       0.020851
       0.560000       0.005191       0.000606       0.022529
       0.570000       0.005287       0.000617       0.024405
       0.580000       0.005384       0.000628       0.026500
       0.590000       0.005480       0.000639       0.028840
       0.600000       0.005577       0.000650       0.031444
       0.610000       0.005675       0.000661       0.034327
       0.620000       0.005772       0.000672       0.037492
       0.630000       0.005870       0.000683       0.040922
       0.640000       0.005968       0.000694       0.044570
       0.650000       0.006066       0.000705       0.048347
       0.660000       0.006164       0.000716       0.052115
       0.670000       0.006263       0.000727       0.055679
       0.680000       0.006362       0.000739       0.058798
       0.690000       0.006461       0.000750       0.061216
       0.700000       0.006560       0.000761       0.062704
       0.710000       0.006660       0.000772       0.063111
       0.720000       0.006759       0.000783       0.062408
       0.730000       0.006859       0.000794       0.060691
       0.740000       0.006960       0.000806       0.058159
       0.750000       0.007060       0.000817       0.055061
       0.760000       0.007161       0.000828       0.051651
       0.770000       0.007262       0.000839       0.048147
       0.780000       0.007363       0.000851       0.044716
       0.790000       0.007465       0.000862       0.041469
       0.800000       0.007567       0.000873       0.038471
       0.810000       0.007669       0.000885       0.035753
       0.820000       0.007772       0.000896       0.033320
       0.830000       0.007874       0.000907       0.031164
       0.840000       0.007978       0.000919       0.029265
       0.850000       0.008081       0.000930       0.027603
       0.860000       0.008185       0.000941       0.026153
       0.870000       0.008289       0.000953       0.024893
       0.880000       0.008394       0.000964       0.023802
       0.890000       0.008498       0.000976       0.022861
       0.900000       0.008604       0.000987       0.022053
       0.910000       0.008709       0.000999       0.021363
       0.920000       0.008815       0.001010       0.020779
       0.930000       0.008921       0.001022       0.020289
       0.940000       0.009028       0.001033       0.019884
       0.950000       0.009135       0.001045       0.019555
       0.960000       0.009242       0.001056       0.019297
       0.970000       0.009350       0.001068       0.019102
       0.980000       0.009458       0.001080       0.018967
       0.990000       0.009567       0.001091       0.018888
       1.000000       0.009675       0.001103       0.018861
       1.010000       0.009785       0.001115       0.018884
       1.020000       0.009894       0.001126       0.018956
       1.030000       0.010005       0.001138       0.019075
       1.040000       0.010115       0.001150       0.019240
       1.050000       0.010226       0.001162       0.019452
       1.060000       0.010337       0.001173       0.019712
       1.070000       0.010449       0.001185       0.020019
       1.080000       0.010562       0.001197       0.020377
       1.090000       0.010674       0.001209       0.020786
       1.100000       0.010788       0.001221       0.021251
       1.110000       0.010901       0.001233       0.021774
       1.120000       0.011015       0.001245       0.022360
       1.130000       0.011130       0.001257       0.023014
       1.140000       0.011245       0.001268       0.023742
       1.150000       0.011360       0.001280       0.024551
       1.160000       0.011477       0.001292       0.025451
       1.170000       0.011593       0.001305       0.026449
       1.180000       0.011710       0.001317       0.027560
       1.190000       0.011828       0.001329       0.028794
       1.200000       0.011946       0.001341       0.030169
       1.210000       0.012064       0.001353       0.031701
       1.220000       0.012184       0.001365       0.033412
       1.230000       0.012303       0.001377       0.035326
       1.240000       0.012423       0.001390       0.037469
       1.250000       0.012544       0.001402       0.039872
       1.260000       0.012666       0.001414       0.042570
       1.270000       0.012788       0.001426       0.045599
       1.280000       0.012910       0.001439       0.049001
       1.290000       0.013033       0.001451       0.052813
       1.300000       0.013157       0.001463       0.057074
       1.310000       0.013281       0.001476       0.061809
       1.320000       0.013406       0.001488       0.067030
       1.330000       0.013532       0.001501       0.072715
       1.340000       0.013658       0.001513       0.078798
       1.350000       0.013785       0.001526       0.085146
       1.360000       0.013912       0.001538       0.091546
       1.370000       0.014040       0.001551       0.097692
       1.380000       0.014169       0.001564       0.103201
       1.390000       0.014298       0.001576       0.107646
       1.400000       0.014428       0.001589       0.110625
       1.410000       0.014559       0.001602       0.111846
       1.420000       0.014691       0.001614       0.111193
       1.430000       0.014823       0.001627       0.108759
       1.440000       0.014956       0.001640       0.104822
       1.450000       0.015089       0.001653       0.099775
       1.460000       0.015224       0.001666       0.094048
       1.470000       0.015359       0.001679       0.088030
       1.480000       0.015495       0.001692       0.082038
       1.490000       0.015631       0.001705       0.076294
       1.500000       0.015769       0.001718       0.070941
       1.510000       0.015907       0.001731       0.066051
       1.520000       0.016046       0.001744       0.061650
       1.530000       0.016186       0.001757       0.057732
       1.540000       0.016326       0.001770       0.054270
       1.550000       0.016468       0.001784       0.051231
       1.560000       0.016610       0.001797       0.048575
       1.570000       0.016753       0.001810       0.046263
       1.580000       0.016897       0.001823       0.044258
       1.590000       0.017042       0.001837       0.042527
       1.600000       0.017188       0.001850       0.041038
       1.610000       0.017335       0.001864       0.039766
       1.620000       0.017482       0.001877       0.038688
       1.630000       0.017631       0.001891       0.037784
       1.640000       0.017780       0.001904       0.037036
       1.650000       0.017931       0.001918       0.036430
       1.660000       0.018082       0.001932       0.035955
       1.670000       0.018234       0.001945       0.035600
       1.680000       0.018388       0.001959       0.035358
       1.690000       0.018542       0.001973       0.035221
       1.700000       0.018697       0.001987       0.035185
       1.710000       0.018854       0.002001       0.035245
       1.720000       0.019011       0.002015       0.035401
       1.730000       0.019170       0.002029       0.035649
       1.740000       0.019329       0.002043       0.035991
       1.750000       0.019490       0.002057       0.036427
       1.760000       0.019652       0.002071       0.036960
       1.770000       0.019815       0.002085       0.037594
       1.780000       0.019979       0.002099       0.038332
       1.790000       0.020144       0.002114       0.039181
       1.800000       0.020311       0.002128       0.040148
       1.810000       0.020478       0.002142       0.041243
       1.820000       0.020647       0.002157       0.042477
       1.830000       0.020817       0.002171       0.043863
       1.840000       0.020988       0.002186       0.045415
       1.850000       0.021161       0.002200       0.047153
       1.860000       0.021335       0.002215       0.049097
       1.870000       0.021510       0.002230       0.051272
       1.880000       0.021686       0.002245       0.053706
       1.890000       0.021864       0.002259       0.056431
       1.900000       0.022043       0.002274       0.059487
       1.910000       0.022224       0.002289       0.062916
       1.920000       0.022406       0.002304       0.066767
       1.930000       0.022589       0.002319       0.071095
       1.940000       0.022774       0.002334       0.075959
       1.950000       0.022960       0.002350       0.081423
       1.960000       0.023148       0.002365       0.087552
       1.970000       0.023337       0.002380       0.094405
       1.980000       0.023528       0.002396       0.102028
       1.990000       0.023720       0.002411       0.110444
       2.000000       0.023914       0.002426       0.119628
       2.010000       0.024110       0.002442       0.129494
       2.020000       0.024307       0.002458       0.139862
       2.030000       0.024506       0.002473       0.150439
       2.040000       0.024707       0.002489       0.160809
       2.050000       0.024909       0.002505       0.170448
       2.060000       0.025113       0.002521       0.178761
       2.070000       0.025319       0.002537       0.185160
       2.080000       0.025526       0.002553       0.189153
       2.090000       0.025736       0.002569       0.190426
       2.100000       0.025947       0.002585       0.188905
       2.110000       0.026160       0.002601       0.184766
       2.120000       0.026375       0.002618       0.178408
       2.130000       0.026592       0.002634       0.170372
       2.140000       0.026811       0.002651       0.161256
       2.150000       0.027032       0.002667       0.151625
       2.160000       0.027256       0.002684       0.141950
       2.170000       0.027481       0.002701       0.132582
       2.180000       0.027708       0.002718       0.123751
       2.190000       0.027938       0.002734       0.115589
       2.200000       0.028169       0.002751       0.108158
       2.210000       0.028403       0.002769       0.101468
       2.220000       0.028639       0.002786       0.095501
       2.230000       0.028878       0.002803       0.090223
       2.240000       0.029119       0.002820       0.085588
       2.250000       0.029362       0.002838       0.081547
       2.260000       0.029608       0.002855       0.078049
       2.270000       0.029856       0.002873       0.075047
       2.280000       0.030107       0.002891       0.072494
       2.290000       0.030360       0.002908       0.070351
       2.300000       0.030616       0.002926       0.068581
       2.310000       0.030875       0.002944       0.067154
       2.320000       0.031136       0.002962       0.066043
       2.330000       0.031400       0.002981       0.065227
       2.340000       0.031667       0.002999       0.064690
       2.350000       0.031937       0.003017       0.064418
       2.360000       0.032210       0.003036       0.064401
       2.370000       0.032485       0.003055       0.064632
       2.380000       0.032764       0.003073       0.065106
       2.390000       0.033046       0.003092       0.065816
       2.400000       0.033331       0.003111       0.066757
       2.410000       0.033620       0.003130       0.067921
       2.420000       0.033911       0.003149       0.069294
       2.430000       0.034207       0.003169       0.070859
       2.440000       0.034505       0.003188       0.072593
       2.450000       0.034807       0.003208       0.074474
       2.460000       0.035113       0.003228       0.076481
       2.470000       0.035422       0.003247       0.078605
       2.480000       0.035735       0.003267       0.080854
       2.490000       0.036052       0.003287       0.083256
       2.500000       0.036373       0.003308       0.085862
       2.510000       0.036697       0.003328       0.088740
       2.520000       0.037026       0.003348       0.091970
       2.530000       0.037359       0.003369       0.095638
       2.540000       0.037697       0.003390       0.099835
       2.550000       0.038038       0.003411       0.104651
       2.560000       0.038384       0.003432       0.110175
       2.570000       0.038735       0.003453       0.116497
       2.580000       0.039090       0.003475       0.123702
       2.590000       0.039450       0.003496       0.131870
       2.600000       0.039815       0.003518       0.141065
       2.610000       0.040185       0.003540       0.151325
       2.620000       0.040560       0.003562       0.162642
       2.630000       0.040940       0.003584       0.174945
       2.640000       0.041326       0.003606       0.188070
       2.650000       0.041717       0.003629       0.201744
       2.660000       0.042114       0.003652       0.215579
       2.670000       0.042516       0.003675       0.229084
       2.680000       0.042925       0.003698       0.241703
       2.690000       0.043339       0.003721       0.252868
       2.700000       0.043760       0.003744       0.262057
       2.710000       0.044187       0.003768       0.268832
       2.720000       0.044620       0.003792       0.272874
       2.730000       0.045061       0.003816       0.273992
       2.740000       0.045508       0.003840       0.272133
       2.750000       0.045962       0.003865       0.267401
       2.760000       0.046424       0.003890       0.260063
       2.770000       0.046893       0.003915       0.250546
       2.780000       0.047370       0.003940       0.239409
       2.790000       0.047855       0.003965       0.227273
       2.800000       0.048348       0.003991       0.214753
       2.810000       0.048849       0.004017       0.202381
       2.820000       0.049359       0.004043       0.190564
       2.830000       0.049878       0.004070       0.179567
       2.840000       0.050406       0.004097       0.169520
       2.850000       0.050943       0.004124       0.160448
       2.860000       0.051490       0.004151       0.152300
       2.870000       0.052047       0.004178       0.144980
       2.880000       0.052615       0.004206       0.138381
       2.890000       0.053193       0.004234       0.132401
       2.900000       0.053782       0.004263       0.126956
       2.910000       0.054383       0.004292       0.121989
       2.920000       0.054995       0.004321       0.117463
       2.930000       0.055620       0.004350       0.113360
       2.940000       0.056257       0.004380       0.109673
       2.950000       0.056907       0.004410       0.106399
       2.960000       0.057571       0.004441       0.103539
       2.970000       0.058248       0.004472       0.101089
       2.980000       0.058940       0.004503       0.099048
       2.990000       0.059647       0.004535       0.097408
       3.000000       0.060370       0.004567       0.096163
       3.010000       0.061108       0.004600       0.095304
       3.020000       0.061864       0.004633       0.094824
       3.030000       0.062637       0.004666       0.094718
       3.040000       0.063427       0.004700       0.094984
       3.050000       0.064237       0.004734       0.095623
       3.060000       0.065066       0.004769       0.096641
       3.070000       0.065916       0.004805       0.098048
       3.080000       0.066787       0.004841       0.099862
       3.090000       0.067680       0.004877       0.102105
       3.100000       0.068596       0.004914       0.104806
       3.110000       0.069537       0.004952       0.108003
       3.120000       0.070502       0.004990       0.111739
       3.130000       0.071494       0.005029       0.116067
       3.140000       0.072514       0.005069       0.121048
       3.150000       0.073562       0.005109       0.126749
       3.160000       0.074641       0.005150       0.133246
       3.170000       0.075752       0.005192       0.140616
       3.180000       0.076896       0.005234       0.148939
       3.190000       0.078075       0.005277       0.158281
       3.200000       0.079292       0.005322       0.168691
       3.210000       0.080547       0.005367       0.180179
       3.220000       0.081843       0.005413       0.192697
       3.230000       0.083182       0.005460       0.206120
       3.240000       0.084567       0.005507       0.220222
       3.250000       0.086001       0.005556       0.234676
       3.260000       0.087486       0.005607       0.249062
       3.270000       0.089025       0.005658       0.262904
       3.280000       0.090622       0.005710       0.275711
       3.290000       0.092280       0.005764       0.287029
       3.300000       0.094003       0.005819       0.296466
       3.310000       0.095796       0.005876       0.303703
       3.320000       0.097663       0.005934       0.308491
       3.330000       0.099609       0.005994       0.310641
       3.340000       0.101640       0.006056       0.310032
       3.350000       0.103762       0.006119       0.306629
       3.360000       0.105982       0.006184       0.300522
       3.370000       0.108307       0.006251       0.291953
       3.380000       0.110745       0.006321       0.281327
       3.390000       0.113306       0.006393       0.269178
       3.400000       0.115999       0.006467       0.256107
       3.410000       0.118836       0.006544       0.242704
       3.420000       0.121829       0.006624       0.229485
       3.430000       0.124991       0.006708       0.216851
       3.440000       0.128339       0.006794       0.205084
       3.450000       0.131889       0.006884       0.194351
       3.460000       0.135661       0.006978       0.184734
       3.470000       0.139677       0.007077       0.176248
       3.480000       0.143962       0.007180       0.168865
       3.490000       0.148544       0.007289       0.162532
       3.500000       0.153455       0.007403       0.157179
       3.510000       0.158730       0.007523       0.152737
       3.520000       0.164412       0.007651       0.149138
       3.530000       0.170547       0.007786       0.146324
       3.540000       0.177190       0.007929       0.144247
       3.550000       0.184401       0.008082       0.142872
       3.560000       0.192254       0.008245       0.142176
       3.570000       0.200827       0.008420       0.142145
       3.580000       0.210216       0.008608       0.142776
       3.590000       0.220526       0.008811       0.144076
       3.600000       0.231879       0.009030       0.146059
       3.610000       0.244412       0.009269       0.148751
       3.620000       0.258279       0.009528       0.152187
       3.630000       0.273649       0.009810       0.156411
       3.640000       0.290705       0.010119       0.161481
       3.650000       0.309634       0.010457       0.167460
       3.660000       0.330619       0.010827       0.174422
       3.670000       0.353814       0.011231       0.182445
       3.680000       0.379314       0.011671       0.191606
       3.690000       0.407105       0.012147       0.201969
       3.700000       0.437000       0.012656       0.213576
       3.710000       0.468552       0.013192       0.226426
       3.720000       0.500977       0.013744       0.240454
       3.730000       0.533083       0.014296       0.255509
       3.740000       0.563285       0.014825       0.271341
       3.750000       0.589720       0.015304       0.287601
       3.760000       0.610516       0.015708       0.303865
       3.770000       0.624172       0.016015       0.319683
       3.780000       0.629930       0.016215       0.334631
       3.790000       0.627990       0.016311       0.348358
       3.800000       0.619473       0.016319       0.360606
       3.810000       0.606134       0.016267       0.371207
       3.820000       0.589977       0.016183       0.380055
       3.830000       0.572904       0.016096       0.387081
       3.840000       0.556496       0.016029       0.392219
       3.850000       0.541933       0.016001       0.395385
       3.860000       0.530019       0.016024       0.396468
       3.870000       0.521255       0.016107       0.395337
       3.880000       0.515931       0.016256       0.391876
       3.890000       0.514207       0.016476       0.386034
       3.900000       0.516174       0.016770       0.377881
       3.910000       0.521902       0.017141       0.367656
       3.920000       0.531475       0.017594       0.355776
       3.930000       0.545010       0.018135       0.342797
       3.940000       0.562674       0.018770       0.329339
       3.950000       0.584686       0.019506       0.316007
       3.960000       0.611328       0.020353       0.303317
       3.970000       0.642935       0.021322       0.291660
       3.980000       0.679884       0.022424       0.281295
       3.990000       0.722577       0.023672       0.272365
       4.000000       0.771396       0.025078       0.264919
       4.010000       0.826641       0.026653       0.258947
       4.020000       0.888443       0.028404       0.254412
       4.030000       0.956626       0.030331       0.251275
       4.040000       1.030555       0.032422       0.249513
       4.050000       1.108957       0.034648       0.249133
       4.060000       1.189779       0.036958       0.250167
       4.070000       1.270136       0.039274       0.252670
       4.080000       1.346432       0.041492       0.256708
       4.090000       1.414704       0.043491       0.262353
       4.100000       1.471128       0.045145       0.269669
       4.110000       1.512584       0.046348       0.278708
       4.120000       1.537099       0.047038       0.289491
       4.130000       1.544056       0.047207       0.301995
       4.140000       1.534164       0.046911       0.316124
       4.150000       1.509263       0.046250       0.331694
       4.160000       1.472058       0.045350       0.348414
       4.170000       1.425803       0.044337       0.365892
       4.180000       1.373952       0.043317       0.383668
       4.190000       1.319774       0.042362       0.401262
       4.200000       1.266013       0.041508       0.418244
       4.210000       1.214660       0.040759       0.434278
       4.220000       1.166907       0.040089       0.449141
       4.230000       1.123286       0.039462       0.462710
       4.240000       1.083914       0.038841       0.474935
       4.250000       1.048781       0.038201       0.485804
       4.260000       1.017949       0.037540       0.495310
       4.270000       0.991636       0.036877       0.503426
       4.280000       0.970156       0.036244       0.510082
       4.290000       0.953785       0.035682       0.515158
       4.300000       0.942605       0.035222       0.518487
       4.310000       0.936377       0.034890       0.519870
       4.320000       0.934447       0.034693       0.519096
       4.330000       0.935730       0.034624       0.515986
       4.340000       0.938759       0.034665       0.510447
       4.350000       0.941841       0.034786       0.502539
       4.360000       0.943303       0.034955       0.492519
       4.370000       0.941786       0.035142       0.480858
       4.380000       0.936491       0.035326       0.468195
       4.390000       0.927282       0.035493       0.455254
       4.400000       0.914640       0.035644       0.442746
       4.410000       0.899498       0.035792       0.431279
       4.420000       0.883054       0.035958       0.421323
       4.430000       0.866612       0.036173       0.413198
       4.440000       0.851454       0.036473       0.407103
       4.450000       0.838747       0.036897       0.403150
       4.460000       0.829477       0.037482       0.401394
       4.470000       0.824414       0.038260       0.401866
       4.480000       0.824094       0.039257       0.404590
       4.490000       0.828831       0.040487       0.409592
       4.500000       0.838721       0.041953       0.416897
       4.510000       0.853640       0.043644       0.426511
       4.520000       0.873225       0.045530       0.438396
       4.530000       0.896861       0.047561       0.452436
       4.540000       0.923679       0.049664       0.468407
       4.550000       0.952603       0.051749       0.485958
       4.560000       0.982452       0.053717       0.504629
       4.570000       1.012106       0.055475       0.523892
       4.580000       1.040679       0.056950       0.543215
       4.590000       1.067656       0.058101       0.562121
       4.600000       1.092961       0.058920       0.580225
       4.610000       1.116963       0.059436       0.597234
       4.620000       1.140406       0.059704       0.612926
       4.630000       1.164306       0.059797       0.627114
       4.640000       1.189755       0.059791       0.639612
       4.650000       1.217692       0.059756       0.650210
       4.660000       1.248660       0.059734       0.658662
       4.670000       1.282637       0.059735       0.664707
       4.680000       1.318985       0.059734       0.668122
       4.690000       1.356546       0.059682       0.668794
       4.700000       1.393844       0.059525       0.666806
       4.710000       1.429339       0.059218       0.662507
       4.720000       1.461642       0.058740       0.656530
       4.730000       1.489656       0.058104       0.649736
       4.740000       1.512641       0.057343       0.643106
       4.750000       1.530236       0.056508       0.637608
       4.760000       1.542443       0.055646       0.634091
       4.770000       1.549539       0.054796       0.633227
       4.780000       1.551890       0.053980       0.635488
       4.790000       1.549733       0.053202       0.641162
       4.800000       1.543040       0.052456       0.650363
       4.810000       1.531573       0.051735       0.663037
       4.820000       1.515122       0.051039       0.678956
       4.830000       1.493824       0.050384       0.697705
       4.840000       1.468401       0.049803       0.718680
       4.850000       1.440224       0.049340       0.741098
       4.860000       1.411166       0.049043       0.764026
       4.870000       1.383342       0.048958       0.786436
       4.880000       1.358827       0.049128       0.807263
       4.890000       1.339442       0.049585       0.825489
       4.900000       1.326642       0.050356       0.840203
       4.910000       1.321470       0.051463       0.850684
       4.920000       1.324538       0.052921       0.856473
       4.930000       1.336023       0.054738       0.857457
       4.940000       1.355639       0.056915       0.853914
       4.950000       1.382617       0.059440       0.846508
       4.960000       1.415713       0.062283       0.836190
       4.970000       1.453259       0.065393       0.824017
       4.980000       1.493288       0.068691       0.810933
       4.990000       1.533711       0.072077       0.797567
       5.000000       1.572521       0.075431       0.784102
       5.010000       1.607951       0.078628       0.770262
       5.020000       1.638573       0.081549       0.755393
       5.030000       1.663330       0.084092       0.738662
       5.040000       1.681542       0.086176       0.719309
       5.050000       1.692926       0.087745       0.696900
       5.060000       1.697639       0.088766       0.671483
       5.070000       1.696298       0.089227       0.643608
       5.080000       1.689954       0.089139       0.614202
       5.090000       1.679991       0.088526       0.584357
       5.100000       1.668002       0.087427       0.555124
       5.110000       1.655675       0.085898       0.527371
       5.120000       1.644700       0.084009       0.501720
       5.130000       1.636687       0.081858       0.478545
       5.140000       1.633037       0.079563       0.458018
       5.150000       1.634761       0.077254       0.440158
       5.160000       1.642250       0.075061       0.424878
       5.170000       1.655056       0.073100       0.412027
       5.180000       1.671769       0.071462       0.401410
       5.190000       1.690058       0.070213       0.392808
       5.200000       1.706954       0.069395       0.385991
       5.210000       1.719387       0.069035       0.380731
       5.220000       1.724884       0.069147       0.376814
       5.230000       1.722230       0.069743       0.374064
       5.240000       1.711817       0.070831       0.372352
       5.250000       1.695532       0.072417       0.371599
       5.260000       1.676244       0.074502       0.371770
       5.270000       1.657093       0.077073       0.372844
       5.280000       1.640848       0.080095       0.374789
       5.290000       1.629475       0.083497       0.377537
       5.300000       1.623937       0.087168       0.380982
       5.310000       1.624188       0.090945       0.384985
       5.320000       1.629319       0.094618       0.389410
       5.330000       1.637816       0.097947       0.394164
       5.340000       1.647926       0.100689       0.399236
       5.350000       1.658069       0.102640       0.404719
       5.360000       1.667233       0.103675       0.410798
       5.370000       1.675239       0.103775       0.417727
       5.380000       1.682802       0.103035       0.425790
       5.390000       1.691361       0.101644       0.435272
       5.400000       1.702735       0.099845       0.446441
       5.410000       1.718718       0.097894       0.459548
       5.420000       1.740715       0.096018       0.474825
       5.430000       1.769504       0.094392       0.492495
       5.440000       1.805126       0.093132       0.512772
       5.450000       1.846882       0.092296       0.535861
       5.460000       1.893402       0.091892       0.561945
       5.470000       1.942767       0.091892       0.591163
       5.480000       1.992680       0.092236       0.623576
       5.490000       2.040696       0.092848       0.659121
       5.500000       2.084482       0.093643       0.697560
       5.510000       2.122085       0.094541       0.738429
       5.520000       2.152147       0.095472       0.781019
       5.530000       2.174043       0.096384       0.824401
       5.540000       2.187913       0.097244       0.867520
       5.550000       2.194577       0.098025       0.909349
       5.560000       2.195311       0.098705       0.949074
       5.570000       2.191566       0.099259       0.986255
       5.580000       2.184720       0.099665       1.020928
       5.590000       2.175979       0.099910       1.053607
       5.600000       2.166433       0.099997       1.085180
       5.610000       2.157174       0.099944       1.116732
       5.620000       2.149397       0.099782       1.149311
       5.630000       2.144434       0.099553       1.183717
       5.640000       2.143760       0.099309       1.220362
       5.650000       2.148956       0.099116       1.259227
       5.660000       2.161652       0.099062       1.299923
       5.670000       2.183399       0.099242       1.341808
       5.680000       2.215475       0.099752       1.384094
       5.690000       2.258655       0.100665       1.425910
       5.700000       2.312986       0.102016       1.466351
       5.710000       2.377592       0.103787       1.504558
       5.720000       2.450577       0.105898       1.539875
       5.730000       2.529066       0.108215       1.572020
       5.740000       2.609476       0.110555       1.601189
       5.750000       2.688055       0.112716       1.628003
       5.760000       2.761620       0.114508       1.653314
       5.770000       2.828281       0.115794       1.677986
       5.780000       2.887890       0.116518       1.702751
       5.790000       2.942003       0.116714       1.728212
       5.800000       2.993407       0.116501       1.754946
       5.810000       3.045412       0.116046       1.783571
       5.820000       3.101163       0.115530       1.814707
       5.830000       3.163150       0.115113       1.848810
       5.840000       3.232958       0.114905       1.886001
       5.850000       3.311269       0.114952       1.925968
       5.860000       3.398084       0.115233       1.967987
       5.870000       3.493101       0.115666       2.011030
       5.880000       3.596112       0.116133       2.053885
       5.890000       3.707290       0.116503       2.095258
       5.900000       3.827265       0.116660       2.133861
       5.910000       3.957006       0.116533       2.168487
       5.920000       4.097584       0.116091       2.198075
       5.930000       4.249917       0.115346       2.221757
       5.940000       4.414554       0.114336       2.238923
       5.950000       4.591554       0.113115       2.249304
       5.960000       4.780447       0.111756       2.253081
       5.970000       4.980296       0.110342       2.250965
       5.980000       5.189784       0.108972       2.244201
       5.990000       5.407290       0.107743       2.234468
       6.000000       5.630893       0.106735       2.223687
       6.010000       5.858327       0.105995       2.213782
       6.020000       6.086958       0.105534       2.206414
       6.030000       6.313879       0.105330       2.202747
       6.040000       6.536131       0.105340       2.203254
       6.050000       6.750986       0.105526       2.207633
       6.060000       6.956142       0.105862       2.214819
       6.070000       7.149704       0.106349       2.223131
       6.080000       7.329936       0.107006       2.230517
       6.090000       7.494950       0.107860       2.234890
       6.100000       7.642520       0.108938       2.234490
       6.110000       7.770191       0.110263       2.228207
       6.120000       7.875697       0.111856       2.215769
       6.130000       7.957537       0.113740       2.197770
       6.140000       8.015478       0.115941       2.175519
       6.150000       8.050781       0.118476       2.150755
       6.160000       8.066084       0.121342       2.125325
       6.170000       8.064987       0.124505       2.100877
       6.180000       8.051495       0.127898       2.078664
       6.190000       8.029478       0.131429       2.059439
       6.200000       8.002248       0.135000       2.043455
       6.210000       7.972255       0.138514       2.030548
       6.220000       7.940828       0.141878       2.020279
       6.230000       7.907937       0.144997       2.012105
       6.240000       7.872050       0.147757       2.005550
       6.250000       7.830292       0.150029       2.000333
       6.260000       7.778940       0.151682       1.996450
       6.270000       7.714183       0.152611       1.994165
       6.280000       7.632855       0.152758       1.993891
       6.290000       7.532919       0.152127       1.995981
       6.300000       7.413675       0.150780       2.000483
       6.310000       7.275777       0.148825       2.006995
       6.320000       7.121171       0.146403       2.014681
       6.330000       6.952921       0.143665       2.022447
       6.340000       6.774844       0.140761       2.029205
       6.350000       6.591005       0.137829       2.034088
       6.360000       6.405244       0.134998       2.036560
       6.370000       6.220954       0.132384       2.036388
       6.380000       6.041204       0.130100       2.033541
       6.390000       5.869054       0.128243       2.028046
       6.400000       5.707806       0.126890       2.019863
       6.410000       5.560973       0.126089       2.008807
       6.420000       5.431957       0.125853       1.994569
       6.430000       5.323636       0.126160       1.976859
       6.440000       5.238033       0.126957       1.955616
       6.450000       5.176181       0.128163       1.931238
       6.460000       5.138096       0.129677       1.904717
       6.470000       5.122771       0.131385       1.877636
       6.480000       5.128167       0.133166       1.852016
       6.490000       5.151233       0.134904       1.830045
       6.500000       5.188047       0.136501       1.813772
       6.510000       5.234102       0.137888       1.804838
       6.520000       5.284661       0.139023       1.804264
       6.530000       5.335079       0.139899       1.812325
       6.540000       5.380940       0.140543       1.828498
       6.550000       5.418005       0.141012       1.851498
       6.560000       5.442055       0.141386       1.879401
       6.570000       5.448835       0.141749       1.909861
       6.580000       5.434294       0.142173       1.940406
       6.590000       5.395181       0.142708       1.968750
       6.600000       5.329905       0.143383       1.993054
       6.610000       5.239324       0.144202       2.012026
       6.620000       5.127093       0.145155       2.024864
       6.630000       4.999301       0.146213       2.031072
       6.640000       4.863461       0.147328       2.030297
       6.650000       4.727177       0.148444       2.022291
       6.660000       4.596944       0.149503       2.007030
       6.670000       4.477379       0.150459       1.984935
       6.680000       4.370927       0.151279       1.957049
       6.690000       4.277979       0.151945       1.925043
       6.700000       4.197288       0.152442       1.891039
       6.710000       4.126607       0.152767       1.857307
       6.720000       4.063439       0.152933       1.825977
       6.730000       4.005740       0.152985       1.798849
       6.740000       3.952359       0.152999       1.777342
       6.750000       3.903095       0.153068       1.762532
       6.760000       3.858414       0.153286       1.755233
       6.770000       3.819020       0.153719       1.756060
       6.780000       3.785488       0.154395       1.765441
       6.790000       3.758081       0.155293       1.783598
       6.800000       3.736726       0.156353       1.810502
       6.810000       3.721100       0.157494       1.845854
       6.820000       3.710728       0.158637       1.889094
       6.830000       3.705104       0.159729       1.939430
       6.840000       3.703806       0.160743       1.995859
       6.850000       3.706641       0.161667       2.057147
       6.860000       3.713789       0.162476       2.121771
       6.870000       3.725888       0.163108       2.187816
       6.880000       3.744014       0.163456       2.252927
       6.890000       3.769498       0.163394       2.314385
       6.900000       3.803602       0.162810       2.369362
       6.910000       3.847141       0.161652       2.415304
       6.920000       3.900149       0.159949       2.450339
       6.930000       3.961656       0.157808       2.473554
       6.940000       4.029568       0.155387       2.485089
       6.950000       4.100624       0.152862       2.486055
       6.960000       4.170396       0.150397       2.478351
       6.970000       4.233380       0.148136       2.464477
       6.980000       4.283304       0.146201       2.447363
       6.990000       4.313776       0.144695       2.430215
       7.000000       4.319293       0.143701       2.416343
       7.010000       4.296403       0.143275       2.408934
       7.020000       4.244645       0.143438       2.410808
       7.030000       4.166837       0.144174       2.424199
       7.040000       4.068546       0.145431       2.450610
       7.050000       3.956943       0.147132       2.490774
       7.060000       3.839480       0.149199       2.544673
       7.070000       3.722817       0.151576       2.611616
       7.080000       3.612143       0.154244       2.690353
       7.090000       3.510860       0.157222       2.779240
       7.100000       3.420499       0.160558       2.876439
       7.110000       3.340848       0.164296       2.980093
       7.120000       3.270304       0.168461       3.088429
       7.130000       3.206493       0.173038       3.199725
       7.140000       3.147052       0.177975       3.312168
       7.150000       3.090379       0.183192       3.423692
       7.160000       3.036071       0.188588       3.531885
       7.170000       2.984900       0.194052       3.634068
       7.180000       2.938400       0.199461       3.727521
       7.190000       2.898296       0.204681       3.809791
       7.200000       2.866007       0.209575       3.878933
       7.210000       2.842378       0.214016       3.933530
       7.220000       2.827584       0.217889       3.972495
       7.230000       2.821139       0.221095       3.994772
       7.240000       2.821921       0.223552       3.999166
       7.250000       2.828177       0.225201       3.984487
       7.260000       2.837542       0.226013       3.950007
       7.270000       2.847114       0.226002       3.896058
       7.280000       2.853633       0.225215       3.824500
       7.290000       2.853817       0.223717       3.738814
       7.300000       2.844841       0.221569       3.643741
       7.310000       2.824905       0.218815       3.544549
       7.320000       2.793691       0.215488       3.446143
       7.330000       2.752574       0.211619       3.352287
       7.340000       2.704424       0.207273       3.265120
       7.350000       2.653107       0.202560       3.185081
       7.360000       2.602834       0.197650       3.111194
       7.370000       2.557614       0.192755       3.041620
       7.380000       2.520914       0.188106       2.974311
       7.390000       2.495543       0.183917       2.907628
       7.400000       2.483677       0.180347       2.840779
       7.410000       2.486906       0.177481       2.773999
       7.420000       2.506266       0.175318       2.708417
       7.430000       2.542201       0.173774       2.645697
       7.440000       2.594488       0.172707       2.587583
       7.450000       2.662123       0.171939       2.535478
       7.460000       2.743157       0.171305       2.490185
       7.470000       2.834512       0.170681       2.451817
       7.480000       2.931785       0.170010       2.419862
       7.490000       3.029168       0.169299       2.393356
       7.500000       3.119647       0.168597       2.371096
       7.510000       3.195620       0.167971       2.351869
       7.520000       3.249969       0.167487       2.334667
       7.530000       3.277368       0.167210       2.318879
       7.540000       3.275432       0.167209       2.304432
       7.550000       3.245294       0.167572       2.291834
       7.560000       3.191375       0.168401       2.282082
       7.570000       3.120417       0.169800       2.276391
       7.580000       3.040108       0.171863       2.275816
       7.590000       2.957734       0.174646       2.280853
       7.600000       2.879204       0.178156       2.291151
       7.610000       2.808566       0.182343       2.305417
       7.620000       2.747969       0.187097       2.321556
       7.630000       2.697933       0.192260       2.337024
       7.640000       2.657767       0.197645       2.349290
       7.650000       2.626048       0.203056       2.356270
       7.660000       2.601039       0.208323       2.356584
       7.670000       2.581007       0.213316       2.349542
       7.680000       2.564370       0.217953       2.334920
       7.690000       2.549730       0.222183       2.312667
       7.700000       2.535886       0.225970       2.282738
       7.710000       2.521900       0.229277       2.245134
       7.720000       2.507199       0.232057       2.200117
       7.730000       2.491660       0.234248       2.148447
       7.740000       2.475621       0.235769       2.091489
       7.750000       2.459830       0.236535       2.031114
       7.760000       2.445359       0.236474       1.969430
       7.770000       2.433465       0.235564       1.908474
       7.780000       2.425372       0.233842       1.849993
       7.790000       2.421982       0.231407       1.795378
       7.800000       2.423579       0.228388       1.745715
       7.810000       2.429652       0.224924       1.701870
       7.820000       2.438932       0.221140       1.664553
       7.830000       2.449701       0.217151       1.634320
       7.840000       2.460318       0.213079       1.611541
       7.850000       2.469798       0.209055       1.596361
       7.860000       2.478221       0.205224       1.588651
       7.870000       2.486794       0.201726       1.587964
       7.880000       2.497536       0.198683       1.593502
       7.890000       2.512717       0.196186       1.604102
       7.900000       2.534284       0.194304       1.618281
       7.910000       2.563430       0.193092       1.634315
       7.920000       2.600406       0.192604       1.650369
       7.930000       2.644565       0.192899       1.664625
       7.940000       2.694633       0.194034       1.675430
       7.950000       2.749134       0.196058       1.681462
       7.960000       2.806861       0.199001       1.681935
       7.970000       2.867228       0.202862       1.676807
       7.980000       2.930345       0.207620       1.666909
       7.990000       2.996809       0.213226       1.653899
       8.000000       3.067298       0.219622       1.639995
       8.010000       3.142162       0.226734       1.627559
       8.020000       3.221169       0.234482       1.618653
       8.030000       3.303488       0.242770       1.614690
       8.040000       3.387892       0.251492       1.616225
       8.050000       3.473077       0.260529       1.622919
       8.060000       3.557951       0.269752       1.633641
       8.070000       3.641754       0.279021       1.646693
       8.080000       3.723917       0.288179       1.660127
       8.090000       3.803677       0.297041       1.672109
       8.100000       3.879598       0.305389       1.681276
       8.110000       3.949251       0.312982       1.686978
       8.120000       4.009248       0.319579       1.689352
       8.130000       4.055693       0.324977       1.689193
       8.140000       4.084875       0.329038       1.687683
       8.150000       4.093926       0.331691       1.686063
       8.160000       4.081214       0.332909       1.685361
       8.170000       4.046427       0.332689       1.686207
       8.180000       3.990470       0.331042       1.688778
       8.190000       3.915302       0.328016       1.692815
       8.200000       3.823790       0.323726       1.697692
       8.210000       3.719544       0.318369       1.702482
       8.220000       3.606708       0.312221       1.706001
       8.230000       3.489686       0.305616       1.706849
       8.240000       3.372854       0.298919       1.703490
       8.250000       3.260309       0.292504       1.694425
       8.260000       3.155696       0.286727       1.678452
       8.270000       3.062127       0.281903       1.654969
       8.280000       2.982126       0.278293       1.624209
       8.290000       2.917587       0.276090       1.587296
       8.300000       2.869680       0.275425       1.546094
       8.310000       2.838730       0.276362       1.502875
       8.320000       2.824101       0.278912       1.459934
       8.330000       2.824103       0.283033       1.419238
       8.340000       2.835970       0.288638       1.382203
       8.350000       2.855928       0.295592       1.349631
       8.360000       2.879422       0.303727       1.321786
       8.370000       2.901535       0.312855       1.298554
       8.380000       2.917618       0.322803       1.279642
       8.390000       2.924024       0.333446       1.264720
       8.400000       2.918735       0.344744       1.253492
       8.410000       2.901658       0.356757       1.245707
       8.420000       2.874494       0.369619       1.241132
       8.430000       2.840267       0.383508       1.239550
       8.440000       2.802711       0.398585       1.240758
       8.450000       2.765674       0.414956       1.244584
       8.460000       2.732651       0.432636       1.250884
       8.470000       2.706455       0.451539       1.259548
       8.480000       2.689044       0.471468       1.270531
       8.490000       2.681454       0.492127       1.283908
       8.500000       2.683829       0.513128       1.299921
       8.510000       2.695496       0.534012       1.319008
       8.520000       2.715094       0.554277       1.341756
       8.530000       2.740762       0.573407       1.368819
       8.540000       2.770368       0.590927       1.400782
       8.550000       2.801753       0.606468       1.438014
       8.560000       2.832920       0.619843       1.480496
       8.570000       2.862124       0.631100       1.527643
       8.580000       2.887884       0.640556       1.578170
       8.590000       2.909016       0.648781       1.630024
       8.600000       2.924758       0.656533       1.680460
       8.610000       2.934960       0.664640       1.726291
       8.620000       2.940213       0.673848       1.764295
       8.630000       2.941789       0.684663       1.791742
       8.640000       2.941406       0.697255       1.806901
       8.650000       2.940968       0.711428       1.809387
       8.660000       2.942419       0.726676       1.800207
       8.670000       2.947747       0.742296       1.781497
       8.680000       2.959025       0.757495       1.756022
       8.690000       2.978348       0.771460       1.726631
       8.700000       3.007596       0.783349       1.695797
       8.710000       3.048099       0.792258       1.665346
       8.720000       3.100296       0.797243       1.636383
       8.730000       3.163510       0.797442       1.609382
       8.740000       3.235915       0.792308       1.584385
       8.750000       3.314700       0.781836       1.561239
       8.760000       3.396433       0.766683       1.539780
       8.770000       3.477574       0.748103       1.519933
       8.780000       3.555035       0.727730       1.501701
       8.790000       3.626683       0.707296       1.485121
       8.800000       3.691600       0.688382       1.470236
       8.810000       3.750016       0.672266       1.457108
       8.820000       3.802891       0.659861       1.445845
       8.830000       3.851316       0.651726       1.436612
       8.840000       3.895940       0.648106       1.429588
       8.850000       3.936618       0.648991       1.424925
       8.860000       3.972353       0.654162       1.422696
       8.870000       4.001522       0.663246       1.422879
       8.880000       4.022285       0.675770       1.425358
       8.890000       4.033058       0.691212       1.429930
       8.900000       4.032915       0.709039       1.436335
       8.910000       4.021828       0.728715       1.444304
       8.920000       4.000707       0.749675       1.453624
       8.930000       3.971271       0.771290       1.464212
       8.940000       3.935797       0.792847       1.476167
       8.950000       3.896818       0.813586       1.489766
       8.960000       3.856791       0.832809       1.505414
       8.970000       3.817795       0.850017       1.523547
       8.980000       3.781325       0.865031       1.544537
       8.990000       3.748225       0.878048       1.568600
       9.000000       3.718777       0.889571       1.595739
       9.010000       3.692882       0.900242       1.625704
       9.020000       3.670265       0.910625       1.657988
       9.030000       3.650629       0.920998       1.691840
       9.040000       3.633720       0.931245       1.726301
       9.050000       3.619245       0.940856       1.760248
       9.060000       3.606689       0.949040       1.792491
       9.070000       3.595071       0.954910       1.821937
       9.080000       3.582827       0.957673       1.847812
       9.090000       3.567946       0.956774       1.869885
       9.100000       3.548349       0.951968       1.888595
       9.110000       3.522369       0.943327       1.905014
       9.120000       3.489083       0.931197       1.920657
       9.130000       3.448328       0.916140       1.937208
       9.140000       3.400464       0.898868       1.956269
       9.150000       3.346085       0.880193       1.979201
       9.160000       3.285881       0.860991       2.007057
       9.170000       3.220732       0.842157       2.040613
       9.180000       3.151903       0.824559       2.080424
       9.190000       3.081171       0.808957       2.126869
       9.200000       3.010741       0.795933       2.180173
       9.210000       2.942951       0.785836       2.240397
       9.220000       2.879838       0.778763       2.307410
       9.230000       2.822758       0.774584       2.380900
       9.240000       2.772174       0.772980       2.460424
       9.250000       2.727733       0.773503       2.545524
       9.260000       2.688595       0.775635       2.635868
       9.270000       2.653907       0.778848       2.731403
       9.280000       2.623222       0.782668       2.832473
       9.290000       2.596714       0.786750       2.939899
       9.300000       2.575097       0.790942       3.054966
       9.310000       2.559313       0.795314       3.179328
       9.320000       2.550103       0.800123       3.314834
       9.330000       2.547621       0.805706       3.463316
       9.340000       2.551196       0.812311       3.626358
       9.350000       2.559329       0.819940       3.805067
       9.360000       2.569935       0.828247       3.999863
       9.370000       2.580793       0.836559       4.210272
       9.380000       2.590043       0.844019       4.434796
       9.390000       2.596575       0.849829       4.670898
       9.400000       2.600150       0.853505       4.915168
       9.410000       2.601253       0.855044       5.163698
       9.420000       2.600758       0.854933       5.412595
       9.430000       2.599578       0.853999       5.658523
       9.440000       2.598425       0.853178       5.899070
       9.450000       2.597706       0.853294       6.132840
       9.460000       2.597535       0.854936       6.359206
       9.470000       2.597784       0.858435       6.577863
       9.480000       2.598128       0.863886       6.788373
       9.490000       2.598047       0.871187       6.989859
       9.500000       2.596809       0.880026       7.180945
       9.510000       2.593500       0.889858       7.359874
       9.520000       2.587142       0.899894       7.524701
       9.530000       2.576920       0.909166       7.673435
       9.540000       2.562439       0.916665       7.804075
       9.550000       2.543916       0.921531       7.914562
       9.560000       2.522227       0.923218       8.002729
       9.570000       2.498768       0.921563       8.066345
       9.580000       2.475169       0.916729       8.103278
       9.590000       2.452951       0.909076       8.111746
       9.600000       2.433250       0.899043       8.090579
       9.610000       2.416678       0.887089       8.039417
       9.620000       2.403385       0.873717       7.958854
       9.630000       2.393248       0.859526       7.850520
       9.640000       2.386113       0.845243       7.717149
       9.650000       2.381951       0.831710       7.562572
       9.660000       2.380830       0.819803       7.391592
       9.670000       2.382724       0.810339       7.209658
       9.680000       2.387261       0.803975       7.022392
       9.690000       2.393550       0.801140       6.835081
       9.700000       2.400182       0.802008       6.652291
       9.710000       2.405399       0.806521       6.477703
       9.720000       2.407335       0.814447       6.314150
       9.730000       2.404257       0.825456       6.163754
       9.740000       2.394767       0.839182       6.028036
       9.750000       2.377964       0.855228       5.907931
       9.760000       2.353578       0.873131       5.803688
       9.770000       2.322041       0.892281       5.714699
       9.780000       2.284452       0.911871       5.639332
       9.790000       2.242407       0.930908       5.574852
       9.800000       2.197727       0.948317       5.517537
       9.810000       2.152146       0.963102       5.463061
       9.820000       2.107034       0.974525       5.407134
       9.830000       2.063220       0.982231       5.346246
       9.840000       2.020949       0.986293       5.278302
       9.850000       1.979983       0.987152       5.202948
       9.860000       1.939800       0.985506       5.121512
       9.870000       1.899824       0.982170       5.036579
       9.880000       1.859611       0.977955       4.951338
       9.890000       1.818952       0.973585       4.868887
       9.900000       1.777897       0.969639       4.791698
       9.910000       1.736711       0.966536       4.721392
       9.920000       1.695784       0.964536       4.658827
       9.930000       1.655528       0.963792       4.604399
       9.940000       1.616293       0.964414       4.558382
       9.950000       1.578345       0.966564       4.521098
       9.960000       1.541907       0.970511       4.492837
       9.970000       1.507214       0.976636       4.473524
       9.980000       1.474551       0.985357       4.462294
       9.990000       1.444242       0.996997       4.457193
      10.000000       1.416600       1.011641       4.455173
      10.010000       1.391878       1.029035       4.452473
      10.020000       1.370239       1.048543       4.445302
      10.030000       1.351757       1.069187       4.430611
      10.040000       1.336435       1.089745       4.406665
      10.050000       1.324211       1.108910       4.373204
      10.060000       1.314954       1.125473       4.331142
      10.070000       1.308446       1.138498       4.281991
      10.080000       1.304388       1.147433       4.227284
      10.090000       1.302457       1.152135       4.168220
      10.100000       1.302427       1.152813       4.105617
      10.110000       1.304319       1.149945       4.040070
      10.120000       1.308514       1.144177       3.972194
      10.130000       1.315762       1.136226       3.902801
      10.140000       1.327077       1.126765       3.832960
      10.150000       1.343548       1.116340       3.763953
      10.160000       1.366126       1.105338       3.697157
      10.170000       1.395468       1.094038       3.633896
      10.180000       1.431825       1.082710       3.575250
      10.190000       1.474996       1.071707       3.521831
      10.200000       1.524325       1.061471       3.473553
      10.210000       1.578725       1.052443       3.429501
      10.220000       1.636735       1.044906       3.387970
      10.230000       1.696612       1.038841       3.346734
      10.240000       1.756437       1.033871       3.303510
      10.250000       1.814249       1.029321       3.256503
      10.260000       1.868172       1.024395       3.204859
      10.270000       1.916546       1.018384       3.148887
      10.280000       1.958052       1.010851       3.089991
      10.290000       1.991836       1.001687       3.030337
      10.300000       2.017617       0.991068       2.972409
      10.310000       2.035723       0.979327       2.918572
      10.320000       2.047018       0.966826       2.870757
      10.330000       2.052694       0.953876       2.830299
      10.340000       2.054002       0.940736       2.797883
      10.350000       2.052009       0.927641       2.773561
      10.360000       2.047474       0.914865       2.756812
      10.370000       2.040835       0.902757       2.746620
      10.380000       2.032287       0.891774       2.741585
      10.390000       2.021867       0.882483       2.740047
      10.400000       2.009528       0.875541       2.740222
      10.410000       1.995196       0.871633       2.740314
      10.420000       1.978846       0.871390       2.738633
      10.430000       1.960587       0.875294       2.733683
      10.440000       1.940683       0.883620       2.724285
      10.450000       1.919472       0.896400       2.709706
      10.460000       1.897168       0.913428       2.689804
      10.470000       1.873656       0.934301       2.665129
      10.480000       1.848394       0.958471       2.636917
      10.490000       1.820486       0.985324       2.606955
      10.500000       1.788928       1.014244       2.577334
      10.510000       1.752914       1.044675       2.550149
      10.520000       1.712134       1.076158       2.527228
      10.530000       1.666959       1.108353       2.509915
      10.540000       1.618457       1.141032       2.498958
      10.550000       1.568229       1.174064       2.494514
      10.560000       1.518106       1.207386       2.496255
      10.570000       1.469804       1.240952       2.503547
      10.580000       1.424645       1.274685       2.515622
      10.590000       1.383417       1.308440       2.531702
      10.600000       1.346361       1.341980       2.551061
      10.610000       1.313264       1.374948       2.573052
      10.620000       1.283572       1.406814       2.597107
      10.630000       1.256525       1.436813       2.622723
      10.640000       1.231276       1.463917       2.649454
      10.650000       1.207018       1.486867       2.676897
      10.660000       1.183096       1.504305       2.704712
      10.670000       1.159117       1.514977       2.732649
      10.680000       1.135008       1.517995       2.760584
      10.690000       1.111035       1.513100       2.788518
      10.700000       1.087734       1.500805       2.816555
      10.710000       1.065777       1.482369       2.844849
      10.720000       1.045801       1.459565       2.873553
      10.730000       1.028253       1.434334       2.902759
      10.740000       1.013299       1.408450       2.932423
      10.750000       1.000824       1.383294       2.962292
      10.760000       0.990514       1.359785       2.991840
      10.770000       0.981988       1.338463       3.020269
      10.780000       0.974943       1.319647       3.046555
      10.790000       0.969253       1.303581       3.069545
      10.800000       0.964998       1.290497       3.088074
      10.810000       0.962425       1.280594       3.101138
      10.820000       0.961863       1.273947       3.108074
      10.830000       0.963644       1.270446       3.108719
      10.840000       0.968050       1.269789       3.103481
      10.850000       0.975302       1.271549       3.093259
      10.860000       0.985560       1.275249       3.079265
      10.870000       0.998927       1.280412       3.062780
      10.880000       1.015430       1.286561       3.044951
      10.890000       1.034990       1.293208       3.026658
      10.900000       1.057376       1.299871       3.008449
      10.910000       1.082170       1.306113       2.990550
      10.920000       1.108742       1.311582       2.972905
      10.930000       1.136257       1.315999       2.955269
      10.940000       1.163729       1.319121       2.937291
      10.950000       1.190130       1.320704       2.918591
      10.960000       1.214548       1.320550       2.898791
      10.970000       1.236345       1.318614       2.877552
      10.980000       1.255275       1.315146       2.854640
      10.990000       1.271518       1.310758       2.830058
      11.000000       1.285625       1.306384       2.804188
      11.010000       1.298392       1.303141       2.777894
      11.020000       1.310710       1.302146       2.752494
      11.030000       1.323389       1.304344       2.729592
      11.040000       1.337021       1.310381       2.710815
      11.050000       1.351894       1.320537       2.697537
      11.060000       1.367983       1.334732       2.690689
      11.070000       1.385032       1.352584       2.690707
      11.080000       1.402651       1.373505       2.697596
      11.090000       1.420418       1.396814       2.711061
      11.100000       1.437920       1.421824       2.730618
      11.110000       1.454759       1.447918       2.755647
      11.120000       1.470535       1.474613       2.785379
      11.130000       1.484845       1.501639       2.818853
      11.140000       1.497302       1.529007       2.854885
      11.150000       1.507586       1.557017       2.892062
      11.160000       1.515473       1.586142       2.928770
      11.170000       1.520838       1.616798       2.963253
      11.180000       1.523613       1.649056       2.993714
      11.190000       1.523725       1.682429       3.018464
      11.200000       1.521066       1.715804       3.036074
      11.210000       1.515512       1.747553       3.045516
      11.220000       1.506992       1.775787       3.046209
      11.230000       1.495571       1.798668       3.037983
      11.240000       1.481534       1.814735       3.020989
      11.250000       1.465439       1.823172       2.995605
      11.260000       1.448130       1.823980       2.962398
      11.270000       1.430685       1.817990       2.922144
      11.280000       1.414273       1.806697       2.875846
      11.290000       1.399945       1.791946       2.824697
      11.300000       1.388427       1.775538       2.769960
      11.310000       1.379969       1.758898       2.712808
      11.320000       1.374337       1.742911       2.654218
      11.330000       1.370932       1.727974       2.594976
      11.340000       1.369010       1.714220       2.535813
      11.350000       1.367925       1.701790       2.477573
      11.360000       1.367304       1.691033       2.421339
      11.370000       1.367089       1.682547       2.368425
      11.380000       1.367440       1.677076       2.320228
      11.390000       1.368548       1.675308       2.278026
      11.400000       1.370459       1.677699       2.242792
      11.410000       1.372991       1.684384       2.215094
      11.420000       1.375767       1.695212       2.195082
      11.430000       1.378324       1.709876       2.182536
      11.440000       1.380210       1.728055       2.176930
      11.450000       1.381010       1.749492       2.177495
      11.460000       1.380283       1.773945       2.183284
      11.470000       1.377470       1.801017       2.193233
      11.480000       1.371839       1.829924       2.206225
      11.490000       1.362513       1.859317       2.221159
      11.500000       1.348575       1.887277       2.237018
      11.510000       1.329243       1.911518       2.252959
      11.520000       1.304061       1.929798       2.268394
      11.530000       1.273071       1.940402       2.283043
      11.540000       1.236904       1.942548       2.296908
      11.550000       1.196752       1.936556       2.310146
      11.560000       1.154203       1.923734       2.322865
      11.570000       1.111013       1.906037       2.334918
      11.580000       1.068864       1.885634       2.345765
      11.590000       1.029183       1.864521       2.354466
      11.600000       0.993041       1.844263       2.359815
      11.610000       0.961134       1.825899       2.360567
      11.620000       0.933822       1.809988       2.355688
      11.630000       0.911194       1.796731       2.344542
      11.640000       0.893142       1.786087       2.326979
      11.650000       0.879412       1.777817       2.303333
      11.660000       0.869639       1.771436       2.274336
      11.670000       0.863363       1.766116       2.241000
      11.680000       0.860063       1.760658       2.204464
      11.690000       0.859193       1.753612       2.165872
      11.700000       0.860240       1.743578       2.126275
      11.710000       0.862793       1.729588       2.086583
      11.720000       0.866572       1.711421       2.047551
      11.730000       0.871428       1.689689       2.009778
      11.740000       0.877285       1.665644       1.973708
      11.750000       0.884060       1.640782       1.939660
      11.760000       0.891589       1.616424       1.907876
      11.770000       0.899605       1.593428       1.878574
      11.780000       0.907781       1.572139       1.851994
      11.790000       0.915824       1.552547       1.828382
      11.800000       0.923558       1.534554       1.807933
      11.810000       0.930987       1.518221       1.790675
      11.820000       0.938281       1.503865       1.776333
      11.830000       0.945720       1.491979       1.764213
      11.840000       0.953601       1.483004       1.753135
      11.850000       0.962143       1.477063       1.741465
      11.860000       0.971386       1.473781       1.727264
      11.870000       0.981126       1.472265       1.708567
      11.880000       0.990895       1.471296       1.683764
      11.890000       1.000006       1.469662       1.651989
      11.900000       1.007672       1.466525       1.613356
      11.910000       1.013166       1.461657       1.568966
      11.920000       1.015972       1.455472       1.520649
      11.930000       1.015874       1.448851       1.470557
      11.940000       1.012959       1.442871       1.420765
      11.950000       1.007549       1.438571       1.372984
      11.960000       1.000089       1.436815       1.328421
      11.970000       0.991046       1.438234       1.287771
      11.980000       0.980811       1.443195       1.251270
      11.990000       0.969642       1.451764       1.218762
      12.000000       0.957635       1.463679       1.189772
      12.010000       0.944746       1.478366       1.163565
      12.020000       0.930882       1.495026       1.139237
      12.030000       0.916008       1.512748       1.115843
      12.040000       0.900240       1.530582       1.092573
      12.050000       0.883869       1.547543       1.068936
      12.060000       0.867307       1.562556       1.044889
      12.070000       0.850993       1.574425       1.020860
      12.080000       0.835300       1.581920       0.997653
      12.090000       0.820496       1.583994       0.976269
      12.100000       0.806742       1.580063       0.957717
      12.110000       0.794116       1.570207       0.942867
      12.120000       0.782625       1.555213       0.932366
      12.130000       0.772212       1.536450       0.926607
      12.140000       0.762769       1.515642       0.925743
      12.150000       0.754171       1.494630       0.929702
      12.160000       0.746330       1.475160       0.938205
      12.170000       0.739252       1.458718       0.950767
      12.180000       0.733060       1.446415       0.966658
      12.190000       0.727964       1.438953       0.984871
      12.200000       0.724203       1.436654       1.004088
      12.210000       0.721951       1.439522       1.022715
      12.220000       0.721255       1.447304       1.039011
      12.230000       0.721989       1.459510       1.051308
      12.240000       0.723856       1.475409       1.058317
      12.250000       0.726424       1.494035       1.059388
      12.260000       0.729191       1.514222       1.054650
      12.270000       0.731666       1.534702       1.044937
      12.280000       0.733452       1.554236       1.031553
      12.290000       0.734328       1.571795       1.015956
      12.300000       0.734291       1.586719       0.999483
      12.310000       0.733575       1.598837       0.983182
      12.320000       0.732600       1.608474       0.967759
      12.330000       0.731883       1.616370       0.953605
      12.340000       0.731921       1.623498       0.940861
      12.350000       0.733078       1.630835       0.929494
      12.360000       0.735496       1.639148       0.919366
      12.370000       0.739060       1.648819       0.910280
      12.380000       0.743420       1.659773       0.902019
      12.390000       0.748082       1.671472       0.894358
      12.400000       0.752551       1.683017       0.887089
      12.410000       0.756466       1.693329       0.880024
      12.420000       0.759703       1.701408       0.872996
      12.430000       0.762381       1.706579       0.865854
      12.440000       0.764801       1.708650       0.858442
      12.450000       0.767329       1.707917       0.850594
      12.460000       0.770293       1.705024       0.842158
      12.470000       0.773923       1.700759       0.833039
      12.480000       0.778341       1.695844       0.823255
      12.490000       0.783588       1.690745       0.812966
      12.500000       0.789669       1.685547       0.802466
      12.510000       0.796580       1.679925       0.792138
      12.520000       0.804299       1.673241       0.782397
      12.530000       0.812732       1.664726       0.773634
      12.540000       0.821655       1.653677       0.766188
      12.550000       0.830678       1.639560       0.760333
      12.560000       0.839277       1.622018       0.756273
      12.570000       0.846893       1.600838       0.754139
      12.580000       0.853048       1.575959       0.753967
      12.590000       0.857442       1.547567       0.755663
      12.600000       0.859962       1.516243       0.758962
      12.610000       0.860635       1.483059       0.763381
      12.620000       0.859534       1.449567       0.768207
      12.630000       0.856723       1.417636       0.772536
      12.640000       0.852234       1.389199       0.775367
      12.650000       0.846106       1.365981       0.775750
      12.660000       0.838437       1.349292       0.772934
      12.670000       0.829444       1.339898       0.766482
      12.680000       0.819482       1.337976       0.756305
      12.690000       0.809007       1.343135       0.742625
      12.700000       0.798490       1.354479       0.725905
      12.710000       0.788324       1.370710       0.706762
      12.720000       0.778753       1.390257       0.685909
      12.730000       0.769852       1.411430       0.664093
      12.740000       0.761550       1.432572       0.642050
      12.750000       0.753671       1.452198       0.620454
      12.760000       0.745981       1.469124       0.599879
      12.770000       0.738245       1.482593       0.580778
      12.780000       0.730272       1.492383       0.563482
      12.790000       0.721958       1.498870       0.548205
      12.800000       0.713289       1.502997       0.535071
      12.810000       0.704329       1.506109       0.524128
      12.820000       0.695172       1.509688       0.515366
      12.830000       0.685912       1.515063       0.508726
      12.840000       0.676617       1.523205       0.504101
      12.850000       0.667344       1.534668       0.501335
      12.860000       0.658167       1.549669       0.500216
      12.870000       0.649189       1.568228       0.500477
      12.880000       0.640550       1.590262       0.501822
      12.890000       0.632390       1.615574       0.503952
      12.900000       0.624813       1.643737       0.506615
      12.910000       0.617843       1.673959       0.509636
      12.920000       0.611408       1.704998       0.512942
      12.930000       0.605337       1.735193       0.516546
      12.940000       0.599393       1.762631       0.520513
      12.950000       0.593326       1.785432       0.524924
      12.960000       0.586943       1.802101       0.529827
      12.970000       0.580168       1.811833       0.535217
      12.980000       0.573061       1.814655       0.541021
      12.990000       0.565799       1.811349       0.547124
      13.000000       0.558620       1.803206       0.553393
      13.010000       0.551760       1.791688       0.559710
      13.020000       0.545391       1.778102       0.566000
      13.030000       0.539589       1.763337       0.572231
      13.040000       0.534313       1.747730       0.578408
      13.050000       0.529420       1.731100       0.584545
      13.060000       0.524716       1.712966       0.590629
      13.070000       0.520028       1.692854       0.596581
      13.080000       0.515259       1.670553       0.602227
      13.090000       0.510417       1.646197       0.607290
      13.100000       0.505590       1.620166       0.611413
      13.110000       0.500904       1.592880       0.614215
      13.120000       0.496470       1.564655       0.615371
      13.130000       0.492378       1.535663       0.614678
      13.140000       0.488690       1.506045       0.612107
      13.150000       0.485466       1.476088       0.607804
      13.160000       0.482770       1.446390       0.602049
      13.170000       0.480669       1.417937       0.595200
      13.180000       0.479221       1.392045       0.587620
      13.190000       0.478456       1.370183       0.579631
      13.200000       0.478359       1.353743       0.571487
      13.210000       0.478872       1.343819       0.563365
      13.220000       0.479904       1.341056       0.555378
      13.230000       0.481357       1.345558       0.547583
      13.240000       0.483148       1.356874       0.539995
      13.250000       0.485224       1.374029       0.532606
      13.260000       0.487550       1.395621       0.525399
      13.270000       0.490085       1.419969       0.518372
      13.280000       0.492759       1.445304       0.511554
      13.290000       0.495466       1.469969       0.505002
      13.300000       0.498088       1.492588       0.498794
      13.310000       0.500512       1.512175       0.493010
      13.320000       0.502659       1.528189       0.487712
      13.330000       0.504485       1.540537       0.482928
      13.340000       0.505963       1.549559       0.478643
      13.350000       0.507072       1.555983       0.474802
      13.360000       0.507779       1.560835       0.471319
      13.370000       0.508046       1.565308       0.468094
      13.380000       0.507846       1.570608       0.465028
      13.390000       0.507203       1.577828       0.462037
      13.400000       0.506224       1.587876       0.459061
      13.410000       0.505126       1.601462       0.456068
      13.420000       0.504228       1.619097       0.453060
      13.430000       0.503917       1.641090       0.450078
      13.440000       0.504587       1.667489       0.447201
      13.450000       0.506573       1.698017       0.444546
      13.460000       0.510099       1.731985       0.442255
      13.470000       0.515231       1.768268       0.440478
      13.480000       0.521869       1.805351       0.439348
      13.490000       0.529753       1.841475       0.438965
      13.500000       0.538500       1.874846       0.439392
      13.510000       0.547669       1.903820       0.440657
      13.520000       0.556831       1.927049       0.442765
      13.530000       0.565646       1.943547       0.445702
      13.540000       0.573922       1.952727       0.449433
      13.550000       0.581636       1.954421       0.453892
      13.560000       0.588912       1.948870       0.458979
      13.570000       0.595964       1.936646       0.464560
      13.580000       0.603014       1.918494       0.470474
      13.590000       0.610221       1.895114       0.476547
      13.600000       0.617625       1.866990       0.482598
      13.610000       0.625134       1.834364       0.488438
      13.620000       0.632551       1.797390       0.493872
      13.630000       0.639636       1.756403       0.498681
      13.640000       0.646195       1.712161       0.502632
      13.650000       0.652149       1.665945       0.505480
      13.660000       0.657565       1.619492       0.507011
      13.670000       0.662636       1.574785       0.507075
      13.680000       0.667600       1.533775       0.505619
      13.690000       0.672637       1.498104       0.502696
      13.700000       0.677787       1.468878       0.498444
      13.710000       0.682904       1.446520       0.493057
      13.720000       0.687682       1.430729       0.486753
      13.730000       0.691725       1.420551       0.479768
      13.740000       0.694646       1.414559       0.472348
      13.750000       0.696163       1.411117       0.464759
      13.760000       0.696147       1.408688       0.457280
      13.770000       0.694633       1.406091       0.450194
      13.780000       0.691780       1.402638       0.443777
      13.790000       0.687811       1.398114       0.438272
      13.800000       0.682959       1.392640       0.433877
      13.810000       0.677435       1.386515       0.430729
      13.820000       0.671423       1.380114       0.428891
      13.830000       0.665075       1.373877       0.428343
      13.840000       0.658501       1.368360       0.428977
      13.850000       0.651741       1.364252       0.430597
      13.860000       0.644741       1.362313       0.432917
      13.870000       0.637350       1.363236       0.435585
      13.880000       0.629353       1.367490       0.438210
      13.890000       0.620542       1.375211       0.440397
      13.900000       0.610783       1.386188       0.441794
      13.910000       0.600075       1.399929       0.442127
      13.920000       0.588574       1.415751       0.441231
      13.930000       0.576561       1.432857       0.439060
      13.940000       0.564375       1.450351       0.435692
      13.950000       0.552337       1.467227       0.431308
      13.960000       0.540682       1.482386       0.426170
      13.970000       0.529535       1.494716       0.420584
      13.980000       0.518918       1.503262       0.414866
      13.990000       0.508790       1.507412       0.409318
      14.000000       0.499103       1.507041       0.404210
      14.010000       0.489841       1.502529       0.399782
      14.020000       0.481034       1.494637       0.396236
      14.030000       0.472748       1.484275       0.393740
      14.040000       0.465063       1.472252       0.392422
      14.050000       0.458044       1.459093       0.392365
      14.060000       0.451728       1.445015       0.393606
      14.070000       0.446120       1.430034       0.396136
      14.080000       0.441189       1.414115       0.399909
      14.090000       0.436884       1.397304       0.404854
      14.100000       0.433143       1.379761       0.410885
      14.110000       0.429919       1.361743       0.417915
      14.120000       0.427199       1.343571       0.425871
      14.130000       0.425028       1.325617       0.434701
      14.140000       0.423493       1.308305       0.444386
      14.150000       0.422704       1.292066       0.454940
      14.160000       0.422744       1.277258       0.466411
      14.170000       0.423619       1.264045       0.478878
      14.180000       0.425235       1.252324       0.492433
      14.190000       0.427389       1.241748       0.507161
      14.200000       0.429804       1.231837       0.523115
      14.210000       0.432175       1.222133       0.540296
      14.220000       0.434231       1.212332       0.558633
      14.230000       0.435786       1.202346       0.577987
      14.240000       0.436760       1.192291       0.598152
      14.250000       0.437181       1.182458       0.618889
      14.260000       0.437158       1.173261       0.639975
      14.270000       0.436856       1.165210       0.661254
      14.280000       0.436471       1.158861       0.682684
      14.290000       0.436211       1.154753       0.704351
      14.300000       0.436277       1.153297       0.726449
      14.310000       0.436840       1.154662       0.749241
      14.320000       0.438007       1.158672       0.773009
      14.330000       0.439799       1.164787       0.798019
      14.340000       0.442143       1.172184       0.824492
      14.350000       0.444893       1.179945       0.852580
      14.360000       0.447868       1.187294       0.882346
      14.370000       0.450902       1.193805       0.913738
      14.380000       0.453872       1.199506       0.946584
      14.390000       0.456706       1.204840       0.980608
      14.400000       0.459358       1.210513       1.015485
      14.410000       0.461769       1.217302       1.050920
      14.420000       0.463842       1.225876       1.086714
      14.430000       0.465425       1.236671       1.122806
      14.440000       0.466322       1.249796       1.159256
      14.450000       0.466317       1.265000       1.196177
      14.460000       0.465209       1.281671       1.233631
      14.470000       0.462842       1.298879       1.271502
      14.480000       0.459134       1.315438       1.309376
      14.490000       0.454088       1.329991       1.346478
      14.500000       0.447813       1.341098       1.381673
      14.510000       0.440522       1.347393       1.413578
      14.520000       0.432521       1.347783       1.440753
      14.530000       0.424184       1.341672       1.461930
      14.540000       0.415912       1.329114       1.476188
      14.550000       0.408087       1.310821       1.483055
      14.560000       0.401028       1.287988       1.482512
      14.570000       0.394962       1.262018       1.474940
      14.580000       0.389999       1.234248       1.461055
      14.590000       0.386132       1.205779       1.441830
      14.600000       0.383239       1.177436       1.418404
      14.610000       0.381115       1.149819       1.391958
      14.620000       0.379504       1.123368       1.363582
      14.630000       0.378147       1.098380       1.334162
      14.640000       0.376820       1.074993       1.304310
      14.650000       0.375370       1.053145       1.274358
      14.660000       0.373726       1.032571       1.244393
      14.670000       0.371896       1.012850       1.214326
      14.680000       0.369959       0.993517       1.183959
      14.690000       0.368051       0.974199       1.153057
      14.700000       0.366354       0.954740       1.121405
      14.710000       0.365082       0.935252       1.088890
      14.720000       0.364449       0.916082       1.055561
      14.730000       0.364635       0.897703       1.021678
      14.740000       0.365741       0.880577       0.987703
      14.750000       0.367754       0.865024       0.954251
      14.760000       0.370530       0.851147       0.922001
      14.770000       0.373800       0.838822       0.891604
      14.780000       0.377216       0.827771       0.863617
      14.790000       0.380427       0.817692       0.838460
      14.800000       0.383163       0.808400       0.816405
      14.810000       0.385307       0.799931       0.797580
      14.820000       0.386920       0.792559       0.781981
      14.830000       0.388211       0.786728       0.769479
      14.840000       0.389462       0.782930       0.759837
      14.850000       0.390951       0.781568       0.752728
      14.860000       0.392881       0.782836       0.747752
      14.870000       0.395357       0.786654       0.744459
      14.880000       0.398375       0.792639       0.742375
      14.890000       0.401845       0.800148       0.741027
      14.900000       0.405616       0.808345       0.739990
      14.910000       0.409516       0.816282       0.738933
      14.920000       0.413386       0.822956       0.737653
      14.930000       0.417100       0.827362       0.736097
      14.940000       0.420566       0.828529       0.734340
      14.950000       0.423701       0.825603       0.732537
      14.960000       0.426403       0.817953       0.730856
      14.970000       0.428542       0.805307       0.729414
      14.980000       0.429977       0.787848       0.728234
      14.990000       0.430592       0.766246       0.727240
      15.000000       0.430343       0.741573       0.726281
      15.010000       0.429282       0.715136       0.725180
      15.020000       0.427539       0.688256       0.723780
      15.030000       0.425285       0.662095       0.721994
      15.040000       0.422673       0.637539       0.719833
      15.050000       0.419798       0.615165       0.717408
      15.060000       0.416680       0.595272       0.714907
      15.070000       0.413273       0.577939       0.712567
      15.080000       0.409489       0.563107       0.710630
      15.090000       0.405244       0.550663       0.709313
      15.100000       0.400497       0.540509       0.708777
      15.110000       0.395287       0.532614       0.709103
      15.120000       0.389744       0.527021       0.710268
      15.130000       0.384084       0.523828       0.712143
      15.140000       0.378570       0.523158       0.714509
      15.150000       0.373478       0.525122       0.717104
      15.160000       0.369047       0.529800       0.719671
      15.170000       0.365454       0.537228       0.721981
      15.180000       0.362796       0.547391       0.723821
      15.190000       0.361088       0.560217       0.724929
      15.200000       0.360267       0.575566       0.724939
      15.210000       0.360203       0.593234       0.723354
      15.220000       0.360710       0.612946       0.719596
      15.230000       0.361559       0.634361       0.713130
      15.240000       0.362484       0.657070       0.703608
      15.250000       0.363212       0.680598       0.690992
      15.260000       0.363484       0.704412       0.675594
      15.270000       0.363085       0.727960       0.658039
      15.280000       0.361863       0.750733       0.639151
      15.290000       0.359740       0.772347       0.619804
      15.300000       0.356716       0.792619       0.600782
      15.310000       0.352875       0.811603       0.582668
      15.320000       0.348374       0.829570       0.565791
      15.330000       0.343427       0.846919       0.550233
      15.340000       0.338262       0.864058       0.535886
      15.350000       0.333091       0.881267       0.522531
      15.360000       0.328067       0.898595       0.509935
      15.370000       0.323278       0.915799       0.497920
      15.380000       0.318741       0.932356       0.486409
      15.390000       0.314418       0.947503       0.475428
      15.400000       0.310230       0.960325       0.465085
      15.410000       0.306071       0.969848       0.455534
      15.420000       0.301829       0.975138       0.446932
      15.430000       0.297402       0.975391       0.439411
      15.440000       0.292711       0.970019       0.433050
      15.450000       0.287718       0.958718       0.427865
      15.460000       0.282429       0.941504       0.423810
      15.470000       0.276895       0.918717       0.420783
      15.480000       0.271212       0.890985       0.418647
      15.490000       0.265510       0.859175       0.417249
      15.500000       0.259944       0.824345       0.416438
      15.510000       0.254683       0.787680       0.416076
      15.520000       0.249895       0.750406       0.416039
      15.530000       0.245731       0.713678       0.416206
      15.540000       0.242317       0.678469       0.416456
      15.550000       0.239744       0.645490       0.416665
      15.560000       0.238060       0.615184       0.416719
      15.570000       0.237269       0.587756       0.416526
      15.580000       0.237324       0.563253       0.416034
      15.590000       0.238125       0.541633       0.415231
      15.600000       0.239522       0.522819       0.414150
      15.610000       0.241335       0.506720       0.412851
      15.620000       0.243372       0.493235       0.411414
      15.630000       0.245465       0.482235       0.409916
      15.640000       0.247493       0.473546       0.408426
      15.650000       0.249391       0.466939       0.407005
      15.660000       0.251138       0.462139       0.405711
      15.670000       0.252738       0.458846       0.404607
      15.680000       0.254200       0.456774       0.403765
      15.690000       0.255532       0.455703       0.403268
      15.700000       0.256738       0.455508       0.403202
      15.710000       0.257830       0.456169       0.403651
      15.720000       0.258827       0.457742       0.404692
      15.730000       0.259749       0.460302       0.406383
      15.740000       0.260601       0.463871       0.408764
      15.750000       0.261354       0.468359       0.411853
      15.760000       0.261934       0.473537       0.415645
      15.770000       0.262228       0.479061       0.420117
      15.780000       0.262111       0.484529       0.425240
      15.790000       0.261481       0.489576       0.430988
      15.800000       0.260290       0.493948       0.437343
      15.810000       0.258559       0.497562       0.444291
      15.820000       0.256369       0.500502       0.451812
      15.830000       0.253848       0.502990       0.459857
      15.840000       0.251138       0.505318       0.468320
      15.850000       0.248375       0.507793       0.477018
      15.860000       0.245668       0.510682       0.485669
      15.870000       0.243086       0.514190       0.493872
      15.880000       0.240652       0.518436       0.501112
      15.890000       0.238350       0.523430       0.506770
      15.900000       0.236135       0.529040       0.510174
      15.910000       0.233949       0.534957       0.510685
      15.920000       0.231734       0.540695       0.507817
      15.930000       0.229455       0.545645       0.501365
      15.940000       0.227102       0.549173       0.491485
      15.950000       0.224694       0.550742       0.478697
      15.960000       0.222279       0.550015       0.463784
      15.970000       0.219923       0.546873       0.447639
      15.980000       0.217689       0.541393       0.431104
      15.990000       0.215628       0.533779       0.414858
      16.000000       0.213768       0.524322       0.399374
      16.010000       0.212109       0.513381       0.384925
      16.020000       0.210636       0.501374       0.371627
      16.030000       0.209329       0.488759       0.359495
      16.040000       0.208180       0.475999       0.348491
      16.050000       0.207207       0.463521       0.338558
      16.060000       0.206452       0.451690       0.329637
      16.070000       0.205971       0.440795       0.321667
      16.080000       0.205817       0.431055       0.314581
      16.090000       0.206014       0.422634       0.308307
      16.100000       0.206539       0.415656       0.302776
      16.110000       0.207315       0.410219       0.297930
      16.120000       0.208216       0.406393       0.293729
      16.130000       0.209091       0.404227       0.290153
      16.140000       0.209800       0.403737       0.287189
      16.150000       0.210260       0.404906       0.284811
      16.160000       0.210470       0.407680       0.282965
      16.170000       0.210514       0.411972       0.281555
      16.180000       0.210543       0.417681       0.280438
      16.190000       0.210729       0.424713       0.279439
      16.200000       0.211224       0.433003       0.278367
      16.210000       0.212128       0.442525       0.277039
      16.220000       0.213476       0.453280       0.275313
      16.230000       0.215239       0.465263       0.273111
      16.240000       0.217348       0.478420       0.270438
      16.250000       0.219715       0.492620       0.267384
      16.260000       0.222261       0.507649       0.264108
      16.270000       0.224926       0.523241       0.260812
      16.280000       0.227665       0.539120       0.257718
      16.290000       0.230441       0.555048       0.255035
      16.300000       0.233209       0.570851       0.252945
      16.310000       0.235918       0.586421       0.251583
      16.320000       0.238511       0.601699       0.251026
      16.330000       0.240938       0.616655       0.251286
      16.340000       0.243157       0.631256       0.252313
      16.350000       0.245122       0.645446       0.253999
      16.360000       0.246771       0.659106       0.256195
      16.370000       0.248009       0.672027       0.258730
      16.380000       0.248711       0.683884       0.261422
      16.390000       0.248731       0.694232       0.264103
      16.400000       0.247938       0.702540       0.266626
      16.410000       0.246240       0.708283       0.268878
      16.420000       0.243625       0.711071       0.270793
      16.430000       0.240175       0.710785       0.272351
      16.440000       0.236066       0.707658       0.273588
      16.450000       0.231541       0.702260       0.274584
      16.460000       0.226865       0.695398       0.275449
      16.470000       0.222275       0.687955       0.276303
      16.480000       0.217947       0.680718       0.277259
      16.490000       0.213976       0.674251       0.278413
      16.500000       0.210384       0.668829       0.279844
      16.510000       0.207133       0.664427       0.281625
      16.520000       0.204150       0.660781       0.283835
      16.530000       0.201343       0.657470       0.286574
      16.540000       0.198625       0.654021       0.289964
      16.550000       0.195923       0.649996       0.294144
      16.560000       0.193195       0.645058       0.299256
      16.570000       0.190432       0.638984       0.305423
      16.580000       0.187659       0.631677       0.312723
      16.590000       0.184931       0.623143       0.321160
      16.600000       0.182322       0.613490       0.330646
      16.610000       0.179910       0.602925       0.340968
      16.620000       0.177765       0.591757       0.351780
      16.630000       0.175944       0.580397       0.362595
      16.640000       0.174480       0.569336       0.372805
      16.650000       0.173379       0.559091       0.381731
      16.660000       0.172616       0.550132       0.388688
      16.670000       0.172133       0.542817       0.393080
      16.680000       0.171847       0.537345       0.394482
      16.690000       0.171660       0.533743       0.392713
      16.700000       0.171471       0.531892       0.387870
      16.710000       0.171199       0.531563       0.380302
      16.720000       0.170791       0.532469       0.370543
      16.730000       0.170233       0.534304       0.359213
      16.740000       0.169549       0.536770       0.346919
      16.750000       0.168790       0.539587       0.334187
      16.760000       0.168027       0.542502       0.321433
      16.770000       0.167337       0.545296       0.308962
      16.780000       0.166800       0.547809       0.296989
      16.790000       0.166487       0.549943       0.285660
      16.800000       0.166452       0.551652       0.275067
      16.810000       0.166724       0.552904       0.265261
      16.820000       0.167296       0.553662       0.256257
      16.830000       0.168113       0.553883       0.248038
      16.840000       0.169080       0.553548       0.240562
      16.850000       0.170066       0.552701       0.233777
      16.860000       0.170925       0.551475       0.227625
      16.870000       0.171518       0.550084       0.222062
      16.880000       0.171739       0.548786       0.217061
      16.890000       0.171536       0.547840       0.212613
      16.900000       0.170922       0.547460       0.208724
      16.910000       0.169977       0.547804       0.205403
      16.920000       0.168830       0.548975       0.202659
      16.930000       0.167631       0.551053       0.200499
      16.940000       0.166518       0.554117       0.198924
      16.950000       0.165600       0.558251       0.197935
      16.960000       0.164938       0.563543       0.197524
      16.970000       0.164547       0.570050       0.197674
      16.980000       0.164415       0.577775       0.198353
      16.990000       0.164513       0.586645       0.199510
      17.000000       0.164821       0.596506       0.201079
      17.010000       0.165337       0.607150       0.202985
      17.020000       0.166078       0.618355       0.205150
      17.030000       0.167079       0.629947       0.207506
      17.040000       0.168371       0.641845       0.210003
      17.050000       0.169974       0.654090       0.212607
      17.060000       0.171874       0.666826       0.215309
      17.070000       0.174014       0.680244       0.218113
      17.080000       0.176295       0.694495       0.221033
      17.090000       0.178590       0.709584       0.224083
      17.100000       0.180767       0.725288       0.227261
      17.110000       0.182719       0.741116       0.230542
      17.120000       0.184389       0.756330       0.233871
      17.130000       0.185775       0.770038       0.237164
      17.140000       0.186929       0.781353       0.240323
      17.150000       0.187928       0.789567       0.243250
      17.160000       0.188855       0.794305       0.245874
      17.170000       0.189776       0.795611       0.248171
      17.180000       0.190719       0.793926       0.250174
      17.190000       0.191675       0.789989       0.251967
      17.200000       0.192600       0.784666       0.253675
      17.210000       0.193433       0.778774       0.255435
      17.220000       0.194116       0.772931       0.257383
      17.230000       0.194613       0.767477       0.259635
      17.240000       0.194923       0.762475       0.262282
      17.250000       0.195078       0.757775       0.265387
      17.260000       0.195133       0.753120       0.268991
      17.270000       0.195147       0.748250       0.273108
      17.280000       0.195172       0.742985       0.277735
      17.290000       0.195244       0.737272       0.282854
      17.300000       0.195390       0.731195       0.288436
      17.310000       0.195633       0.724942       0.294446
      17.320000       0.195996       0.718739       0.300842
      17.330000       0.196493       0.712782       0.307568
      17.340000       0.197121       0.707187       0.314548
      17.350000       0.197847       0.701980       0.321679
      17.360000       0.198611       0.697129       0.328831
      17.370000       0.199326       0.692600       0.335852
      17.380000       0.199884       0.688396       0.342579
      17.390000       0.200169       0.684583       0.348852
      17.400000       0.200063       0.681267       0.354510
      17.410000       0.199460       0.678567       0.359389
      17.420000       0.198287       0.676584       0.363306
      17.430000       0.196518       0.675385       0.366055
      17.440000       0.194187       0.675010       0.367407
      17.450000       0.191382       0.675477       0.367125
      17.460000       0.188240       0.676782       0.365004
      17.470000       0.184918       0.678894       0.360917
      17.480000       0.181568       0.681750       0.354868
      17.490000       0.178322       0.685267       0.347014
      17.500000       0.175269       0.689368       0.337661
      17.510000       0.172460       0.694019       0.327221
      17.520000       0.169908       0.699253       0.316151
      17.530000       0.167599       0.705152       0.304886
      17.540000       0.165500       0.711808       0.293803
      17.550000       0.163570       0.719263       0.283196
      17.560000       0.161771       0.727455       0.273282
      17.570000       0.160078       0.736200       0.264209
      17.580000       0.158481       0.745206       0.256072
      17.590000       0.156988       0.754129       0.248928
      17.600000       0.155615       0.762644       0.242807
      17.610000       0.154386       0.770517       0.237713
      17.620000       0.153316       0.777638       0.233625
      17.630000       0.152408       0.784006       0.230493
      17.640000       0.151656       0.789696       0.228234
      17.650000       0.151044       0.794803       0.226732
      17.660000       0.150558       0.799422       0.225842
      17.670000       0.150194       0.803619       0.225403
      17.680000       0.149954       0.807401       0.225253
      17.690000       0.149840       0.810679       0.225244
      17.700000       0.149837       0.813241       0.225250
      17.710000       0.149902       0.814780       0.225175
      17.720000       0.149966       0.814969       0.224965
      17.730000       0.149937       0.813565       0.224614
      17.740000       0.149725       0.810507       0.224173
      17.750000       0.149258       0.805956       0.223741
      17.760000       0.148505       0.800277       0.223448
      17.770000       0.147484       0.793986       0.223431
      17.780000       0.146260       0.787663       0.223805
      17.790000       0.144934       0.781873       0.224654
      17.800000       0.143618       0.777102       0.226024
      17.810000       0.142414       0.773703       0.227938
      17.820000       0.141400       0.771881       0.230411
      17.830000       0.140620       0.771700       0.233459
      17.840000       0.140093       0.773104       0.237102
      17.850000       0.139811       0.775945       0.241345
      17.860000       0.139756       0.780018       0.246160
      17.870000       0.139904       0.785083       0.251473
      17.880000       0.140229       0.790890       0.257155
      17.890000       0.140713       0.797200       0.263046
      17.900000       0.141341       0.803801       0.268988
      17.910000       0.142104       0.810506       0.274869
      17.920000       0.143001       0.817145       0.280652
      17.930000       0.144032       0.823541       0.286384
      17.940000       0.145198       0.829498       0.292173
      17.950000       0.146496       0.834789       0.298150
      17.960000       0.147917       0.839169       0.304434
      17.970000       0.149445       0.842396       0.311111
      17.980000       0.151053       0.844264       0.318223
      17.990000       0.152702       0.844651       0.325768
      18.000000       0.154338       0.843557       0.333689
      18.010000       0.155892       0.841130       0.341873
      18.020000       0.157274       0.837646       0.350158
      18.030000       0.158386       0.833466       0.358349
      18.040000       0.159127       0.828963       0.366254
      18.050000       0.159408       0.824461       0.373702
      18.060000       0.159174       0.820180       0.380559
      18.070000       0.158409       0.816222       0.386707
      18.080000       0.157141       0.812583       0.392032
      18.090000       0.155442       0.809201       0.396395
      18.100000       0.153409       0.806018       0.399643
      18.110000       0.151160       0.803022       0.401626
      18.120000       0.148817       0.800260       0.402253
      18.130000       0.146493       0.797803       0.401539
      18.140000       0.144284       0.795690       0.399648
      18.150000       0.142259       0.793880       0.396880
      18.160000       0.140461       0.792235       0.393631
      18.170000       0.138913       0.790548       0.390319
      18.180000       0.137629       0.788588       0.387320
      18.190000       0.136615       0.786159       0.384927
      18.200000       0.135875       0.783131       0.383344
      18.210000       0.135415       0.779466       0.382694
      18.220000       0.135234       0.775202       0.383034
      18.230000       0.135324       0.770439       0.384357
      18.240000       0.135665       0.765311       0.386594
      18.250000       0.136217       0.759962       0.389610
      18.260000       0.136920       0.754519       0.393210
      18.270000       0.137692       0.749070       0.397139
      18.280000       0.138429       0.743651       0.401083
      18.290000       0.139020       0.738235       0.404661
      18.300000       0.139354       0.732745       0.407433
      18.310000       0.139339       0.727066       0.408920
      18.320000       0.138915       0.721067       0.408643
      18.330000       0.138063       0.714616       0.406179
      18.340000       0.136805       0.707583       0.401236
      18.350000       0.135200       0.699848       0.393713
      18.360000       0.133329       0.691310       0.383743
      18.370000       0.131292       0.681902       0.371683
      18.380000       0.129187       0.671620       0.358073
      18.390000       0.127109       0.660534       0.343541
      18.400000       0.125136       0.648796       0.328721
      18.410000       0.123329       0.636622       0.314167
      18.420000       0.121728       0.624263       0.300313
      18.430000       0.120353       0.611974       0.287456
      18.440000       0.119217       0.599984       0.275770
      18.450000       0.118326       0.588466       0.265332
      18.460000       0.117683       0.577524       0.256146
      18.470000       0.117292       0.567185       0.248167
      18.480000       0.117146       0.557401       0.241316
      18.490000       0.117232       0.548079       0.235500
      18.500000       0.117520       0.539109       0.230625
      18.510000       0.117969       0.530402       0.226613
      18.520000       0.118524       0.521909       0.223407
      18.530000       0.119117       0.513625       0.220973
      18.540000       0.119668       0.505577       0.219288
      18.550000       0.120092       0.497819       0.218329
      18.560000       0.120303       0.490422       0.218058
      18.570000       0.120233       0.483472       0.218417
      18.580000       0.119839       0.477054       0.219325
      18.590000       0.119108       0.471219       0.220678
      18.600000       0.118058       0.465955       0.222353
      18.610000       0.116729       0.461156       0.224215
      18.620000       0.115177       0.456634       0.226122
      18.630000       0.113463       0.452154       0.227944
      18.640000       0.111646       0.447494       0.229579
      18.650000       0.109781       0.442491       0.230955
      18.660000       0.107910       0.437071       0.232043
      18.670000       0.106067       0.431245       0.232841
      18.680000       0.104278       0.425093       0.233360
      18.690000       0.102562       0.418732       0.233612
      18.700000       0.100939       0.412306       0.233598
      18.710000       0.099431       0.405974       0.233305
      18.720000       0.098067       0.399903       0.232722
      18.730000       0.096880       0.394248       0.231852
      18.740000       0.095906       0.389132       0.230726
      18.750000       0.095177       0.384610       0.229405
      18.760000       0.094722       0.380663       0.227971
      18.770000       0.094561       0.377197       0.226513
      18.780000       0.094703       0.374081       0.225107
      18.790000       0.095149       0.371190       0.223807
      18.800000       0.095893       0.368444       0.222636
      18.810000       0.096920       0.365829       0.221588
      18.820000       0.098210       0.363382       0.220641
      18.830000       0.099729       0.361163       0.219761
      18.840000       0.101426       0.359226       0.218908
      18.850000       0.103232       0.357599       0.218044
      18.860000       0.105057       0.356279       0.217130
      18.870000       0.106801       0.355238       0.216139
      18.880000       0.108362       0.354428       0.215057
      18.890000       0.109647       0.353779       0.213893
      18.900000       0.110586       0.353186       0.212674
      18.910000       0.111138       0.352511       0.211446
      18.920000       0.111290       0.351586       0.210260
      18.930000       0.111059       0.350240       0.209162
      18.940000       0.110493       0.348335       0.208189
      18.950000       0.109661       0.345794       0.207364
      18.960000       0.108648       0.342624       0.206701
      18.970000       0.107540       0.338897       0.206208
      18.980000       0.106418       0.334727       0.205889
      18.990000       0.105346       0.330247       0.205740
      19.000000       0.104375       0.325584       0.205742
      19.010000       0.103538       0.320858       0.205859
      19.020000       0.102857       0.316168       0.206028
      19.030000       0.102342       0.311592       0.206173
      19.040000       0.101993       0.307177       0.206213
      19.050000       0.101797       0.302939       0.206078
      19.060000       0.101729       0.298876       0.205730
      19.070000       0.101757       0.294977       0.205175
      19.080000       0.101855       0.291237       0.204466
      19.090000       0.102008       0.287656       0.203690
      19.100000       0.102217       0.284243       0.202950
      19.110000       0.102503       0.281009       0.202336
      19.120000       0.102887       0.277964       0.201912
      19.130000       0.103381       0.275121       0.201694
      19.140000       0.103969       0.272490       0.201656
      19.150000       0.104601       0.270078       0.201738
      19.160000       0.105201       0.267876       0.201863
      19.170000       0.105671       0.265861       0.201959
      19.180000       0.105921       0.263997       0.201971
      19.190000       0.105887       0.262230       0.201870
      19.200000       0.105546       0.260500       0.201640
      19.210000       0.104916       0.258730       0.201268
      19.220000       0.104054       0.256823       0.200726
      19.230000       0.103032       0.254673       0.199962
      19.240000       0.101932       0.252171       0.198903
      19.250000       0.100827       0.249245       0.197465
      19.260000       0.099781       0.245883       0.195564
      19.270000       0.098845       0.242145       0.193133
      19.280000       0.098053       0.238165       0.190137
      19.290000       0.097422       0.234118       0.186586
      19.300000       0.096953       0.230195       0.182540
      19.310000       0.096633       0.226563       0.178115
      19.320000       0.096435       0.223340       0.173471
      19.330000       0.096323       0.220584       0.168797
      19.340000       0.096256       0.218285       0.164287
      19.350000       0.096195       0.216382       0.160114
      19.360000       0.096114       0.214782       0.156419
      19.370000       0.096010       0.213388       0.153299
      19.380000       0.095904       0.212125       0.150805
      19.390000       0.095837       0.210965       0.148951
      19.400000       0.095859       0.209929       0.147718
      19.410000       0.096015       0.209083       0.147065
      19.420000       0.096342       0.208516       0.146943
      19.430000       0.096857       0.208323       0.147299
      19.440000       0.097560       0.208576       0.148078
      19.450000       0.098433       0.209315       0.149226
      19.460000       0.099440       0.210536       0.150683
      19.470000       0.100522       0.212200       0.152388
      19.480000       0.101602       0.214233       0.154282
      19.490000       0.102587       0.216534       0.156307
      19.500000       0.103383       0.218973       0.158414
      19.510000       0.103904       0.221390       0.160558
      19.520000       0.104092       0.223606       0.162697
      19.530000       0.103926       0.225428       0.164782
      19.540000       0.103426       0.226683       0.166754
      19.550000       0.102644       0.227234       0.168541
      19.560000       0.101656       0.227010       0.170060
      19.570000       0.100544       0.226010       0.171222
      19.580000       0.099388       0.224312       0.171950
      19.590000       0.098257       0.222046       0.172188
      19.600000       0.097195       0.219381       0.171918
      19.610000       0.096227       0.216496       0.171162
      19.620000       0.095352       0.213566       0.169976
      19.630000       0.094557       0.210745       0.168435
      19.640000       0.093818       0.208159       0.166617
      19.650000       0.093118       0.205906       0.164586
      19.660000       0.092445       0.204058       0.162394
      19.670000       0.091801       0.202669       0.160085
      19.680000       0.091204       0.201784       0.157715
      19.690000       0.090679       0.201442       0.155356
      19.700000       0.090263       0.201675       0.153108
      19.710000       0.089991       0.202496       0.151082
      19.720000       0.089896       0.203898       0.149389
      19.730000       0.090003       0.205837       0.148123
      19.740000       0.090323       0.208237       0.147343
      19.750000       0.090856       0.210989       0.147070
      19.760000       0.091588       0.213960       0.147284
      19.770000       0.092495       0.217012       0.147930
      19.780000       0.093541       0.220020       0.148937
      19.790000       0.094685       0.222893       0.150221
      19.800000       0.095891       0.225573       0.151706
      19.810000       0.097131       0.228027       0.153325
      19.820000       0.098393       0.230223       0.155018
      19.830000       0.099682       0.232106       0.156727
      19.840000       0.101010       0.233584       0.158392
      19.850000       0.102394       0.234535       0.159945
      19.860000       0.103838       0.234836       0.161320
      19.870000       0.105335       0.234390       0.162460
      19.880000       0.106857       0.233160       0.163326
      19.890000       0.108357       0.231179       0.163899
      19.900000       0.109770       0.228555       0.164180
      19.910000       0.111019       0.225442       0.164175
      19.920000       0.112029       0.222025       0.163883
      19.930000       0.112741       0.218480       0.163291
      19.940000       0.113123       0.214958       0.162367
      19.950000       0.113179       0.211571       0.161067
      19.960000       0.112950       0.208391       0.159354
      19.970000       0.112509       0.205454       0.157214
      19.980000       0.111949       0.202765       0.154673
      19.990000       0.111376       0.200317       0.151797
      20.000000       0.110896       0.198097       0.148684
