  # energy grid [eV]     epsi_x  epsi_y  epsi_z
       0.000000            NaN            NaN            NaN
       0.010000       1.332492       0.002120       0.000076
       0.020000       2.678205       0.004242       0.000151
       0.030000       4.050621       0.006366       0.000227
       0.040000       5.463748       0.008492       0.000304
       0.050000       6.932393       0.010624       0.000380
       0.060000       8.472444       0.012760       0.000457
       0.070000      10.101161       0.014904       0.000535
       0.080000      11.837468       0.017055       0.000613
       0.090000      13.702239       0.019214       0.000693
       0.100000      15.718544       0.021384       0.000773
       0.110000      17.911820       0.023565       0.000854
       0.120000      20.309878       0.025758       0.000936
       0.130000      22.942652       0.027965       0.001019
       0.140000      25.841482       0.030187       0.001104
       0.150000      29.037710       0.032424       0.001191
       0.160000      32.560220       0.034679       0.001279
       0.170000      36.431535       0.036953       0.001369
       0.180000      40.662063       0.039247       0.001461
       0.190000      45.242322       0.041562       0.001556
       0.200000      50.133469       0.043900       0.001653
       0.210000      55.257518       0.046263       0.001753
       0.220000      60.489936       0.048651       0.001856
       0.230000      65.658522       0.051067       0.001962
       0.240000      70.552433       0.053513       0.002072
       0.250000      74.943108       0.055989       0.002186
       0.260000      78.614920       0.058498       0.002304
       0.270000      81.399423       0.061042       0.002428
       0.280000      83.204925       0.063622       0.002556
       0.290000      84.032949       0.066241       0.002691
       0.300000      83.974902       0.068900       0.002833
       0.310000      83.187164       0.071603       0.002981
       0.320000      81.850967       0.074351       0.003138
       0.330000      80.131036       0.077147       0.003304
       0.340000      78.148187       0.079993       0.003481
       0.350000      75.974601       0.082892       0.003668
       0.360000      73.649789       0.085847       0.003868
       0.370000      71.205999       0.088860       0.004083
       0.380000      68.688614       0.091936       0.004313
       0.390000      66.161501       0.095078       0.004562
       0.400000      63.696681       0.098289       0.004831
       0.410000      61.355859       0.101572       0.005122
       0.420000      59.174002       0.104932       0.005440
       0.430000      57.152404       0.108374       0.005788
       0.440000      55.263739       0.111902       0.006169
       0.450000      53.466782       0.115520       0.006587
       0.460000      51.724824       0.119234       0.007048
       0.470000      50.020152       0.123050       0.007556
       0.480000      48.358600       0.126974       0.008115
       0.490000      46.763038       0.131012       0.008731
       0.500000      45.259931       0.135171       0.009407
       0.510000      43.865786       0.139459       0.010144
       0.520000      42.579245       0.143884       0.010940
       0.530000      41.381446       0.148454       0.011787
       0.540000      40.243732       0.153180       0.012673
       0.550000      39.138839       0.158072       0.013576
       0.560000      38.050278       0.163141       0.014469
       0.570000      36.975486       0.168400       0.015319
       0.580000      35.921685       0.173861       0.016096
       0.590000      34.897283       0.179541       0.016775
       0.600000      33.903755       0.185455       0.017346
       0.610000      32.932086       0.191621       0.017812
       0.620000      31.965022       0.198059       0.018185
       0.630000      30.983155       0.204792       0.018479
       0.640000      29.971012       0.211843       0.018705
       0.650000      28.919735       0.219239       0.018859
       0.660000      27.825569       0.227011       0.018932
       0.670000      26.686354       0.235193       0.018907
       0.680000      25.499412       0.243821       0.018773
       0.690000      24.262808       0.252940       0.018533
       0.700000      22.979145       0.262595       0.018202
       0.710000      21.659098       0.272842       0.017812
       0.720000      20.322082       0.283742       0.017400
       0.730000      18.993473       0.295362       0.017005
       0.740000      17.699882       0.307783       0.016660
       0.750000      16.464689       0.321093       0.016394
       0.760000      15.305285       0.335394       0.016224
       0.770000      14.232300       0.350802       0.016165
       0.780000      13.250282       0.367450       0.016226
       0.790000      12.359081       0.385487       0.016410
       0.800000      11.555350       0.405083       0.016721
       0.810000      10.833855       0.426430       0.017160
       0.820000      10.188461       0.449740       0.017726
       0.830000       9.612817       0.475248       0.018418
       0.840000       9.100793       0.503203       0.019230
       0.850000       8.646730       0.533865       0.020158
       0.860000       8.245572       0.567485       0.021194
       0.870000       7.892918       0.604282       0.022330
       0.880000       7.585030       0.644404       0.023554
       0.890000       7.318810       0.687876       0.024849
       0.900000       7.091775       0.734534       0.026186
       0.910000       6.902013       0.783955       0.027520
       0.920000       6.748148       0.835407       0.028785
       0.930000       6.629297       0.887855       0.029896
       0.940000       6.545010       0.940050       0.030762
       0.950000       6.495208       0.990743       0.031296
       0.960000       6.480080       1.038961       0.031441
       0.970000       6.499933       1.084268       0.031181
       0.980000       6.554988       1.126865       0.030546
       0.990000       6.645081       1.167453       0.029604
       1.000000       6.769280       1.206890       0.028443
       1.010000       6.925451       1.245755       0.027152
       1.020000       7.109827       1.284004       0.025814
       1.030000       7.316757       1.320827       0.024491
       1.040000       7.538803       1.354773       0.023231
       1.050000       7.767353       1.384146       0.022063
       1.060000       7.993722       1.407532       0.021005
       1.070000       8.210489       1.424296       0.020066
       1.080000       8.412613       1.434841       0.019248
       1.090000       8.597931       1.440557       0.018548
       1.100000       8.766903       1.443491       0.017963
       1.110000       8.921817       1.445920       0.017490
       1.120000       9.065802       1.449958       0.017124
       1.130000       9.202017       1.457280       0.016859
       1.140000       9.333110       1.468983       0.016692
       1.150000       9.460898       1.485537       0.016618
       1.160000       9.586151       1.506806       0.016631
       1.170000       9.708432       1.532144       0.016725
       1.180000       9.826030       1.560560       0.016895
       1.190000       9.935893       1.590969       0.017133
       1.200000      10.033501       1.622474       0.017429
       1.210000      10.112680       1.654568       0.017769
       1.220000      10.165492       1.687154       0.018136
       1.230000      10.182335       1.720343       0.018509
       1.240000      10.152352       1.754102       0.018867
       1.250000      10.064301       1.787903       0.019193
       1.260000       9.907998       1.820540       0.019479
       1.270000       9.676263       1.850241       0.019726
       1.280000       9.366984       1.875076       0.019948
       1.290000       8.984625       1.893534       0.020169
       1.300000       8.540452       1.905069       0.020415
       1.310000       8.051157       1.910357       0.020714
       1.320000       7.536211       1.911170       0.021090
       1.330000       7.014847       1.909949       0.021562
       1.340000       6.503605       1.909300       0.022145
       1.350000       6.014976       1.911611       0.022849
       1.360000       5.557142       1.918899       0.023680
       1.370000       5.134482       1.932838       0.024643
       1.380000       4.748437       1.954876       0.025742
       1.390000       4.398404       1.986336       0.026979
       1.400000       4.082508       2.028466       0.028360
       1.410000       3.798188       2.082434       0.029889
       1.420000       3.542596       2.149303       0.031563
       1.430000       3.312858       2.230001       0.033373
       1.440000       3.106225       2.325277       0.035292
       1.450000       2.920153       2.435664       0.037268
       1.460000       2.752338       2.561418       0.039228
       1.470000       2.600726       2.702472       0.041076
       1.480000       2.463499       2.858426       0.042709
       1.490000       2.339058       3.028624       0.044031
       1.500000       2.226002       3.212344       0.044976
       1.510000       2.123094       3.409088       0.045519
       1.520000       2.029235       3.618890       0.045677
       1.530000       1.943433       3.842487       0.045495
       1.540000       1.864778       4.081264       0.045027
       1.550000       1.792423       4.336896       0.044326
       1.560000       1.725576       4.610801       0.043438
       1.570000       1.663513       4.903548       0.042405
       1.580000       1.605595       5.214402       0.041274
       1.590000       1.551299       5.541099       0.040099
       1.600000       1.500229       5.879830       0.038935
       1.610000       1.452124       6.225301       0.037833
       1.620000       1.406831       6.570760       0.036827
       1.630000       1.364263       6.907953       0.035937
       1.640000       1.324358       7.227161       0.035160
       1.650000       1.287039       7.517502       0.034477
       1.660000       1.252200       7.767727       0.033860
       1.670000       1.219706       7.967567       0.033276
       1.680000       1.189408       8.109529       0.032698
       1.690000       1.161171       8.190823       0.032109
       1.700000       1.134899       8.214852       0.031509
       1.710000       1.110548       8.191676       0.030912
       1.720000       1.088127       8.137021       0.030343
       1.730000       1.067684       8.069973       0.029833
       1.740000       1.049283       8.010030       0.029412
       1.750000       1.032989       7.974381       0.029106
       1.760000       1.018849       7.976063       0.028934
       1.770000       1.006890       8.023161       0.028911
       1.780000       0.997110       8.118871       0.029044
       1.790000       0.989486       8.262059       0.029339
       1.800000       0.983971       8.447983       0.029795
       1.810000       0.980503       8.668953       0.030412
       1.820000       0.979001       8.914806       0.031185
       1.830000       0.979373       9.173222       0.032111
       1.840000       0.981508       9.429998       0.033187
       1.850000       0.985288       9.669440       0.034410
       1.860000       0.990605       9.874946       0.035780
       1.870000       0.997377      10.029809       0.037295
       1.880000       1.005562      10.118256       0.038948
       1.890000       1.015150      10.126796       0.040720
       1.900000       1.026130      10.045880       0.042576
       1.910000       1.038472       9.871697       0.044462
       1.920000       1.052121       9.607609       0.046309
       1.930000       1.067020       9.264511       0.048037
       1.940000       1.083153       8.859652       0.049573
       1.950000       1.100562       8.414020       0.050855
       1.960000       1.119324       7.949095       0.051847
       1.970000       1.139495       7.483982       0.052539
       1.980000       1.161052       7.033628       0.052947
       1.990000       1.183874       6.608304       0.053117
       2.000000       1.207763       6.214070       0.053119
       2.010000       1.232476       5.853794       0.053039
       2.020000       1.257762       5.528292       0.052972
       2.030000       1.283360       5.237232       0.053005
       2.040000       1.308980       4.979662       0.053209
       2.050000       1.334280       4.754143       0.053624
       2.060000       1.358823       4.558672       0.054259
       2.070000       1.382019       4.390553       0.055090
       2.080000       1.403067       4.246375       0.056064
       2.090000       1.420909       4.122135       0.057101
       2.100000       1.434227       4.013479       0.058114
       2.110000       1.441502       3.916038       0.059021
       2.120000       1.441121       3.825803       0.059759
       2.130000       1.431577       3.739542       0.060293
       2.140000       1.411730       3.655225       0.060618
       2.150000       1.381086       3.572339       0.060742
       2.160000       1.340028       3.491982       0.060681
       2.170000       1.289874       3.416600       0.060447
       2.180000       1.232736       3.349460       0.060055
       2.190000       1.171183       3.293986       0.059520
       2.200000       1.107838       3.253188       0.058876
       2.210000       1.045017       3.229282       0.058167
       2.220000       0.984514       3.223522       0.057449
       2.230000       0.927534       3.236202       0.056776
       2.240000       0.874746       3.266768       0.056187
       2.250000       0.826402       3.313998       0.055699
       2.260000       0.782472       3.376214       0.055305
       2.270000       0.742759       3.451495       0.054975
       2.280000       0.706987       3.537863       0.054669
       2.290000       0.674849       3.633392       0.054354
       2.300000       0.646023       3.736237       0.054011
       2.310000       0.620182       3.844578       0.053651
       2.320000       0.596984       3.956508       0.053304
       2.330000       0.576074       4.069911       0.053015
       2.340000       0.557086       4.182396       0.052832
       2.350000       0.539657       4.291320       0.052796
       2.360000       0.523444       4.393919       0.052935
       2.370000       0.508150       4.487482       0.053266
       2.380000       0.493548       4.569426       0.053798
       2.390000       0.479501       4.637210       0.054529
       2.400000       0.465965       4.688089       0.055448
       2.410000       0.452969       4.718863       0.056538
       2.420000       0.440589       4.725790       0.057766
       2.430000       0.428905       4.704834       0.059089
       2.440000       0.417980       4.652309       0.060458
       2.450000       0.407837       4.565810       0.061818
       2.460000       0.398459       4.445164       0.063119
       2.470000       0.389798       4.293034       0.064326
       2.480000       0.381783       4.114867       0.065422
       2.490000       0.374337       3.918164       0.066412
       2.500000       0.367381       3.711306       0.067317
       2.510000       0.360847       3.502349       0.068165
       2.520000       0.354672       3.298082       0.068978
       2.530000       0.348800       3.103493       0.069765
       2.540000       0.343177       2.921621       0.070515
       2.550000       0.337748       2.753726       0.071201
       2.560000       0.332466       2.599663       0.071790
       2.570000       0.327301       2.458379       0.072249
       2.580000       0.322247       2.328434       0.072555
       2.590000       0.317334       2.208448       0.072703
       2.600000       0.312617       2.097401       0.072707
       2.610000       0.308175       1.994749       0.072605
       2.620000       0.304095       1.900361       0.072457
       2.630000       0.300459       1.814355       0.072340
       2.640000       0.297344       1.736918       0.072332
       2.650000       0.294811       1.668176       0.072507
       2.660000       0.292902       1.608124       0.072921
       2.670000       0.291645       1.556630       0.073605
       2.680000       0.291042       1.513438       0.074569
       2.690000       0.291072       1.478170       0.075795
       2.700000       0.291677       1.450304       0.077243
       2.710000       0.292756       1.429128       0.078851
       2.720000       0.294160       1.413711       0.080542
       2.730000       0.295688       1.402892       0.082231
       2.740000       0.297107       1.395346       0.083836
       2.750000       0.298176       1.389728       0.085286
       2.760000       0.298695       1.384887       0.086528
       2.770000       0.298547       1.380084       0.087535
       2.780000       0.297731       1.375132       0.088309
       2.790000       0.296364       1.370373       0.088876
       2.800000       0.294652       1.366504       0.089282
       2.810000       0.292846       1.364319       0.089582
       2.820000       0.291197       1.364474       0.089832
       2.830000       0.289918       1.367350       0.090079
       2.840000       0.289162       1.373038       0.090365
       2.850000       0.289016       1.381433       0.090719
       2.860000       0.289501       1.392364       0.091158
       2.870000       0.290582       1.405715       0.091679
       2.880000       0.292175       1.421461       0.092260
       2.890000       0.294165       1.439617       0.092856
       2.900000       0.296424       1.460122       0.093420
       2.910000       0.298833       1.482745       0.093907
       2.920000       0.301314       1.507062       0.094298
       2.930000       0.303853       1.532549       0.094602
       2.940000       0.306500       1.558757       0.094856
       2.950000       0.309351       1.585488       0.095105
       2.960000       0.312512       1.612896       0.095391
       2.970000       0.316057       1.641452       0.095734
       2.980000       0.319997       1.671798       0.096127
       2.990000       0.324266       1.704537       0.096540
       3.000000       0.328738       1.740067       0.096933
       3.010000       0.333237       1.778489       0.097264
       3.020000       0.337565       1.819608       0.097506
       3.030000       0.341505       1.862961       0.097652
       3.040000       0.344815       1.907842       0.097710
       3.050000       0.347222       1.953333       0.097706
       3.060000       0.348435       1.998347       0.097674
       3.070000       0.348183       2.041687       0.097655
       3.080000       0.346261       2.082096       0.097700
       3.090000       0.342582       2.118279       0.097875
       3.100000       0.337204       2.148898       0.098252
       3.110000       0.330325       2.172582       0.098902
       3.120000       0.322245       2.187989       0.099880
       3.130000       0.313313       2.193960       0.101214
       3.140000       0.303876       2.189780       0.102894
       3.150000       0.294243       2.175472       0.104880
       3.160000       0.284673       2.152034       0.107103
       3.170000       0.275376       2.121485       0.109483
       3.180000       0.266511       2.086653       0.111935
       3.190000       0.258197       2.050749       0.114388
       3.200000       0.250508       2.016849       0.116789
       3.210000       0.243478       1.987432       0.119105
       3.220000       0.237110       1.964082       0.121329
       3.230000       0.231390       1.947387       0.123478
       3.240000       0.226297       1.937029       0.125583
       3.250000       0.221819       1.932010       0.127677
       3.260000       0.217949       1.930971       0.129782
       3.270000       0.214684       1.932545       0.131893
       3.280000       0.212016       1.935695       0.133969
       3.290000       0.209924       1.939964       0.135943
       3.300000       0.208371       1.945540       0.137740
       3.310000       0.207305       1.953097       0.139299
       3.320000       0.206664       1.963457       0.140585
       3.330000       0.206383       1.977165       0.141593
       3.340000       0.206409       1.994141       0.142333
       3.350000       0.206697       2.013524       0.142818
       3.360000       0.207217       2.033803       0.143056
       3.370000       0.207949       2.053217       0.143052
       3.380000       0.208879       2.070333       0.142815
       3.390000       0.210000       2.084599       0.142370
       3.400000       0.211307       2.096616       0.141773
       3.410000       0.212797       2.108022       0.141108
       3.420000       0.214463       2.120998       0.140491
       3.430000       0.216278       2.137637       0.140051
       3.440000       0.218176       2.159377       0.139912
       3.450000       0.220046       2.186678       0.140171
       3.460000       0.221730       2.218991       0.140885
       3.470000       0.223045       2.255015       0.142062
       3.480000       0.223824       2.293172       0.143667
       3.490000       0.223948       2.332174       0.145621
       3.500000       0.223372       2.371480       0.147823
       3.510000       0.222128       2.411438       0.150155
       3.520000       0.220310       2.453026       0.152495
       3.530000       0.218066       2.497246       0.154721
       3.540000       0.215570       2.544416       0.156721
       3.550000       0.213017       2.593602       0.158391
       3.560000       0.210596       2.642408       0.159649
       3.570000       0.208476       2.687230       0.160444
       3.580000       0.206788       2.723932       0.160764
       3.590000       0.205620       2.748739       0.160637
       3.600000       0.205014       2.759017       0.160132
       3.610000       0.204979       2.753654       0.159342
       3.620000       0.205499       2.732996       0.158380
       3.630000       0.206545       2.698529       0.157374
       3.640000       0.208080       2.652555       0.156460
       3.650000       0.210054       2.597971       0.155769
       3.660000       0.212398       2.538079       0.155421
       3.670000       0.215002       2.476349       0.155507
       3.680000       0.217703       2.416129       0.156079
       3.690000       0.220276       2.360376       0.157149
       3.700000       0.222444       2.311518       0.158691
       3.710000       0.223920       2.271429       0.160655
       3.720000       0.224460       2.241489       0.162980
       3.730000       0.223923       2.222651       0.165614
       3.740000       0.222308       2.215462       0.168516
       3.750000       0.219753       2.220023       0.171656
       3.760000       0.216500       2.235898       0.174995
       3.770000       0.212838       2.261999       0.178472
       3.780000       0.209055       2.296457       0.181994
       3.790000       0.205395       2.336552       0.185442
       3.800000       0.202044       2.378756       0.188690
       3.810000       0.199121       2.418995       0.191621
       3.820000       0.196681       2.453152       0.194150
       3.830000       0.194725       2.477767       0.196232
       3.840000       0.193216       2.490709       0.197871
       3.850000       0.192089       2.491568       0.199122
       3.860000       0.191280       2.481585       0.200084
       3.870000       0.190735       2.463164       0.200887
       3.880000       0.190428       2.439207       0.201670
       3.890000       0.190353       2.412531       0.202554
       3.900000       0.190526       2.385530       0.203636
       3.910000       0.190972       2.360064       0.204984
       3.920000       0.191717       2.337475       0.206641
       3.930000       0.192787       2.318598       0.208623
       3.940000       0.194194       2.303729       0.210920
       3.950000       0.195942       2.292606       0.213490
       3.960000       0.198013       2.284486       0.216266
       3.970000       0.200382       2.278374       0.219160
       3.980000       0.203022       2.273368       0.222083
       3.990000       0.205916       2.268970       0.224943
       4.000000       0.209074       2.265217       0.227654
       4.010000       0.212528       2.262565       0.230123
       4.020000       0.216326       2.261616       0.232247
       4.030000       0.220513       2.262865       0.233916
       4.040000       0.225102       2.266616       0.235035
       4.050000       0.230056       2.273074       0.235565
       4.060000       0.235257       2.282506       0.235551
       4.070000       0.240502       2.295305       0.235130
       4.080000       0.245517       2.311827       0.234513
       4.090000       0.249987       2.332057       0.233933
       4.100000       0.253624       2.355205       0.233592
       4.110000       0.256227       2.379450       0.233619
       4.120000       0.257727       2.401953       0.234053
       4.130000       0.258191       2.419186       0.234843
       4.140000       0.257790       2.427527       0.235871
       4.150000       0.256742       2.423978       0.236979
       4.160000       0.255268       2.406804       0.238014
       4.170000       0.253562       2.375948       0.238866
       4.180000       0.251780       2.333104       0.239505
       4.190000       0.250041       2.281414       0.239996
       4.200000       0.248428       2.224890       0.240493
       4.210000       0.246994       2.167741       0.241200
       4.220000       0.245762       2.113801       0.242324
       4.230000       0.244733       2.066207       0.244026
       4.240000       0.243892       2.027299       0.246377
       4.250000       0.243219       1.998690       0.249338
       4.260000       0.242704       1.981370       0.252767
       4.270000       0.242343       1.975791       0.256438
       4.280000       0.242141       1.981890       0.260087
       4.290000       0.242110       1.999054       0.263457
       4.300000       0.242265       2.026049       0.266342
       4.310000       0.242629       2.060918       0.268606
       4.320000       0.243239       2.100905       0.270183
       4.330000       0.244150       2.142473       0.271061
       4.340000       0.245432       2.181519       0.271257
       4.350000       0.247165       2.213832       0.270807
       4.360000       0.249421       2.235741       0.269761
       4.370000       0.252253       2.244804       0.268195
       4.380000       0.255686       2.240290       0.266221
       4.390000       0.259711       2.223282       0.264001
       4.400000       0.264291       2.196374       0.261731
       4.410000       0.269379       2.163106       0.259623
       4.420000       0.274935       2.127339       0.257882
       4.430000       0.280943       2.092768       0.256677
       4.440000       0.287426       2.062624       0.256127
       4.450000       0.294445       2.039552       0.256294
       4.460000       0.302098       2.025564       0.257178
       4.470000       0.310507       2.022041       0.258720
       4.480000       0.319816       2.029732       0.260816
       4.490000       0.330177       2.048754       0.263331
       4.500000       0.341747       2.078608       0.266126
       4.510000       0.354668       2.118209       0.269070
       4.520000       0.369037       2.165947       0.272047
       4.530000       0.384863       2.219779       0.274948
       4.540000       0.402016       2.277384       0.277656
       4.550000       0.420170       2.336380       0.280043
       4.560000       0.438758       2.394620       0.281979
       4.570000       0.456963       2.450493       0.283356
       4.580000       0.473770       2.503113       0.284104
       4.590000       0.488095       2.552264       0.284206
       4.600000       0.498992       2.598078       0.283698
       4.610000       0.505874       2.640548       0.282675
       4.620000       0.508673       2.679078       0.281282
       4.630000       0.507868       2.712254       0.279704
       4.640000       0.504362       2.737914       0.278141
       4.650000       0.499283       2.753549       0.276774
       4.660000       0.493772       2.756935       0.275738
       4.670000       0.488846       2.746838       0.275108
       4.680000       0.485316       2.723549       0.274907
       4.690000       0.483778       2.689040       0.275134
       4.700000       0.484618       2.646702       0.275792
       4.710000       0.488022       2.600770       0.276909
       4.720000       0.493988       2.555657       0.278534
       4.730000       0.502316       2.515373       0.280731
       4.740000       0.512611       2.483119       0.283549
       4.750000       0.524287       2.461054       0.287001
       4.760000       0.536590       2.450204       0.291050
       4.770000       0.548661       2.450477       0.295607
       4.780000       0.559631       2.460727       0.300535
       4.790000       0.568748       2.478865       0.305663
       4.800000       0.575507       2.502024       0.310792
       4.810000       0.579742       2.526824       0.315702
       4.820000       0.581635       2.549761       0.320147
       4.830000       0.581632       2.567678       0.323862
       4.840000       0.580304       2.578197       0.326577
       4.850000       0.578209       2.579981       0.328037
       4.860000       0.575804       2.572755       0.328044
       4.870000       0.573438       2.557171       0.326486
       4.880000       0.571388       2.534617       0.323365
       4.890000       0.569913       2.507057       0.318802
       4.900000       0.569294       2.476887       0.313015
       4.910000       0.569842       2.446758       0.306293
       4.920000       0.571872       2.419332       0.298961
       4.930000       0.575677       2.396967       0.291357
       4.940000       0.581492       2.381391       0.283814
       4.950000       0.589473       2.373431       0.276635
       4.960000       0.599677       2.372864       0.270080
       4.970000       0.612064       2.378416       0.264342
       4.980000       0.626509       2.387936       0.259544
       4.990000       0.642842       2.398725       0.255730
       5.000000       0.660897       2.407981       0.252872
       5.010000       0.680593       2.413296       0.250877
       5.020000       0.701999       2.413069       0.249602
       5.030000       0.725381       2.406740       0.248865
       5.040000       0.751206       2.394751       0.248461
       5.050000       0.780079       2.378214       0.248174
       5.060000       0.812657       2.358406       0.247802
       5.070000       0.849530       2.336286       0.247178
       5.080000       0.891106       2.312194       0.246196
       5.090000       0.937514       2.285835       0.244825
       5.100000       0.988520       2.256498       0.243097
       5.110000       1.043480       2.223411       0.241093
       5.120000       1.101335       2.186100       0.238918
       5.130000       1.160673       2.144631       0.236684
       5.140000       1.219864       2.099713       0.234502
       5.150000       1.277247       2.052638       0.232474
       5.160000       1.331341       2.005130       0.230680
       5.170000       1.381019       1.959159       0.229170
       5.180000       1.425603       1.916727       0.227969
       5.190000       1.464880       1.879672       0.227081
       5.200000       1.499078       1.849491       0.226514
       5.210000       1.528804       1.827224       0.226291
       5.220000       1.554975       1.813416       0.226460
       5.230000       1.578704       1.808166       0.227081
       5.240000       1.601146       1.811232       0.228209
       5.250000       1.623326       1.822148       0.229881
       5.260000       1.645970       1.840309       0.232090
       5.270000       1.669359       1.864957       0.234787
       5.280000       1.693235       1.895110       0.237874
       5.290000       1.716764       1.929455       0.241216
       5.300000       1.738580       1.966299       0.244646
       5.310000       1.756931       2.003619       0.247981
       5.320000       1.769926       2.039252       0.251034
       5.330000       1.775851       2.071192       0.253630
       5.340000       1.773526       2.097927       0.255617
       5.350000       1.762596       2.118703       0.256871
       5.360000       1.743658       2.133580       0.257309
       5.370000       1.718177       2.143237       0.256887
       5.380000       1.688206       2.148588       0.255605
       5.390000       1.656007       2.150358       0.253509
       5.400000       1.623717       2.148819       0.250674
       5.410000       1.593144       2.143800       0.247206
       5.420000       1.565710       2.134934       0.243229
       5.430000       1.542528       2.122041       0.238882
       5.440000       1.524507       2.105440       0.234318
       5.450000       1.512443       2.086075       0.229696
       5.460000       1.507003       2.065393       0.225169
       5.470000       1.508625       2.045052       0.220873
       5.480000       1.517346       2.026572       0.216916
       5.490000       1.532657       2.011051       0.213373
       5.500000       1.553419       1.998993       0.210296
       5.510000       1.577898       1.990268       0.207717
       5.520000       1.603906       1.984167       0.205657
       5.530000       1.629055       1.979540       0.204124
       5.540000       1.651063       1.975030       0.203116
       5.550000       1.668061       1.969376       0.202628
       5.560000       1.678853       1.961692       0.202652
       5.570000       1.683052       1.951644       0.203186
       5.580000       1.681088       1.939473       0.204236
       5.590000       1.674063       1.925878       0.205814
       5.600000       1.663502       1.911860       0.207921
       5.610000       1.651039       1.898565       0.210547
       5.620000       1.638112       1.887154       0.213650
       5.630000       1.625719       1.878681       0.217155
       5.640000       1.614288       1.873977       0.220950
       5.650000       1.603710       1.873566       0.224888
       5.660000       1.593531       1.877663       0.228803
       5.670000       1.583262       1.886237       0.232525
       5.680000       1.572683       1.899094       0.235903
       5.690000       1.562007       1.915914       0.238817
       5.700000       1.551828       1.936211       0.241194
       5.710000       1.542879       1.959273       0.242993
       5.720000       1.535730       1.984174       0.244194
       5.730000       1.530562       2.009902       0.244781
       5.740000       1.527134       2.035577       0.244732
       5.750000       1.524924       2.060678       0.244032
       5.760000       1.523412       2.085171       0.242687
       5.770000       1.522360       2.109483       0.240748
       5.780000       1.521957       2.134314       0.238313
       5.790000       1.522767       2.160344       0.235519
       5.800000       1.525482       2.187926       0.232521
       5.810000       1.530599       2.216884       0.229469
       5.820000       1.538156       2.246484       0.226489
       5.830000       1.547621       2.275556       0.223675
       5.840000       1.557971       2.302688       0.221092
       5.850000       1.567952       2.326380       0.218778
       5.860000       1.576401       2.345128       0.216756
       5.870000       1.582542       2.357485       0.215044
       5.880000       1.586110       2.362184       0.213657
       5.890000       1.587286       2.358332       0.212611
       5.900000       1.586462       2.345623       0.211924
       5.910000       1.583964       2.324477       0.211614
       5.920000       1.579850       2.296026       0.211696
       5.930000       1.573866       2.261984       0.212179
       5.940000       1.565570       2.224430       0.213061
       5.950000       1.554589       2.185573       0.214327
       5.960000       1.540871       2.147539       0.215954
       5.970000       1.524836       2.112172       0.217909
       5.980000       1.507344       2.080900       0.220162
       5.990000       1.489505       2.054674       0.222689
       6.000000       1.472424       2.034011       0.225469
       6.010000       1.456997       2.019127       0.228479
       6.020000       1.443833       2.010073       0.231683
       6.030000       1.433287       2.006803       0.235026
       6.040000       1.425588       2.009125       0.238437
       6.050000       1.420966       2.016563       0.241848
       6.060000       1.419751       2.028228       0.245200
       6.070000       1.422370       2.042807       0.248460
       6.080000       1.429259       2.058733       0.251617
       6.090000       1.440729       2.074537       0.254674
       6.100000       1.456834       2.089233       0.257632
       6.110000       1.477251       2.102568       0.260471
       6.120000       1.501206       2.114961       0.263138
       6.130000       1.527447       2.127151       0.265537
       6.140000       1.554326       2.139715       0.267537
       6.150000       1.580009       2.152678       0.268980
       6.160000       1.602813       2.165393       0.269711
       6.170000       1.621575       2.176746       0.269605
       6.180000       1.635946       2.185569       0.268602
       6.190000       1.646465       2.191089       0.266719
       6.200000       1.654370       2.193183       0.264061
       6.210000       1.661202       2.192347       0.260811
       6.220000       1.668317       2.189391       0.257206
       6.230000       1.676498       2.185037       0.253513
       6.240000       1.685767       2.179643       0.250003
       6.250000       1.695470       2.173170       0.246930
       6.260000       1.704567       2.165398       0.244506
       6.270000       1.711998       2.156235       0.242889
       6.280000       1.716981       2.145965       0.242177
       6.290000       1.719129       2.135322       0.242408
       6.300000       1.718397       2.125408       0.243565
       6.310000       1.714967       2.117521       0.245587
       6.320000       1.709154       2.112975       0.248380
       6.330000       1.701373       2.112928       0.251819
       6.340000       1.692141       2.118230       0.255754
       6.350000       1.682066       2.129320       0.260007
       6.360000       1.671809       2.146192       0.264381
       6.370000       1.662041       2.168450       0.268668
       6.380000       1.653427       2.195455       0.272656
       6.390000       1.646650       2.226532       0.276157
       6.400000       1.642428       2.261159       0.279031
       6.410000       1.641490       2.299045       0.281208
       6.420000       1.644465       2.340035       0.282709
       6.430000       1.651699       2.383828       0.283646
       6.440000       1.663073       2.429612       0.284210
       6.450000       1.677900       2.475789       0.284634
       6.460000       1.694985       2.519950       0.285153
       6.470000       1.712851       2.559157       0.285969
       6.480000       1.730080       2.590477       0.287217
       6.490000       1.745647       2.611595       0.288954
       6.500000       1.759114       2.621312       0.291162
       6.510000       1.770605       2.619755       0.293768
       6.520000       1.780595       2.608282       0.296668
       6.530000       1.789638       2.589139       0.299755
       6.540000       1.798148       2.565052       0.302943
       6.550000       1.806326       2.538850       0.306167
       6.560000       1.814211       2.513203       0.309382
       6.570000       1.821786       2.490436       0.312556
       6.580000       1.829108       2.472416       0.315656
       6.590000       1.836377       2.460453       0.318650
       6.600000       1.843972       2.455239       0.321508
       6.610000       1.852406       2.456851       0.324203
       6.620000       1.862270       2.464814       0.326721
       6.630000       1.874153       2.478233       0.329068
       6.640000       1.888576       2.495969       0.331267
       6.650000       1.905916       2.516808       0.333367
       6.660000       1.926303       2.539624       0.335431
       6.670000       1.949500       2.563490       0.337519
       6.680000       1.974795       2.587709       0.339668
       6.690000       2.000967       2.611733       0.341877
       6.700000       2.026379       2.635008       0.344098
       6.710000       2.049221       2.656876       0.346244
       6.720000       2.067884       2.676602       0.348204
       6.730000       2.081345       2.693550       0.349869
       6.740000       2.089436       2.707413       0.351151
       6.750000       2.092890       2.718368       0.352010
       6.760000       2.093146       2.727084       0.352464
       6.770000       2.092006       2.734605       0.352586
       6.780000       2.091295       2.742169       0.352491
       6.790000       2.092632       2.751017       0.352308
       6.800000       2.097333       2.762216       0.352167
       6.810000       2.106383       2.776520       0.352175
       6.820000       2.120395       2.794271       0.352406
       6.830000       2.139522       2.815357       0.352892
       6.840000       2.163354       2.839251       0.353620
       6.850000       2.190883       2.865138       0.354535
       6.860000       2.220573       2.892106       0.355554
       6.870000       2.250546       2.919378       0.356582
       6.880000       2.278855       2.946473       0.357525
       6.890000       2.303786       2.973274       0.358297
       6.900000       2.324170       3.000002       0.358822
       6.910000       2.339620       3.027167       0.359039
       6.920000       2.350645       3.055526       0.358908
       6.930000       2.358549       3.086069       0.358419
       6.940000       2.365149       3.119944       0.357596
       6.950000       2.372364       3.158288       0.356502
       6.960000       2.381811       3.201963       0.355222
       6.970000       2.394492       3.251265       0.353852
       6.980000       2.410623       3.305715       0.352471
       6.990000       2.429612       3.363996       0.351131
       7.000000       2.450186       3.424074       0.349850
       7.010000       2.470619       3.483463       0.348621
       7.020000       2.489018       3.539580       0.347441
       7.030000       2.503615       3.590066       0.346331
       7.040000       2.512977       3.633007       0.345355
       7.050000       2.516130       3.667000       0.344624
       7.060000       2.512575       3.691126       0.344279
       7.070000       2.502269       3.704905       0.344456
       7.080000       2.485580       3.708332       0.345266
       7.090000       2.463255       3.701967       0.346764
       7.100000       2.436356       3.687032       0.348942
       7.110000       2.406155       3.665397       0.351727
       7.120000       2.373993       3.639396       0.354996
       7.130000       2.341087       3.611479       0.358590
       7.140000       2.308354       3.583794       0.362334
       7.150000       2.276252       3.557822       0.366056
       7.160000       2.244716       3.534199       0.369604
       7.170000       2.213194       3.512772       0.372860
       7.180000       2.180808       3.492871       0.375754
       7.190000       2.146576       3.473691       0.378281
       7.200000       2.109659       3.454623       0.380501
       7.210000       2.069547       3.435430       0.382533
       7.220000       2.026181       3.416213       0.384537
       7.230000       1.979976       3.397218       0.386679
       7.240000       1.931749       3.378586       0.389098
       7.250000       1.882536       3.360140       0.391886
       7.260000       1.833376       3.341314       0.395075
       7.270000       1.785106       3.321227       0.398652
       7.280000       1.738279       3.298867       0.402579
       7.290000       1.693183       3.273310       0.406833
       7.300000       1.649941       3.243903       0.411431
       7.310000       1.608617       3.210389       0.416442
       7.320000       1.569283       3.172984       0.421972
       7.330000       1.532034       3.132388       0.428146
       7.340000       1.496986       3.089732       0.435069
       7.350000       1.464264       3.046415       0.442816
       7.360000       1.433974       3.003860       0.451420
       7.370000       1.406163       2.963256       0.460880
       7.380000       1.380771       2.925372       0.471181
       7.390000       1.357587       2.890509       0.482312
       7.400000       1.336229       2.858584       0.494288
       7.410000       1.316189       2.829300       0.507165
       7.420000       1.296933       2.802340       0.521044
       7.430000       1.278053       2.777532       0.536067
       7.440000       1.259411       2.754921       0.552392
       7.450000       1.241212       2.734748       0.570173
       7.460000       1.223961       2.717346       0.589542
       7.470000       1.208340       2.703050       0.610604
       7.480000       1.195041       2.692144       0.633444
       7.490000       1.184632       2.684867       0.658129
       7.500000       1.177458       2.681414       0.684703
       7.510000       1.173569       2.681837       0.713167
       7.520000       1.172662       2.685868       0.743447
       7.530000       1.174047       2.692743       0.775363
       7.540000       1.176664       2.701158       0.808603
       7.550000       1.179197       2.709425       0.842717
       7.560000       1.180281       2.715789       0.877145
       7.570000       1.178744       2.718758       0.911259
       7.580000       1.173821       2.717325       0.944422
       7.590000       1.165230       2.710987       0.976015
       7.600000       1.153130       2.699622       1.005458
       7.610000       1.137973       2.683336       1.032216
       7.620000       1.120361       2.662355       1.055823
       7.630000       1.100944       2.636987       1.075930
       7.640000       1.080381       2.607615       1.092377
       7.650000       1.059336       2.574701       1.105264
       7.660000       1.038481       2.538804       1.114995
       7.670000       1.018495       2.500591       1.122273
       7.680000       1.000056       2.460817       1.128017
       7.690000       0.983804       2.420244       1.133207
       7.700000       0.970296       2.379517       1.138692
       7.710000       0.959927       2.339058       1.145027
       7.720000       0.952871       2.299037       1.152388
       7.730000       0.949035       2.259447       1.160607
       7.740000       0.948065       2.220248       1.169310
       7.750000       0.949385       2.181512       1.178098
       7.760000       0.952279       2.143491       1.186713
       7.770000       0.955977       2.106599       1.195134
       7.780000       0.959750       2.071321       1.203558
       7.790000       0.962993       2.038103       1.212302
       7.800000       0.965273       2.007290       1.221647
       7.810000       0.966349       1.979128       1.231697
       7.820000       0.966158       1.953819       1.242301
       7.830000       0.964771       1.931575       1.253043
       7.840000       0.962338       1.912619       1.263315
       7.850000       0.959040       1.897088       1.272420
       7.860000       0.955048       1.884886       1.279700
       7.870000       0.950511       1.875550       1.284637
       7.880000       0.945553       1.868212       1.286922
       7.890000       0.940280       1.861673       1.286478
       7.900000       0.934781       1.854576       1.283432
       7.910000       0.929111       1.845594       1.278057
       7.920000       0.923269       1.833579       1.270686
       7.930000       0.917178       1.817669       1.261623
       7.940000       0.910685       1.797331       1.251078
       7.950000       0.903580       1.772408       1.239145
       7.960000       0.895631       1.743130       1.225849
       7.970000       0.886630       1.710118       1.211234
       7.980000       0.876417       1.674305       1.195451
       7.990000       0.864897       1.636805       1.178810
       8.000000       0.852051       1.598719       1.161758
       8.010000       0.837953       1.560968       1.144814
       8.020000       0.822802       1.524194       1.128505
       8.030000       0.806946       1.488767       1.113311
       8.040000       0.790877       1.454885       1.099633
       8.050000       0.775187       1.422681       1.087780
       8.060000       0.760478       1.392303       1.077979
       8.070000       0.747277       1.363938       1.070395
       8.080000       0.735965       1.337799       1.065170
       8.090000       0.726748       1.314123       1.062465
       8.100000       0.719667       1.293185       1.062478
       8.110000       0.714626       1.275281       1.065441
       8.120000       0.711421       1.260667       1.071579
       8.130000       0.709757       1.249451       1.081066
       8.140000       0.709266       1.241470       1.093987
       8.150000       0.709525       1.236228       1.110330
       8.160000       0.710087       1.232928       1.130011
       8.170000       0.710535       1.230600       1.152922
       8.180000       0.710517       1.228285       1.178977
       8.190000       0.709779       1.225215       1.208147
       8.200000       0.708167       1.220922       1.240465
       8.210000       0.705616       1.215250       1.276003
       8.220000       0.702138       1.208292       1.314818
       8.230000       0.697816       1.200285       1.356893
       8.240000       0.692800       1.191502       1.402063
       8.250000       0.687287       1.182194       1.449960
       8.260000       0.681497       1.172587       1.499993
       8.270000       0.675638       1.162906       1.551374
       8.280000       0.669876       1.153400       1.603205
       8.290000       0.664326       1.144333       1.654590
       8.300000       0.659050       1.135916       1.704731
       8.310000       0.654069       1.128229       1.752962
       8.320000       0.649379       1.121170       1.798715
       8.330000       0.644950       1.114454       1.841452
       8.340000       0.640736       1.107700       1.880609
       8.350000       0.636674       1.100534       1.915630
       8.360000       0.632677       1.092699       1.946048
       8.370000       0.628629       1.084082       1.971599
       8.380000       0.624364       1.074690       1.992286
       8.390000       0.619681       1.064574       2.008361
       8.400000       0.614366       1.053771       2.020240
       8.410000       0.608251       1.042289       2.028380
       8.420000       0.601273       1.030157       2.033174
       8.430000       0.593496       1.017487       2.034878
       8.440000       0.585106       1.004512       2.033617
       8.450000       0.576372       0.991568       2.029435
       8.460000       0.567592       0.979017       2.022391
       8.470000       0.559057       0.967152       2.012669
       8.480000       0.551021       0.956113       2.000669
       8.490000       0.543673       0.945852       1.987041
       8.500000       0.537123       0.936155       1.972643
       8.510000       0.531392       0.926720       1.958419
       8.520000       0.526432       0.917260       1.945213
       8.530000       0.522158       0.907618       1.933564
       8.540000       0.518492       0.897824       1.923571
       8.550000       0.515390       0.888103       1.914857
       8.560000       0.512842       0.878808       1.906687
       8.570000       0.510847       0.870332       1.898209
       8.580000       0.509386       0.863029       1.888739
       8.590000       0.508396       0.857152       1.877986
       8.600000       0.507762       0.852826       1.866139
       8.610000       0.507324       0.850031       1.853779
       8.620000       0.506899       0.848606       1.841678
       8.630000       0.506300       0.848276       1.830576
       8.640000       0.505375       0.848708       1.821022
       8.650000       0.504030       0.849594       1.813322
       8.660000       0.502252       0.850721       1.807576
       8.670000       0.500114       0.852002       1.803754
       8.680000       0.497746       0.853439       1.801778
       8.690000       0.495295       0.855050       1.801555
       8.700000       0.492885       0.856783       1.802982
       8.710000       0.490579       0.858491       1.805921
       8.720000       0.488375       0.859950       1.810177
       8.730000       0.486201       0.860946       1.815481
       8.740000       0.483928       0.861354       1.821504
       8.750000       0.481383       0.861185       1.827878
       8.760000       0.478367       0.860594       1.834237
       8.770000       0.474698       0.859841       1.840281
       8.780000       0.470242       0.859224       1.845868
       8.790000       0.464947       0.859011       1.851097
       8.800000       0.458856       0.859377       1.856371
       8.810000       0.452099       0.860354       1.862408
       8.820000       0.444874       0.861825       1.870193
       8.830000       0.437433       0.863558       1.880911
       8.840000       0.430051       0.865289       1.895849
       8.850000       0.423013       0.866815       1.916308
       8.860000       0.416585       0.868081       1.943503
       8.870000       0.411004       0.869240       1.978501
       8.880000       0.406462       0.870655       2.022193
       8.890000       0.403110       0.872861       2.075321
       8.900000       0.401052       0.876477       2.138541
       8.910000       0.400352       0.882117       2.212500
       8.920000       0.401037       0.890300       2.297883
       8.930000       0.403093       0.901392       2.395397
       8.940000       0.406471       0.915592       2.505707
       8.950000       0.411083       0.932942       2.629279
       8.960000       0.416792       0.953350       2.766159
       8.970000       0.423411       0.976603       2.915687
       8.980000       0.430699       1.002364       3.076180
       8.990000       0.438361       1.030165       3.244666
       9.000000       0.446057       1.059410       3.416777
       9.010000       0.453423       1.089431       3.586875
       9.020000       0.460099       1.119564       3.748463
       9.030000       0.465767       1.149252       3.894836
       9.040000       0.470196       1.178108       4.019855
       9.050000       0.473265       1.205907       4.118702
       9.060000       0.474963       1.232502       4.188445
       9.070000       0.475357       1.257703       4.228302
       9.080000       0.474556       1.281182       4.239542
       9.090000       0.472678       1.302475       4.225097
       9.100000       0.469829       1.321078       4.188987
       9.110000       0.466108       1.336601       4.135739
       9.120000       0.461611       1.348899       4.069918
       9.130000       0.456434       1.358104       3.995821
       9.140000       0.450672       1.364558       3.917316
       9.150000       0.444410       1.368685       3.837745
       9.160000       0.437723       1.370899       3.759824
       9.170000       0.430688       1.371606       3.685489
       9.180000       0.423412       1.371289       3.615774
       9.190000       0.416049       1.370599       3.550806
       9.200000       0.408808       1.370373       3.490019
       9.210000       0.401940       1.371543       3.432537
       9.220000       0.395696       1.374973       3.377577
       9.230000       0.390287       1.381281       3.324702
       9.240000       0.385840       1.390686       3.273824
       9.250000       0.382375       1.402922       3.225015
       9.260000       0.379794       1.417195       3.178257
       9.270000       0.377902       1.432222       3.133271
       9.280000       0.376444       1.446360       3.089518
       9.290000       0.375149       1.457843       3.046365
       9.300000       0.373798       1.465113       3.003350
       9.310000       0.372263       1.467152       2.960446
       9.320000       0.370536       1.463709       2.918193
       9.330000       0.368725       1.455327       2.877643
       9.340000       0.367021       1.443167       2.840149
       9.350000       0.365661       1.428738       2.807051
       9.360000       0.364879       1.413611       2.779361
       9.370000       0.364885       1.399201       2.757508
       9.380000       0.365833       1.386606       2.741195
       9.390000       0.367818       1.376483       2.729408
       9.400000       0.370862       1.368976       2.720623
       9.410000       0.374925       1.363718       2.713187
       9.420000       0.379910       1.359937       2.705797
       9.430000       0.385688       1.356666       2.697912
       9.440000       0.392120       1.353003       2.689949
       9.450000       0.399086       1.348363       2.683162
       9.460000       0.406498       1.342641       2.679269
       9.470000       0.414307       1.336238       2.679938
       9.480000       0.422488       1.329955       2.686312
       9.490000       0.431007       1.324816       2.698674
       9.500000       0.439806       1.321880       2.716325
       9.510000       0.448792       1.322104       2.737656
       9.520000       0.457850       1.326278       2.760394
       9.530000       0.466874       1.335052       2.781947
       9.540000       0.475793       1.349004       2.799788
       9.550000       0.484589       1.368709       2.811801
       9.560000       0.493297       1.394757       2.816532
       9.570000       0.501988       1.427676       2.813291
       9.580000       0.510745       1.467775       2.802128
       9.590000       0.519649       1.514939       2.783690
       9.600000       0.528755       1.568423       2.759048
       9.610000       0.538079       1.626717       2.729523
       9.620000       0.547594       1.687513       2.696557
       9.630000       0.557220       1.747849       2.661619
       9.640000       0.566831       1.804425       2.626121
       9.650000       0.576243       1.854075       2.591322
       9.660000       0.585211       1.894246       2.558224
       9.670000       0.593427       1.923339       2.527486
       9.680000       0.600540       1.940814       2.499393
       9.690000       0.606206       1.947059       2.473902
       9.700000       0.610173       1.943130       2.450759
       9.710000       0.612360       1.930489       2.429641
       9.720000       0.612910       1.910782       2.410283
       9.730000       0.612171       1.885674       2.392556
       9.740000       0.610621       1.856714       2.376510
       9.750000       0.608766       1.825244       2.362375
       9.760000       0.607044       1.792372       2.350541
       9.770000       0.605787       1.759014       2.341508
       9.780000       0.605238       1.725971       2.335820
       9.790000       0.605586       1.694007       2.333966
       9.800000       0.607002       1.663859       2.336274
       9.810000       0.609621       1.636185       2.342810
       9.820000       0.613503       1.611473       2.353320
       9.830000       0.618573       1.589957       2.367230
       9.840000       0.624579       1.571600       2.383708
       9.850000       0.631091       1.556146       2.401780
       9.860000       0.637537       1.543205       2.420453
       9.870000       0.643285       1.532342       2.438843
       9.880000       0.647751       1.523129       2.456277
       9.890000       0.650496       1.515195       2.472360
       9.900000       0.651313       1.508256       2.486979
       9.910000       0.650253       1.502152       2.500246
       9.920000       0.647592       1.496866       2.512398
       9.930000       0.643752       1.492523       2.523694
       9.940000       0.639197       1.489368       2.534308
       9.950000       0.634334       1.487708       2.544260
       9.960000       0.629450       1.487851       2.553390
       9.970000       0.624674       1.490020       2.561386
       9.980000       0.619982       1.494276       2.567868
       9.990000       0.615242       1.500483       2.572523
      10.000000       0.610294       1.508323       2.575240
      10.010000       0.605054       1.517362       2.576202
      10.020000       0.599580       1.527122       2.575883
      10.030000       0.594106       1.537119       2.574939
      10.040000       0.588984       1.546846       2.574025
      10.050000       0.584602       1.555714       2.573633
      10.060000       0.581280       1.562998       2.573998
      10.070000       0.579196       1.567832       2.575098
      10.080000       0.578350       1.569282       2.576705
      10.090000       0.578571       1.566482       2.578436
      10.100000       0.579543       1.558771       2.579807
      10.110000       0.580844       1.545790       2.580281
      10.120000       0.581977       1.527512       2.579357
      10.130000       0.582429       1.504212       2.576659
      10.140000       0.581726       1.476433       2.572012
      10.150000       0.579509       1.444946       2.565420
      10.160000       0.575589       1.410712       2.556969
      10.170000       0.569968       1.374816       2.546694
      10.180000       0.562816       1.338388       2.534489
      10.190000       0.554418       1.302496       2.520120
      10.200000       0.545121       1.268056       2.503339
      10.210000       0.535291       1.235768       2.484031
      10.220000       0.525293       1.206095       2.462316
      10.230000       0.515478       1.179292       2.438555
      10.240000       0.506163       1.155470       2.413297
      10.250000       0.497614       1.134659       2.387194
      10.260000       0.490026       1.116855       2.360929
      10.270000       0.483512       1.102031       2.335169
      10.280000       0.478101       1.090115       2.310521
      10.290000       0.473732       1.080961       2.287495
      10.300000       0.470266       1.074333       2.266473
      10.310000       0.467497       1.069895       2.247703
      10.320000       0.465179       1.067216       2.231321
      10.330000       0.463057       1.065782       2.217379
      10.340000       0.460910       1.065019       2.205850
      10.350000       0.458581       1.064352       2.196624
      10.360000       0.455997       1.063266       2.189480
      10.370000       0.453173       1.061390       2.184075
      10.380000       0.450193       1.058531       2.179966
      10.390000       0.447186       1.054674       2.176649
      10.400000       0.444303       1.049937       2.173611
      10.410000       0.441696       1.044501       2.170383
      10.420000       0.439495       1.038548       2.166558
      10.430000       0.437800       1.032209       2.161784
      10.440000       0.436662       1.025541       2.155727
      10.450000       0.436079       1.018519       2.148051
      10.460000       0.435997       1.011042       2.138416
      10.470000       0.436315       1.002963       2.126526
      10.480000       0.436888       0.994134       2.112184
      10.490000       0.437535       0.984463       2.095340
      10.500000       0.438056       0.973984       2.076089
      10.510000       0.438261       0.962900       2.054649
      10.520000       0.438007       0.951595       2.031321
      10.530000       0.437237       0.940584       2.006452
      10.540000       0.436002       0.930417       1.980417
      10.550000       0.434455       0.921564       1.953618
      10.560000       0.432821       0.914317       1.926484
      10.570000       0.431342       0.908732       1.899463
      10.580000       0.430230       0.904641       1.872986
      10.590000       0.429635       0.901709       1.847438
      10.600000       0.429637       0.899533       1.823125
      10.610000       0.430255       0.897731       1.800281
      10.620000       0.431462       0.896007       1.779078
      10.630000       0.433195       0.894144       1.759641
      10.640000       0.435348       0.891974       1.742057
      10.650000       0.437770       0.889331       1.726371
      10.660000       0.440278       0.886048       1.712575
      10.670000       0.442676       0.881994       1.700595
      10.680000       0.444796       0.877140       1.690270
      10.690000       0.446520       0.871608       1.681336
      10.700000       0.447804       0.865679       1.673416
      10.710000       0.448677       0.859734       1.666041
      10.720000       0.449219       0.854155       1.658707
      10.730000       0.449539       0.849222       1.650969
      10.740000       0.449737       0.845041       1.642533
      10.750000       0.449893       0.841536       1.633334
      10.760000       0.450059       0.838478       1.623553
      10.770000       0.450286       0.835543       1.613592
      10.780000       0.450643       0.832359       1.603995
      10.790000       0.451237       0.828537       1.595372
      10.800000       0.452213       0.823694       1.588329
      10.810000       0.453728       0.817495       1.583431
      10.820000       0.455934       0.809711       1.581203
      10.830000       0.458953       0.800287       1.582135
      10.840000       0.462877       0.789378       1.586691
      10.850000       0.467776       0.777346       1.595290
      10.860000       0.473706       0.764707       1.608297
      10.870000       0.480711       0.752048       1.626019
      10.880000       0.488814       0.739935       1.648724
      10.890000       0.497997       0.728847       1.676672
      10.900000       0.508183       0.719124       1.710158
      10.910000       0.519233       0.710950       1.749531
      10.920000       0.530957       0.704357       1.795195
      10.930000       0.543139       0.699222       1.847560
      10.940000       0.555559       0.695287       1.906957
      10.950000       0.567996       0.692170       1.973537
      10.960000       0.580200       0.689396       2.047165
      10.970000       0.591848       0.686446       2.127337
      10.980000       0.602511       0.682811       2.213120
      10.990000       0.611651       0.678055       2.303099
      11.000000       0.618683       0.671858       2.395335
      11.010000       0.623079       0.664044       2.487354
      11.020000       0.624508       0.654600       2.576209
      11.030000       0.622947       0.643663       2.658670
      11.040000       0.618707       0.631509       2.731543
      11.050000       0.612376       0.618510       2.792035
      11.060000       0.604681       0.605088       2.838078
      11.070000       0.596345       0.591657       2.868498
      11.080000       0.587984       0.578578       2.883020
      11.090000       0.580069       0.566132       2.882120
      11.100000       0.572957       0.554516       2.866814
      11.110000       0.566938       0.543856       2.838434
      11.120000       0.562284       0.534217       2.798464
      11.130000       0.559262       0.525611       2.748460
      11.140000       0.558134       0.518000       2.690045
      11.150000       0.559124       0.511293       2.624933
      11.160000       0.562399       0.505342       2.554917
      11.170000       0.568043       0.499960       2.481790
      11.180000       0.576055       0.494947       2.407211
      11.190000       0.586337       0.490117       2.332577
      11.200000       0.598701       0.485326       2.258945
      11.210000       0.612862       0.480482       2.187047
      11.220000       0.628432       0.475534       2.117379
      11.230000       0.644927       0.470458       2.050337
      11.240000       0.661766       0.465238       1.986322
      11.250000       0.678320       0.459854       1.925789
      11.260000       0.693979       0.454280       1.869216
      11.270000       0.708247       0.448482       1.817018
      11.280000       0.720831       0.442424       1.769459
      11.290000       0.731682       0.436069       1.726594
      11.300000       0.740982       0.429389       1.688254
      11.310000       0.749073       0.422370       1.654077
      11.320000       0.756371       0.415029       1.623551
      11.330000       0.763278       0.407424       1.596088
      11.340000       0.770109       0.399654       1.571105
      11.350000       0.777040       0.391840       1.548087
      11.360000       0.784080       0.384115       1.526620
      11.370000       0.791063       0.376602       1.506382
      11.380000       0.797680       0.369413       1.487090
      11.390000       0.803541       0.362646       1.468446
      11.400000       0.808263       0.356385       1.450114
      11.410000       0.811576       0.350700       1.431741
      11.420000       0.813402       0.345637       1.413033
      11.430000       0.813917       0.341215       1.393836
      11.440000       0.813543       0.337421       1.374211
      11.450000       0.812901       0.334204       1.354443
      11.460000       0.812724       0.331471       1.334999
      11.470000       0.813757       0.329094       1.316431
      11.480000       0.816674       0.326924       1.299255
      11.490000       0.822009       0.324808       1.283838
      11.500000       0.830115       0.322608       1.270325
      11.510000       0.841118       0.320219       1.258624
      11.520000       0.854901       0.317574       1.248440
      11.530000       0.871089       0.314654       1.239347
      11.540000       0.889057       0.311500       1.230870
      11.550000       0.907961       0.308209       1.222564
      11.560000       0.926784       0.304921       1.214071
      11.570000       0.944419       0.301794       1.205154
      11.580000       0.959800       0.298969       1.195698
      11.590000       0.972091       0.296539       1.185700
      11.600000       0.980886       0.294551       1.175239
      11.610000       0.986347       0.293005       1.164436
      11.620000       0.989215       0.291874       1.153417
      11.630000       0.990671       0.291121       1.142264
      11.640000       0.992101       0.290703       1.130996
      11.650000       0.994828       0.290569       1.119581
      11.660000       0.999889       0.290657       1.107999
      11.670000       1.007894       0.290891       1.096324
      11.680000       1.018967       0.291182       1.084793
      11.690000       1.032752       0.291430       1.073812
      11.700000       1.048492       0.291527       1.063870
      11.710000       1.065150       0.291356       1.055396
      11.720000       1.081593       0.290798       1.048596
      11.730000       1.096810       0.289737       1.043341
      11.740000       1.110113       0.288077       1.039130
      11.750000       1.121272       0.285757       1.035161
      11.760000       1.130517       0.282769       1.030472
      11.770000       1.138421       0.279165       1.024139
      11.780000       1.145710       0.275063       1.015457
      11.790000       1.153072       0.270636       1.004067
      11.800000       1.161048       0.266086       0.989989
      11.810000       1.169984       0.261618       0.973576
      11.820000       1.180052       0.257409       0.955410
      11.830000       1.191267       0.253587       0.936187
      11.840000       1.203485       0.250232       0.916613
      11.850000       1.216393       0.247378       0.897324
      11.860000       1.229536       0.245032       0.878846
      11.870000       1.242413       0.243193       0.861572
      11.880000       1.254645       0.241860       0.845763
      11.890000       1.266149       0.241042       0.831569
      11.900000       1.277218       0.240748       0.819051
      11.910000       1.288458       0.240978       0.808207
      11.920000       1.300587       0.241709       0.798980
      11.930000       1.314194       0.242884       0.791249
      11.940000       1.329526       0.244411       0.784816
      11.950000       1.346393       0.246171       0.779402
      11.960000       1.364193       0.248031       0.774657
      11.970000       1.382055       0.249861       0.770185
      11.980000       1.399070       0.251550       0.765586
      11.990000       1.414551       0.253017       0.760514
      12.000000       1.428249       0.254221       0.754724
      12.010000       1.440450       0.255159       0.748114
      12.020000       1.451935       0.255859       0.740728
      12.030000       1.463784       0.256370       0.732734
      12.040000       1.477104       0.256759       0.724381
      12.050000       1.492749       0.257104       0.715939
      12.060000       1.511104       0.257481       0.707659
      12.070000       1.532002       0.257950       0.699732
      12.080000       1.554762       0.258539       0.692287
      12.090000       1.578331       0.259234       0.685388
      12.100000       1.601506       0.259976       0.679056
      12.110000       1.623177       0.260671       0.673269
      12.120000       1.642532       0.261207       0.667966
      12.130000       1.659183       0.261471       0.663034
      12.140000       1.673143       0.261372       0.658322
      12.150000       1.684705       0.260854       0.653659
      12.160000       1.694278       0.259913       0.648894
      12.170000       1.702251       0.258595       0.643931
      12.180000       1.708930       0.256999       0.638734
      12.190000       1.714518       0.255255       0.633309
      12.200000       1.719105       0.253503       0.627678
      12.210000       1.722647       0.251874       0.621859
      12.220000       1.724928       0.250471       0.615860
      12.230000       1.725543       0.249360       0.609691
      12.240000       1.723954       0.248569       0.603378
      12.250000       1.719597       0.248092       0.596982
      12.260000       1.712024       0.247891       0.590602
      12.270000       1.700997       0.247917       0.584374
      12.280000       1.686526       0.248121       0.578466
      12.290000       1.668858       0.248473       0.573049
      12.300000       1.648434       0.248970       0.568267
      12.310000       1.625835       0.249638       0.564206
      12.320000       1.601710       0.250527       0.560873
      12.330000       1.576693       0.251701       0.558202
      12.340000       1.551352       0.253222       0.556067
      12.350000       1.526202       0.255146       0.554323
      12.360000       1.501762       0.257512       0.552835
      12.370000       1.478650       0.260348       0.551508
      12.380000       1.457622       0.263670       0.550301
      12.390000       1.439530       0.267495       0.549223
      12.400000       1.425182       0.271840       0.548307
      12.410000       1.415161       0.276725       0.547572
      12.420000       1.409672       0.282164       0.546994
      12.430000       1.408477       0.288158       0.546475
      12.440000       1.410933       0.294684       0.545854
      12.450000       1.416138       0.301695       0.544928
      12.460000       1.423136       0.309124       0.543489
      12.470000       1.431146       0.316888       0.541364
      12.480000       1.439720       0.324893       0.538441
      12.490000       1.448795       0.333049       0.534696
      12.500000       1.458626       0.341265       0.530198
      12.510000       1.469625       0.349463       0.525103
      12.520000       1.482197       0.357574       0.519634
      12.530000       1.496609       0.365544       0.514048
      12.540000       1.512916       0.373335       0.508602
      12.550000       1.530954       0.380921       0.503510
      12.560000       1.550322       0.388293       0.498919
      12.570000       1.570343       0.395450       0.494882
      12.580000       1.589985       0.402395       0.491359
      12.590000       1.607799       0.409124       0.488235
      12.600000       1.621957       0.415615       0.485354
      12.610000       1.630427       0.421834       0.482566
      12.620000       1.631298       0.427737       0.479768
      12.630000       1.623174       0.433290       0.476935
      12.640000       1.605515       0.438485       0.474135
      12.650000       1.578811       0.443355       0.471517
      12.660000       1.544500       0.447972       0.469293
      12.670000       1.504658       0.452436       0.467694
      12.680000       1.461573       0.456853       0.466925
      12.690000       1.417322       0.461314       0.467118
      12.700000       1.373489       0.465885       0.468309
      12.710000       1.331069       0.470608       0.470419
      12.720000       1.290547       0.475510       0.473258
      12.730000       1.252065       0.480599       0.476541
      12.740000       1.215611       0.485856       0.479902
      12.750000       1.181143       0.491223       0.482923
      12.760000       1.148647       0.496603       0.485177
      12.770000       1.118151       0.501875       0.486279
      12.780000       1.089749       0.506913       0.485934
      12.790000       1.063629       0.511610       0.483990
      12.800000       1.040095       0.515883       0.480455
      12.810000       1.019549       0.519679       0.475505
      12.820000       1.002432       0.522975       0.469451
      12.830000       0.989126       0.525800       0.462694
      12.840000       0.979857       0.528261       0.455661
      12.850000       0.974627       0.530564       0.448760
      12.860000       0.973191       0.532998       0.442336
      12.870000       0.975080       0.535895       0.436654
      12.880000       0.979682       0.539568       0.431897
      12.890000       0.986358       0.544254       0.428185
      12.900000       0.994568       0.550082       0.425584
      12.910000       1.003967       0.557057       0.424120
      12.920000       1.014456       0.565069       0.423771
      12.930000       1.026142       0.573916       0.424455
      12.940000       1.039255       0.583341       0.426007
      12.950000       1.054024       0.593068       0.428168
      12.960000       1.070551       0.602831       0.430582
      12.970000       1.088718       0.612393       0.432812
      12.980000       1.108134       0.621550       0.434379
      12.990000       1.128158       0.630125       0.434820
      13.000000       1.147989       0.637963       0.433764
      13.010000       1.166806       0.644923       0.431000
      13.020000       1.183896       0.650886       0.426520
      13.030000       1.198723       0.655769       0.420515
      13.040000       1.210924       0.659527       0.413335
      13.050000       1.220256       0.662151       0.405411
      13.060000       1.226551       0.663663       0.397195
      13.070000       1.229709       0.664112       0.389107
      13.080000       1.229719       0.663586       0.381509
      13.090000       1.226685       0.662229       0.374696
      13.100000       1.220795       0.660249       0.368891
      13.110000       1.212233       0.657915       0.364246
      13.120000       1.201068       0.655532       0.360847
      13.130000       1.187192       0.653398       0.358710
      13.140000       1.170374       0.651759       0.357796
      13.150000       1.150421       0.650776       0.358022
      13.160000       1.127377       0.650514       0.359285
      13.170000       1.101665       0.650944       0.361480
      13.180000       1.074102       0.651962       0.364508
      13.190000       1.045790       0.653412       0.368275
      13.200000       1.017921       0.655106       0.372672
      13.210000       0.991573       0.656846       0.377552
      13.220000       0.967557       0.658442       0.382689
      13.230000       0.946331       0.659747       0.387773
      13.240000       0.927995       0.660687       0.392405
      13.250000       0.912344       0.661286       0.396134
      13.260000       0.898972       0.661652       0.398519
      13.270000       0.887377       0.661947       0.399203
      13.280000       0.877057       0.662330       0.397982
      13.290000       0.867567       0.662908       0.394853
      13.300000       0.858558       0.663706       0.390016
      13.310000       0.849774       0.664663       0.383834
      13.320000       0.841060       0.665658       0.376758
      13.330000       0.832363       0.666552       0.369258
      13.340000       0.823738       0.667246       0.361758
      13.350000       0.815345       0.667716       0.354605
      13.360000       0.807433       0.668035       0.348051
      13.370000       0.800307       0.668359       0.342254
      13.380000       0.794285       0.668903       0.337283
      13.390000       0.789667       0.669903       0.333130
      13.400000       0.786699       0.671592       0.329722
      13.410000       0.785543       0.674174       0.326945
      13.420000       0.786258       0.677800       0.324663
      13.430000       0.788789       0.682546       0.322742
      13.440000       0.792988       0.688381       0.321064
      13.450000       0.798654       0.695140       0.319540
      13.460000       0.805579       0.702506       0.318103
      13.470000       0.813578       0.710008       0.316708
      13.480000       0.822497       0.717059       0.315321
      13.490000       0.832213       0.723025       0.313913
      13.500000       0.842613       0.727332       0.312457
      13.510000       0.853559       0.729566       0.310927
      13.520000       0.864834       0.729553       0.309284
      13.530000       0.876087       0.727376       0.307478
      13.540000       0.886809       0.723339       0.305443
      13.550000       0.896369       0.717887       0.303109
      13.560000       0.904101       0.711505       0.300432
      13.570000       0.909421       0.704618       0.297421
      13.580000       0.911938       0.697514       0.294154
      13.590000       0.911507       0.690311       0.290787
      13.600000       0.908236       0.682975       0.287525
      13.610000       0.902431       0.675376       0.284593
      13.620000       0.894523       0.667353       0.282193
      13.630000       0.884985       0.658779       0.280477
      13.640000       0.874267       0.649596       0.279526
      13.650000       0.862768       0.639820       0.279344
      13.660000       0.850845       0.629542       0.279868
      13.670000       0.838844       0.618928       0.280982
      13.680000       0.827133       0.608222       0.282542
      13.690000       0.816096       0.597747       0.284393
      13.700000       0.806103       0.587886       0.286389
      13.710000       0.797426       0.579046       0.288403
      13.720000       0.790158       0.571604       0.290327
      13.730000       0.784168       0.565854       0.292074
      13.740000       0.779118       0.561959       0.293571
      13.750000       0.774551       0.559921       0.294752
      13.760000       0.770006       0.559578       0.295554
      13.770000       0.765113       0.560614       0.295915
      13.780000       0.759616       0.562595       0.295778
      13.790000       0.753343       0.565023       0.295105
      13.800000       0.746143       0.567401       0.293891
      13.810000       0.737847       0.569296       0.292190
      13.820000       0.728280       0.570384       0.290122
      13.830000       0.717297       0.570475       0.287866
      13.840000       0.704837       0.569514       0.285638
      13.850000       0.690958       0.567572       0.283657
      13.860000       0.675867       0.564842       0.282107
      13.870000       0.659927       0.561617       0.281120
      13.880000       0.643637       0.558270       0.280779
      13.890000       0.627577       0.555212       0.281120
      13.900000       0.612336       0.552835       0.282153
      13.910000       0.598428       0.551461       0.283873
      13.920000       0.586236       0.551318       0.286270
      13.930000       0.575974       0.552525       0.289329
      13.940000       0.567700       0.555121       0.293029
      13.950000       0.561336       0.559084       0.297335
      13.960000       0.556712       0.564364       0.302195
      13.970000       0.553600       0.570883       0.307535
      13.980000       0.551756       0.578544       0.313272
      13.990000       0.550952       0.587210       0.319324
      14.000000       0.551018       0.596709       0.325628
      14.010000       0.551863       0.606825       0.332148
      14.020000       0.553482       0.617307       0.338876
      14.030000       0.555947       0.627856       0.345815
      14.040000       0.559383       0.638110       0.352972
      14.050000       0.563921       0.647636       0.360353
      14.060000       0.569659       0.655919       0.367968
      14.070000       0.576605       0.662399       0.375836
      14.080000       0.584643       0.666534       0.383995
      14.090000       0.593522       0.667901       0.392486
      14.100000       0.602879       0.666298       0.401344
      14.110000       0.612279       0.661815       0.410581
      14.120000       0.621280       0.654838       0.420190
      14.130000       0.629477       0.645982       0.430148
      14.140000       0.636546       0.635994       0.440433
      14.150000       0.642267       0.625632       0.451028
      14.160000       0.646538       0.615581       0.461927
      14.170000       0.649373       0.606388       0.473121
      14.180000       0.650898       0.598444       0.484590
      14.190000       0.651319       0.591987       0.496294
      14.200000       0.650892       0.587134       0.508172
      14.210000       0.649881       0.583916       0.520134
      14.220000       0.648528       0.582311       0.532061
      14.230000       0.647027       0.582257       0.543800
      14.240000       0.645500       0.583651       0.555153
      14.250000       0.643979       0.586331       0.565882
      14.260000       0.642386       0.590063       0.575722
      14.270000       0.640529       0.594537       0.584403
      14.280000       0.638120       0.599374       0.591690
      14.290000       0.634828       0.604138       0.597408
      14.300000       0.630349       0.608368       0.601465
      14.310000       0.624489       0.611597       0.603857
      14.320000       0.617221       0.613390       0.604656
      14.330000       0.608712       0.613390       0.603988
      14.340000       0.599304       0.611365       0.602008
      14.350000       0.589458       0.607243       0.598869
      14.360000       0.579676       0.601130       0.594709
      14.370000       0.570424       0.593273       0.589654
      14.380000       0.562069       0.584013       0.583839
      14.390000       0.554853       0.573712       0.577420
      14.400000       0.548888       0.562694       0.570586
      14.410000       0.544166       0.551210       0.563537
      14.420000       0.540591       0.539419       0.556451
      14.430000       0.538017       0.527400       0.549448
      14.440000       0.536301       0.515179       0.542558
      14.450000       0.535358       0.502768       0.535714
      14.460000       0.535189       0.490203       0.528753
      14.470000       0.535877       0.477568       0.521440
      14.480000       0.537538       0.465001       0.513512
      14.490000       0.540242       0.452675       0.504725
      14.500000       0.543945       0.440777       0.494920
      14.510000       0.548452       0.429478       0.484059
      14.520000       0.553422       0.418910       0.472240
      14.530000       0.558418       0.409162       0.459674
      14.540000       0.562965       0.400276       0.446631
      14.550000       0.566607       0.392264       0.433388
      14.560000       0.568935       0.385121       0.420188
      14.570000       0.569615       0.378842       0.407227
      14.580000       0.568401       0.373433       0.394658
      14.590000       0.565163       0.368920       0.382608
      14.600000       0.559919       0.365348       0.371184
      14.610000       0.552851       0.362766       0.360480
      14.620000       0.544316       0.361201       0.350567
      14.630000       0.534818       0.360626       0.341495
      14.640000       0.524952       0.360939       0.333286
      14.650000       0.515320       0.361946       0.325942
      14.660000       0.506443       0.363373       0.319441
      14.670000       0.498688       0.364886       0.313731
      14.680000       0.492235       0.366133       0.308733
      14.690000       0.487086       0.366790       0.304337
      14.700000       0.483104       0.366605       0.300419
      14.710000       0.480078       0.365430       0.296861
      14.720000       0.477783       0.363227       0.293577
      14.730000       0.476027       0.360063       0.290523
      14.740000       0.474675       0.356079       0.287700
      14.750000       0.473654       0.351465       0.285138
      14.760000       0.472952       0.346419       0.282883
      14.770000       0.472599       0.341126       0.280974
      14.780000       0.472649       0.335746       0.279423
      14.790000       0.473150       0.330406       0.278206
      14.800000       0.474114       0.325210       0.277251
      14.810000       0.475501       0.320254       0.276443
      14.820000       0.477224       0.315632       0.275638
      14.830000       0.479175       0.311441       0.274695
      14.840000       0.481250       0.307772       0.273505
      14.850000       0.483372       0.304701       0.272022
      14.860000       0.485493       0.302269       0.270270
      14.870000       0.487577       0.300479       0.268341
      14.880000       0.489580       0.299292       0.266364
      14.890000       0.491435       0.298632       0.264476
      14.900000       0.493049       0.298396       0.262792
      14.910000       0.494317       0.298471       0.261385
      14.920000       0.495129       0.298738       0.260277
      14.930000       0.495389       0.299093       0.259445
      14.940000       0.495015       0.299443       0.258830
      14.950000       0.493938       0.299716       0.258356
      14.960000       0.492107       0.299851       0.257946
      14.970000       0.489507       0.299796       0.257540
      14.980000       0.486180       0.299494       0.257098
      14.990000       0.482244       0.298876       0.256604
      15.000000       0.477899       0.297863       0.256063
      15.010000       0.473419       0.296380       0.255494
      15.020000       0.469115       0.294381       0.254929
      15.030000       0.465298       0.291868       0.254409
      15.040000       0.462236       0.288902       0.253983
      15.050000       0.460116       0.285602       0.253704
      15.060000       0.459031       0.282126       0.253622
      15.070000       0.458983       0.278658       0.253783
      15.080000       0.459904       0.275389       0.254219
      15.090000       0.461684       0.272495       0.254952
      15.100000       0.464211       0.270126       0.255996
      15.110000       0.467385       0.268392       0.257352
      15.120000       0.471136       0.267347       0.259020
      15.130000       0.475409       0.266983       0.260999
      15.140000       0.480140       0.267226       0.263286
      15.150000       0.485226       0.267942       0.265880
      15.160000       0.490512       0.268969       0.268780
      15.170000       0.495794       0.270151       0.271983
      15.180000       0.500846       0.271374       0.275487
      15.190000       0.505449       0.272598       0.279285
      15.200000       0.509422       0.273859       0.283368
      15.210000       0.512630       0.275247       0.287734
      15.220000       0.514984       0.276874       0.292383
      15.230000       0.516447       0.278836       0.297331
      15.240000       0.517042       0.281182       0.302611
      15.250000       0.516873       0.283899       0.308281
      15.260000       0.516130       0.286906       0.314420
      15.270000       0.515066       0.290067       0.321127
      15.280000       0.513959       0.293210       0.328498
      15.290000       0.513062       0.296154       0.336604
      15.300000       0.512572       0.298737       0.345475
      15.310000       0.512614       0.300836       0.355086
      15.320000       0.513249       0.302371       0.365365
      15.330000       0.514475       0.303298       0.376213
      15.340000       0.516229       0.303582       0.387539
      15.350000       0.518388       0.303179       0.399283
      15.360000       0.520752       0.302024       0.411436
      15.370000       0.523045       0.300041       0.424034
      15.380000       0.524914       0.297165       0.437142
      15.390000       0.525953       0.293368       0.450816
      15.400000       0.525768       0.288686       0.465073
      15.410000       0.524058       0.283232       0.479872
      15.420000       0.520706       0.277190       0.495111
      15.430000       0.515823       0.270803       0.510658
      15.440000       0.509738       0.264333       0.526383
      15.450000       0.502927       0.258035       0.542192
      15.460000       0.495911       0.252119       0.558031
      15.470000       0.489157       0.246730       0.573875
      15.480000       0.483004       0.241948       0.589685
      15.490000       0.477626       0.237790       0.605372
      15.500000       0.473028       0.234235       0.620777
      15.510000       0.469075       0.231235       0.635680
      15.520000       0.465540       0.228734       0.649835
      15.530000       0.462176       0.226680       0.663016
      15.540000       0.458776       0.225023       0.675067
      15.550000       0.455226       0.223721       0.685918
      15.560000       0.451529       0.222738       0.695587
      15.570000       0.447799       0.222041       0.704155
      15.580000       0.444224       0.221605       0.711734
      15.590000       0.441007       0.221414       0.718431
      15.600000       0.438312       0.221454       0.724318
      15.610000       0.436213       0.221707       0.729407
      15.620000       0.434680       0.222147       0.733630
      15.630000       0.433578       0.222737       0.736831
      15.640000       0.432690       0.223426       0.738784
      15.650000       0.431753       0.224156       0.739227
      15.660000       0.430494       0.224859       0.737915
      15.670000       0.428665       0.225464       0.734674
      15.680000       0.426084       0.225891       0.729442
      15.690000       0.422673       0.226069       0.722272
      15.700000       0.418474       0.225944       0.713324
      15.710000       0.413656       0.225496       0.702823
      15.720000       0.408482       0.224747       0.691029
      15.730000       0.403269       0.223756       0.678206
      15.740000       0.398331       0.222613       0.664604
      15.750000       0.393942       0.221420       0.650450
      15.760000       0.390304       0.220274       0.635949
      15.770000       0.387539       0.219257       0.621286
      15.780000       0.385702       0.218423       0.606621
      15.790000       0.384790       0.217797       0.592093
      15.800000       0.384760       0.217370       0.577815
      15.810000       0.385539       0.217100       0.563884
      15.820000       0.387023       0.216913       0.550384
      15.830000       0.389081       0.216716       0.537389
      15.840000       0.391551       0.216418       0.524964
      15.850000       0.394235       0.215942       0.513157
      15.860000       0.396901       0.215246       0.501998
      15.870000       0.399291       0.214325       0.491495
      15.880000       0.401138       0.213213       0.481632
      15.890000       0.402208       0.211972       0.472371
      15.900000       0.402360       0.210674       0.463647
      15.910000       0.401580       0.209392       0.455380
      15.920000       0.400002       0.208185       0.447467
      15.930000       0.397877       0.207093       0.439790
      15.940000       0.395522       0.206147       0.432214
      15.950000       0.393259       0.205369       0.424589
      15.960000       0.391355       0.204783       0.416747
      15.970000       0.389986       0.204411       0.408513
      15.980000       0.389221       0.204267       0.399717
      15.990000       0.389032       0.204345       0.390210
      16.000000       0.389331       0.204614       0.379889
      16.010000       0.390015       0.205012       0.368715
      16.020000       0.391002       0.205458       0.356728
      16.030000       0.392247       0.205863       0.344041
      16.040000       0.393732       0.206144       0.330838
      16.050000       0.395440       0.206241       0.317352
      16.060000       0.397330       0.206114       0.303842
      16.070000       0.399320       0.205756       0.290568
      16.080000       0.401291       0.205187       0.277764
      16.090000       0.403113       0.204453       0.265618
      16.100000       0.404668       0.203610       0.254270
      16.110000       0.405878       0.202721       0.243805
      16.120000       0.406716       0.201839       0.234257
      16.130000       0.407190       0.201006       0.225625
      16.140000       0.407298       0.200250       0.217868
      16.150000       0.406993       0.199586       0.210923
      16.160000       0.406154       0.199021       0.204704
      16.170000       0.404605       0.198559       0.199119
      16.180000       0.402175       0.198202       0.194076
      16.190000       0.398767       0.197960       0.189497
      16.200000       0.394414       0.197852       0.185327
      16.210000       0.389306       0.197908       0.181535
      16.220000       0.383758       0.198162       0.178113
      16.230000       0.378150       0.198644       0.175066
      16.240000       0.372855       0.199359       0.172403
      16.250000       0.368171       0.200279       0.170132
      16.260000       0.364287       0.201331       0.168253
      16.270000       0.361281       0.202408       0.166757
      16.280000       0.359141       0.203385       0.165621
      16.290000       0.357807       0.204155       0.164815
      16.300000       0.357203       0.204650       0.164299
      16.310000       0.357262       0.204860       0.164032
      16.320000       0.357933       0.204830       0.163977
      16.330000       0.359171       0.204645       0.164103
      16.340000       0.360919       0.204405       0.164386
      16.350000       0.363087       0.204198       0.164804
      16.360000       0.365525       0.204082       0.165328
      16.370000       0.368021       0.204074       0.165914
      16.380000       0.370307       0.204154       0.166504
      16.390000       0.372095       0.204276       0.167029
      16.400000       0.373115       0.204384       0.167416
      16.410000       0.373162       0.204426       0.167604
      16.420000       0.372134       0.204365       0.167550
      16.430000       0.370040       0.204179       0.167239
      16.440000       0.366998       0.203869       0.166680
      16.450000       0.363199       0.203449       0.165903
      16.460000       0.358865       0.202949       0.164949
      16.470000       0.354218       0.202405       0.163863
      16.480000       0.349452       0.201850       0.162695
      16.490000       0.344735       0.201316       0.161493
      16.500000       0.340204       0.200827       0.160306
      16.510000       0.335971       0.200409       0.159185
      16.520000       0.332117       0.200088       0.158182
      16.530000       0.328695       0.199885       0.157342
      16.540000       0.325739       0.199806       0.156699
      16.550000       0.323271       0.199833       0.156270
      16.560000       0.321324       0.199923       0.156052
      16.570000       0.319940       0.200015       0.156027
      16.580000       0.319175       0.200046       0.156168
      16.590000       0.319071       0.199971       0.156442
      16.600000       0.319637       0.199770       0.156815
      16.610000       0.320821       0.199443       0.157249
      16.620000       0.322500       0.199000       0.157701
      16.630000       0.324493       0.198445       0.158121
      16.640000       0.326599       0.197777       0.158456
      16.650000       0.328639       0.196989       0.158658
      16.660000       0.330498       0.196083       0.158690
      16.670000       0.332143       0.195073       0.158533
      16.680000       0.333606       0.193985       0.158191
      16.690000       0.334949       0.192850       0.157685
      16.700000       0.336223       0.191693       0.157048
      16.710000       0.337442       0.190532       0.156318
      16.720000       0.338567       0.189372       0.155538
      16.730000       0.339521       0.188209       0.154746
      16.740000       0.340196       0.187032       0.153985
      16.750000       0.340475       0.185821       0.153296
      16.760000       0.340246       0.184551       0.152718
      16.770000       0.339419       0.183191       0.152293
      16.780000       0.337928       0.181710       0.152062
      16.790000       0.335737       0.180092       0.152067
      16.800000       0.332829       0.178344       0.152341
      16.810000       0.329199       0.176498       0.152909
      16.820000       0.324853       0.174618       0.153769
      16.830000       0.319833       0.172788       0.154900
      16.840000       0.314235       0.171101       0.156257
      16.850000       0.308230       0.169648       0.157783
      16.860000       0.302054       0.168500       0.159412
      16.870000       0.295983       0.167705       0.161079
      16.880000       0.290289       0.167282       0.162720
      16.890000       0.285199       0.167214       0.164269
      16.900000       0.280875       0.167461       0.165663
      16.910000       0.277406       0.167960       0.166833
      16.920000       0.274816       0.168633       0.167711
      16.930000       0.273073       0.169396       0.168232
      16.940000       0.272099       0.170160       0.168339
      16.950000       0.271772       0.170837       0.167999
      16.960000       0.271930       0.171350       0.167204
      16.970000       0.272389       0.171637       0.165981
      16.980000       0.272957       0.171665       0.164387
      16.990000       0.273465       0.171430       0.162505
      17.000000       0.273785       0.170955       0.160426
      17.010000       0.273842       0.170281       0.158240
      17.020000       0.273608       0.169465       0.156026
      17.030000       0.273095       0.168565       0.153842
      17.040000       0.272342       0.167638       0.151730
      17.050000       0.271412       0.166734       0.149716
      17.060000       0.270389       0.165890       0.147819
      17.070000       0.269380       0.165132       0.146060
      17.080000       0.268499       0.164474       0.144463
      17.090000       0.267860       0.163925       0.143060
      17.100000       0.267557       0.163493       0.141882
      17.110000       0.267665       0.163190       0.140957
      17.120000       0.268230       0.163033       0.140305
      17.130000       0.269271       0.163040       0.139935
      17.140000       0.270764       0.163225       0.139847
      17.150000       0.272636       0.163598       0.140029
      17.160000       0.274760       0.164154       0.140462
      17.170000       0.276957       0.164875       0.141120
      17.180000       0.279018       0.165727       0.141972
      17.190000       0.280720       0.166660       0.142977
      17.200000       0.281857       0.167610       0.144088
      17.210000       0.282258       0.168502       0.145247
      17.220000       0.281815       0.169259       0.146386
      17.230000       0.280503       0.169809       0.147431
      17.240000       0.278391       0.170097       0.148306
      17.250000       0.275635       0.170090       0.148942
      17.260000       0.272460       0.169785       0.149279
      17.270000       0.269125       0.169211       0.149277
      17.280000       0.265880       0.168427       0.148919
      17.290000       0.262939       0.167508       0.148214
      17.300000       0.260457       0.166533       0.147201
      17.310000       0.258522       0.165565       0.145944
      17.320000       0.257150       0.164643       0.144528
      17.330000       0.256293       0.163775       0.143049
      17.340000       0.255843       0.162946       0.141596
      17.350000       0.255653       0.162126       0.140243
      17.360000       0.255562       0.161281       0.139037
      17.370000       0.255431       0.160391       0.138001
      17.380000       0.255173       0.159452       0.137129
      17.390000       0.254770       0.158483       0.136397
      17.400000       0.254279       0.157522       0.135767
      17.410000       0.253804       0.156613       0.135196
      17.420000       0.253481       0.155799       0.134646
      17.430000       0.253451       0.155112       0.134093
      17.440000       0.253849       0.154562       0.133528
      17.450000       0.254787       0.154142       0.132958
      17.460000       0.256347       0.153827       0.132401
      17.470000       0.258574       0.153582       0.131875
      17.480000       0.261469       0.153371       0.131396
      17.490000       0.264985       0.153170       0.130974
      17.500000       0.269026       0.152970       0.130614
      17.510000       0.273451       0.152778       0.130321
      17.520000       0.278080       0.152603       0.130103
      17.530000       0.282704       0.152450       0.129969
      17.540000       0.287101       0.152307       0.129929
      17.550000       0.291057       0.152146       0.129993
      17.560000       0.294370       0.151923       0.130164
      17.570000       0.296863       0.151594       0.130441
      17.580000       0.298393       0.151124       0.130813
      17.590000       0.298859       0.150489       0.131266
      17.600000       0.298224       0.149685       0.131775
      17.610000       0.296528       0.148724       0.132305
      17.620000       0.293904       0.147633       0.132810
      17.630000       0.290563       0.146450       0.133237
      17.640000       0.286766       0.145228       0.133533
      17.650000       0.282778       0.144027       0.133658
      17.660000       0.278818       0.142914       0.133600
      17.670000       0.275026       0.141951       0.133377
      17.680000       0.271452       0.141185       0.133034
      17.690000       0.268062       0.140639       0.132636
      17.700000       0.264777       0.140316       0.132245
      17.710000       0.261514       0.140199       0.131911
      17.720000       0.258225       0.140259       0.131656
      17.730000       0.254923       0.140456       0.131474
      17.740000       0.251673       0.140749       0.131330
      17.750000       0.248569       0.141086       0.131172
      17.760000       0.245707       0.141416       0.130942
      17.770000       0.243156       0.141687       0.130591
      17.780000       0.240946       0.141860       0.130090
      17.790000       0.239061       0.141909       0.129441
      17.800000       0.237446       0.141828       0.128670
      17.810000       0.236014       0.141624       0.127825
      17.820000       0.234657       0.141313       0.126962
      17.830000       0.233260       0.140907       0.126132
      17.840000       0.231707       0.140412       0.125379
      17.850000       0.229894       0.139831       0.124731
      17.860000       0.227738       0.139165       0.124204
      17.870000       0.225188       0.138423       0.123805
      17.880000       0.222237       0.137621       0.123535
      17.890000       0.218926       0.136781       0.123386
      17.900000       0.215340       0.135926       0.123349
      17.910000       0.211595       0.135070       0.123405
      17.920000       0.207826       0.134218       0.123535
      17.930000       0.204157       0.133369       0.123716
      17.940000       0.200688       0.132522       0.123925
      17.950000       0.197476       0.131678       0.124144
      17.960000       0.194539       0.130850       0.124355
      17.970000       0.191856       0.130051       0.124546
      17.980000       0.189385       0.129298       0.124700
      17.990000       0.187074       0.128603       0.124800
      18.000000       0.184878       0.127970       0.124824
      18.010000       0.182764       0.127400       0.124751
      18.020000       0.180713       0.126889       0.124561
      18.030000       0.178720       0.126440       0.124242
      18.040000       0.176787       0.126061       0.123791
      18.050000       0.174928       0.125772       0.123214
      18.060000       0.173159       0.125599       0.122522
      18.070000       0.171498       0.125569       0.121727
      18.080000       0.169964       0.125707       0.120842
      18.090000       0.168564       0.126028       0.119877
      18.100000       0.167300       0.126534       0.118847
      18.110000       0.166163       0.127217       0.117773
      18.120000       0.165145       0.128062       0.116686
      18.130000       0.164248       0.129045       0.115627
      18.140000       0.163487       0.130141       0.114640
      18.150000       0.162888       0.131326       0.113769
      18.160000       0.162486       0.132571       0.113053
      18.170000       0.162314       0.133851       0.112522
      18.180000       0.162401       0.135146       0.112193
      18.190000       0.162771       0.136442       0.112072
      18.200000       0.163439       0.137735       0.112155
      18.210000       0.164416       0.139021       0.112434
      18.220000       0.165698       0.140291       0.112898
      18.230000       0.167273       0.141519       0.113541
      18.240000       0.169109       0.142660       0.114356
      18.250000       0.171169       0.143651       0.115340
      18.260000       0.173410       0.144428       0.116495
      18.270000       0.175794       0.144938       0.117818
      18.280000       0.178293       0.145156       0.119309
      18.290000       0.180892       0.145087       0.120965
      18.300000       0.183580       0.144761       0.122784
      18.310000       0.186347       0.144218       0.124765
      18.320000       0.189176       0.143503       0.126906
      18.330000       0.192042       0.142652       0.129209
      18.340000       0.194905       0.141692       0.131675
      18.350000       0.197708       0.140639       0.134302
      18.360000       0.200379       0.139500       0.137087
      18.370000       0.202827       0.138279       0.140018
      18.380000       0.204947       0.136975       0.143080
      18.390000       0.206622       0.135590       0.146257
      18.400000       0.207737       0.134127       0.149525
      18.410000       0.208197       0.132589       0.152858
      18.420000       0.207944       0.130985       0.156219
      18.430000       0.206967       0.129325       0.159557
      18.440000       0.205300       0.127627       0.162814
      18.450000       0.203016       0.125916       0.165929
      18.460000       0.200215       0.124223       0.168857
      18.470000       0.197017       0.122585       0.171577
      18.480000       0.193552       0.121035       0.174099
      18.490000       0.189952       0.119602       0.176464
      18.500000       0.186340       0.118307       0.178730
      18.510000       0.182819       0.117157       0.180970
      18.520000       0.179468       0.116153       0.183251
      18.530000       0.176345       0.115286       0.185635
      18.540000       0.173502       0.114543       0.188170
      18.550000       0.170989       0.113915       0.190894
      18.560000       0.168852       0.113391       0.193840
      18.570000       0.167131       0.112968       0.197043
      18.580000       0.165842       0.112646       0.200538
      18.590000       0.164967       0.112425       0.204360
      18.600000       0.164456       0.112309       0.208537
      18.610000       0.164222       0.112298       0.213084
      18.620000       0.164158       0.112388       0.218001
      18.630000       0.164155       0.112571       0.223275
      18.640000       0.164123       0.112828       0.228886
      18.650000       0.164004       0.113135       0.234814
      18.660000       0.163779       0.113458       0.241049
      18.670000       0.163458       0.113763       0.247595
      18.680000       0.163066       0.114010       0.254471
      18.690000       0.162629       0.114169       0.261698
      18.700000       0.162173       0.114215       0.269281
      18.710000       0.161718       0.114141       0.277191
      18.720000       0.161288       0.113956       0.285354
      18.730000       0.160913       0.113679       0.293655
      18.740000       0.160623       0.113342       0.301946
      18.750000       0.160439       0.112977       0.310068
      18.760000       0.160361       0.112616       0.317865
      18.770000       0.160368       0.112284       0.325193
      18.780000       0.160422       0.112000       0.331928
      18.790000       0.160482       0.111773       0.337971
      18.800000       0.160522       0.111607       0.343266
      18.810000       0.160533       0.111497       0.347808
      18.820000       0.160517       0.111435       0.351659
      18.830000       0.160485       0.111404       0.354947
      18.840000       0.160438       0.111387       0.357849
      18.850000       0.160374       0.111360       0.360561
      18.860000       0.160275       0.111301       0.363262
      18.870000       0.160121       0.111190       0.366073
      18.880000       0.159882       0.111011       0.369040
      18.890000       0.159530       0.110760       0.372133
      18.900000       0.159043       0.110439       0.375260
      18.910000       0.158413       0.110056       0.378290
      18.920000       0.157648       0.109627       0.381071
      18.930000       0.156772       0.109166       0.383433
      18.940000       0.155809       0.108691       0.385193
      18.950000       0.154777       0.108214       0.386163
      18.960000       0.153678       0.107747       0.386177
      18.970000       0.152501       0.107303       0.385121
      18.980000       0.151228       0.106891       0.382965
      18.990000       0.149835       0.106520       0.379781
      19.000000       0.148306       0.106191       0.375745
      19.010000       0.146632       0.105897       0.371103
      19.020000       0.144816       0.105622       0.366130
      19.030000       0.142872       0.105340       0.361079
      19.040000       0.140826       0.105023       0.356143
      19.050000       0.138712       0.104644       0.351430
      19.060000       0.136568       0.104184       0.346968
      19.070000       0.134436       0.103633       0.342720
      19.080000       0.132353       0.102993       0.338614
      19.090000       0.130353       0.102272       0.334582
      19.100000       0.128459       0.101485       0.330584
      19.110000       0.126689       0.100647       0.326631
      19.120000       0.125054       0.099780       0.322781
      19.130000       0.123568       0.098907       0.319130
      19.140000       0.122244       0.098059       0.315789
      19.150000       0.121099       0.097270       0.312857
      19.160000       0.120146       0.096573       0.310404
      19.170000       0.119389       0.096000       0.308461
      19.180000       0.118819       0.095573       0.307016
      19.190000       0.118414       0.095305       0.306020
      19.200000       0.118143       0.095194       0.305387
      19.210000       0.117966       0.095225       0.305005
      19.220000       0.117850       0.095372       0.304730
      19.230000       0.117764       0.095598       0.304399
      19.240000       0.117689       0.095867       0.303830
      19.250000       0.117614       0.096145       0.302842
      19.260000       0.117541       0.096407       0.301276
      19.270000       0.117482       0.096636       0.299017
      19.280000       0.117459       0.096825       0.296019
      19.290000       0.117505       0.096972       0.292309
      19.300000       0.117654       0.097074       0.287988
      19.310000       0.117943       0.097126       0.283218
      19.320000       0.118408       0.097121       0.278193
      19.330000       0.119082       0.097052       0.273123
      19.340000       0.119990       0.096914       0.268207
      19.350000       0.121148       0.096709       0.263621
      19.360000       0.122560       0.096446       0.259502
      19.370000       0.124215       0.096143       0.255942
      19.380000       0.126088       0.095825       0.252985
      19.390000       0.128135       0.095520       0.250630
      19.400000       0.130303       0.095255       0.248837
      19.410000       0.132535       0.095052       0.247539
      19.420000       0.134776       0.094924       0.246655
      19.430000       0.136986       0.094876       0.246100
      19.440000       0.139146       0.094902       0.245788
      19.450000       0.141261       0.094991       0.245640
      19.460000       0.143360       0.095127       0.245586
      19.470000       0.145487       0.095296       0.245566
      19.480000       0.147692       0.095488       0.245529
      19.490000       0.150018       0.095693       0.245442
      19.500000       0.152485       0.095911       0.245275
      19.510000       0.155093       0.096140       0.245008
      19.520000       0.157822       0.096381       0.244623
      19.530000       0.160634       0.096633       0.244106
      19.540000       0.163480       0.096893       0.243438
      19.550000       0.166294       0.097160       0.242599
      19.560000       0.168996       0.097435       0.241558
      19.570000       0.171486       0.097730       0.240285
      19.580000       0.173649       0.098059       0.238744
      19.590000       0.175359       0.098446       0.236908
      19.600000       0.176487       0.098920       0.234766
      19.610000       0.176915       0.099506       0.232330
      19.620000       0.176550       0.100225       0.229642
      19.630000       0.175341       0.101082       0.226771
      19.640000       0.173290       0.102072       0.223817
      19.650000       0.170464       0.103168       0.220896
      19.660000       0.166983       0.104330       0.218137
      19.670000       0.163016       0.105508       0.215665
      19.680000       0.158752       0.106643       0.213592
      19.690000       0.154380       0.107678       0.212004
      19.700000       0.150065       0.108559       0.210959
      19.710000       0.145934       0.109242       0.210475
      19.720000       0.142074       0.109692       0.210532
      19.730000       0.138530       0.109881       0.211074
      19.740000       0.135317       0.109796       0.212017
      19.750000       0.132417       0.109432       0.213268
      19.760000       0.129798       0.108797       0.214730
      19.770000       0.127412       0.107910       0.216317
      19.780000       0.125212       0.106799       0.217955
      19.790000       0.123154       0.105500       0.219583
      19.800000       0.121206       0.104056       0.221160
      19.810000       0.119342       0.102509       0.222661
      19.820000       0.117549       0.100907       0.224085
      19.830000       0.115815       0.099295       0.225445
      19.840000       0.114139       0.097719       0.226762
      19.850000       0.112521       0.096218       0.228053
      19.860000       0.110969       0.094823       0.229323
      19.870000       0.109497       0.093559       0.230572
      19.880000       0.108119       0.092435       0.231792
      19.890000       0.106854       0.091457       0.232981
      19.900000       0.105714       0.090617       0.234144
      19.910000       0.104709       0.089907       0.235293
      19.920000       0.103838       0.089315       0.236434
      19.930000       0.103101       0.088828       0.237561
      19.940000       0.102493       0.088438       0.238638
      19.950000       0.102014       0.088136       0.239596
      19.960000       0.101668       0.087915       0.240333
      19.970000       0.101462       0.087766       0.240732
      19.980000       0.101406       0.087673       0.240684
      19.990000       0.101505       0.087616       0.240120
      20.000000       0.101757       0.087570       0.239029
