  # energy grid [eV]     epsr_x  epsr_y  epsr_z
       0.000000            NaN            NaN            NaN
       0.010000  -87752.129511  -67369.077298       1.914904
       0.020000  -21881.190396  -16838.002525       1.914915
       0.030000   -9682.700110   -7480.395623       1.914933
       0.040000   -5413.030861   -4205.232659       1.914959
       0.050000   -3436.568958   -2689.299486       1.914992
       0.060000   -2362.710169   -1865.828976       1.915032
       0.070000   -1714.977010   -1369.301564       1.915079
       0.080000   -1294.342517   -1047.035488       1.915134
       0.090000   -1005.730008    -826.090222       1.915196
       0.100000    -799.069173    -668.048654       1.915266
       0.110000    -645.960436    -551.115034       1.915344
       0.120000    -529.328042    -462.176683       1.915429
       0.130000    -438.411978    -392.960980       1.915522
       0.140000    -366.168354    -338.039677       1.915623
       0.150000    -307.840731    -293.731201       1.915732
       0.160000    -260.136773    -257.467182       1.915849
       0.170000    -220.734195    -227.411665       1.915974
       0.180000    -187.973301    -202.224055       1.916108
       0.190000    -160.658394    -180.906982       1.916250
       0.200000    -137.923475    -162.706004       1.916401
       0.210000    -119.135478    -147.041913       1.916561
       0.220000    -103.818822    -133.464073       1.916729
       0.230000     -91.592488    -121.617628       1.916908
       0.240000     -82.116963    -111.220075       1.917095
       0.250000     -75.053149    -102.044253       1.917293
       0.260000     -70.037520     -93.905831       1.917500
       0.270000     -66.676794     -86.653966       1.917717
       0.280000     -64.562066     -80.164258       1.917945
       0.290000     -63.298424     -74.333380       1.918184
       0.300000     -62.541689     -69.074934       1.918434
       0.310000     -62.029992     -64.316226       1.918696
       0.320000     -61.597591     -59.995738       1.918969
       0.330000     -61.164615     -56.061133       1.919254
       0.340000     -60.707069     -52.467649       1.919551
       0.350000     -60.220304     -49.176830       1.919861
       0.360000     -59.691309     -46.155482       1.920184
       0.370000     -59.089812     -43.374836       1.920519
       0.380000     -58.378119     -40.809854       1.920868
       0.390000     -57.530284     -38.438670       1.921231
       0.400000     -56.547864     -36.242112       1.921606
       0.410000     -55.463531     -34.203316       1.921993
       0.420000     -54.331390     -32.307404       1.922393
       0.430000     -53.209101     -30.541202       1.922804
       0.440000     -52.139451     -28.893018       1.923223
       0.450000     -51.138581     -27.352441       1.923649
       0.460000     -50.195321     -25.910181       1.924078
       0.470000     -49.281555     -24.557921       1.924505
       0.480000     -48.368575     -23.288202       1.924923
       0.490000     -47.441693     -22.094316       1.925325
       0.500000     -46.506798     -20.970218       1.925698
       0.510000     -45.587083     -19.910449       1.926029
       0.520000     -44.712613     -18.910067       1.926302
       0.530000     -43.907963     -17.964591       1.926499
       0.540000     -43.183245     -17.069949       1.926601
       0.550000     -42.532176     -16.222434       1.926594
       0.560000     -41.937665     -15.418666       1.926468
       0.570000     -41.381738     -14.655555       1.926226
       0.580000     -40.854497     -13.930275       1.925879
       0.590000     -40.357614     -13.240236       1.925454
       0.600000     -39.901221     -12.583057       1.924982
       0.610000     -39.496579     -11.956552       1.924491
       0.620000     -39.148830     -11.358703       1.924003
       0.630000     -38.853562     -10.787654       1.923524
       0.640000     -38.598403     -10.241685       1.923055
       0.650000     -38.367768      -9.719209       1.922590
       0.660000     -38.147111      -9.218754       1.922131
       0.670000     -37.923889      -8.738954       1.921690
       0.680000     -37.685245      -8.278542       1.921293
       0.690000     -37.414999      -7.836337       1.920973
       0.700000     -37.092961      -7.411241       1.920765
       0.710000     -36.697777      -7.002232       1.920694
       0.720000     -36.211901      -6.608356       1.920774
       0.730000     -35.625973      -6.228721       1.921003
       0.740000     -34.940577      -5.862497       1.921372
       0.750000     -34.165079      -5.508910       1.921861
       0.760000     -33.314687      -5.167237       1.922447
       0.770000     -32.407164      -4.836810       1.923110
       0.780000     -31.460164      -4.517008       1.923826
       0.790000     -30.489548      -4.207265       1.924575
       0.800000     -29.508590      -3.907064       1.925337
       0.810000     -28.527816      -3.615948       1.926091
       0.820000     -27.555200      -3.333521       1.926820
       0.830000     -26.596538      -3.059458       1.927502
       0.840000     -25.655853      -2.793516       1.928119
       0.850000     -24.735784      -2.535548       1.928650
       0.860000     -23.837926      -2.285519       1.929076
       0.870000     -22.963104      -2.043517       1.929373
       0.880000     -22.111606      -1.809771       1.929514
       0.890000     -21.283361      -1.584644       1.929470
       0.900000     -20.478098      -1.368611       1.929205
       0.910000     -19.695470      -1.162198       1.928684
       0.920000     -18.935173      -0.965872       1.927881
       0.930000     -18.197056      -0.779885       1.926793
       0.940000     -17.481240      -0.604109       1.925448
       0.950000     -16.788235      -0.437920       1.923913
       0.960000     -16.119069      -0.280207       1.922288
       0.970000     -15.475424      -0.129578       1.920693
       0.980000     -14.859751       0.015293       1.919241
       0.990000     -14.275346       0.155298       1.918025
       1.000000     -13.726321       0.290668       1.917099
       1.010000     -13.217417       0.420995       1.916484
       1.020000     -12.753572       0.545502       1.916172
       1.030000     -12.339212       0.663485       1.916136
       1.040000     -11.977355       0.774775       1.916341
       1.050000     -11.668722       0.880075       1.916746
       1.060000     -11.411210       0.981016       1.917316
       1.070000     -11.200018       1.079906       1.918018
       1.080000     -11.028498       1.179231       1.918822
       1.090000     -10.889461       1.281114       1.919706
       1.100000     -10.776483       1.386916       1.920652
       1.110000     -10.684800       1.497093       1.921644
       1.120000     -10.611631       1.611254       1.922667
       1.130000     -10.556052       1.728373       1.923711
       1.140000     -10.518661       1.847025       1.924764
       1.150000     -10.501240       1.965634       1.925818
       1.160000     -10.506431       2.082694       1.926862
       1.170000     -10.537428       2.196976       1.927888
       1.180000     -10.597672       2.307702       1.928887
       1.190000     -10.690619       2.414626       1.929850
       1.200000     -10.819496       2.517972       1.930767
       1.210000     -10.986920       2.618205       1.931632
       1.220000     -11.194319       2.715717       1.932439
       1.230000     -11.441166       2.810547       1.933189
       1.240000     -11.724105       2.902305       1.933892
       1.250000     -12.036068       2.990350       1.934567
       1.260000     -12.365652       3.074191       1.935238
       1.270000     -12.697161       3.153960       1.935935
       1.280000     -13.011695       3.230763       1.936682
       1.290000     -13.289395       3.306736       1.937497
       1.300000     -13.512411       3.384730       1.938389
       1.310000     -13.667743       3.467729       1.939354
       1.320000     -13.748975       3.558240       1.940384
       1.330000     -13.756431       3.657898       1.941464
       1.340000     -13.695924       3.767397       1.942575
       1.350000     -13.576783       3.886691       1.943699
       1.360000     -13.409857       4.015288       1.944816
       1.370000     -13.205954       4.152497       1.945909
       1.380000     -12.974873       4.297550       1.946957
       1.390000     -12.724949       4.449615       1.947941
       1.400000     -12.462949       4.607766       1.948839
       1.410000     -12.194181       4.770938       1.949622
       1.420000     -11.922702       4.937916       1.950250
       1.430000     -11.651537       5.107333       1.950679
       1.440000     -11.382895       5.277672       1.950855
       1.450000     -11.118353       5.447291       1.950727
       1.460000     -10.859007       5.614463       1.950255
       1.470000     -10.605591       5.777465       1.949425
       1.480000     -10.358571       5.934711       1.948259
       1.490000     -10.118222       6.084912       1.946818
       1.500000      -9.884684       6.227211       1.945199
       1.510000      -9.658003       6.361186       1.943511
       1.520000      -9.438165       6.486665       1.941858
       1.530000      -9.225111       6.603342       1.940319
       1.540000      -9.018739       6.710298       1.938947
       1.550000      -8.818904       6.805576       1.937773
       1.560000      -8.625398       6.885997       1.936818
       1.570000      -8.437947       6.947269       1.936100
       1.580000      -8.256201       6.984365       1.935635
       1.590000      -8.079753       6.992009       1.935426
       1.600000      -7.908168       6.965139       1.935465
       1.610000      -7.741032       6.899250       1.935724
       1.620000      -7.577989       6.790689       1.936162
       1.630000      -7.418765       6.637044       1.936729
       1.640000      -7.263170       6.437749       1.937380
       1.650000      -7.111079       6.194891       1.938076
       1.660000      -6.962394       5.914069       1.938795
       1.670000      -6.817020       5.604980       1.939532
       1.680000      -6.674836       5.281398       1.940299
       1.690000      -6.535689       4.960220       1.941119
       1.700000      -6.399400       4.659499       1.942021
       1.710000      -6.265788       4.395701       1.943031
       1.720000      -6.134694       4.180872       1.944166
       1.730000      -6.005997       4.020598       1.945433
       1.740000      -5.879631       3.913351       1.946826
       1.750000      -5.755575       3.851257       1.948329
       1.760000      -5.633845       3.821821       1.949925
       1.770000      -5.514490       3.809941       1.951590
       1.780000      -5.397569       3.799696       1.953301
       1.790000      -5.283153       3.775667       1.955038
       1.800000      -5.171311       3.723755       1.956777
       1.810000      -5.062109       3.631634       1.958501
       1.820000      -4.955608       3.489012       1.960190
       1.830000      -4.851861       3.287903       1.961830
       1.840000      -4.750906       3.023008       1.963403
       1.850000      -4.652756       2.692214       1.964895
       1.860000      -4.557392       2.297117       1.966286
       1.870000      -4.464774       1.843479       1.967550
       1.880000      -4.374863       1.341580       1.968653
       1.890000      -4.287646       0.806335       1.969557
       1.900000      -4.203148       0.256964       1.970222
       1.910000      -4.121417      -0.284132       1.970614
       1.920000      -4.042498      -0.793496       1.970718
       1.930000      -3.966403      -1.249550       1.970542
       1.940000      -3.893131      -1.635614       1.970126
       1.950000      -3.822708      -1.942014       1.969530
       1.960000      -3.755236      -2.166600       1.968834
       1.970000      -3.690916      -2.313675       1.968127
       1.980000      -3.630022      -2.391930       1.967496
       1.990000      -3.572849      -2.412167       1.967019
       2.000000      -3.519663      -2.385411       1.966757
       2.010000      -3.470693      -2.321716       1.966744
       2.020000      -3.426144      -2.229686       1.966981
       2.030000      -3.386228      -2.116547       1.967434
       2.040000      -3.351186      -1.988510       1.968042
       2.050000      -3.321303      -1.851118       1.968722
       2.060000      -3.296911      -1.709421       1.969384
       2.070000      -3.278374      -1.567926       1.969941
       2.080000      -3.266040      -1.430396       1.970321
       2.090000      -3.260145      -1.299612       1.970477
       2.100000      -3.260694      -1.177177       1.970398
       2.110000      -3.267320      -1.063401       1.970108
       2.120000      -3.279156      -0.957300       1.969656
       2.130000      -3.294739      -0.856695       1.969106
       2.140000      -3.312001      -0.758501       1.968520
       2.150000      -3.328392      -0.659213       1.967946
       2.160000      -3.341167      -0.555565       1.967420
       2.170000      -3.347773      -0.445184       1.966970
       2.180000      -3.346247      -0.327034       1.966626
       2.190000      -3.335486      -0.201551       1.966422
       2.200000      -3.315315      -0.070463       1.966390
       2.210000      -3.286347       0.063577       1.966556
       2.220000      -3.249732       0.197394       1.966924
       2.230000      -3.206873       0.327672       1.967477
       2.240000      -3.159199       0.451248       1.968176
       2.250000      -3.108008       0.565320       1.968973
       2.260000      -3.054399       0.667566       1.969820
       2.270000      -2.999256       0.756164       1.970684
       2.280000      -2.943281       0.829736       1.971559
       2.290000      -2.887029       0.887219       1.972460
       2.300000      -2.830950       0.927730       1.973425
       2.310000      -2.775410       0.950442       1.974495
       2.320000      -2.720706       0.954543       1.975702
       2.330000      -2.667067       0.939271       1.977061
       2.340000      -2.614645       0.904038       1.978563
       2.350000      -2.563512       0.848579       1.980186
       2.360000      -2.513655       0.773063       1.981894
       2.370000      -2.464979       0.678064       1.983648
       2.380000      -2.417327       0.564415       1.985408
       2.390000      -2.370510       0.433049       1.987131
       2.400000      -2.324341       0.284979       1.988776
       2.410000      -2.278676       0.121521       1.990304
       2.420000      -2.233435      -0.055253       1.991678
       2.430000      -2.188602      -0.241957       1.992869
       2.440000      -2.144218      -0.433466       1.993865
       2.450000      -2.100352      -0.622884       1.994667
       2.460000      -2.057080      -0.802077       1.995300
       2.470000      -2.014469      -0.962739       1.995802
       2.480000      -1.972567      -1.097706       1.996218
       2.490000      -1.931397      -1.202070       1.996591
       2.500000      -1.890960      -1.273759       1.996954
       2.510000      -1.851245      -1.313469       1.997317
       2.520000      -1.812231      -1.324114       1.997673
       2.530000      -1.773893      -1.310024       1.998003
       2.540000      -1.736198      -1.276121       1.998288
       2.550000      -1.699104      -1.227190       1.998517
       2.560000      -1.662551      -1.167355       1.998697
       2.570000      -1.626465      -1.099759       1.998854
       2.580000      -1.590757      -1.026490       1.999028
       2.590000      -1.555343      -0.948717       1.999275
       2.600000      -1.520154      -0.866971       1.999651
       2.610000      -1.485148      -0.781478       2.000212
       2.620000      -1.450314      -0.692456       2.000999
       2.630000      -1.415670      -0.600291       2.002029
       2.640000      -1.381259      -0.505581       2.003291
       2.650000      -1.347145      -0.409094       2.004746
       2.660000      -1.313410      -0.311691       2.006333
       2.670000      -1.280147      -0.214265       2.007976
       2.680000      -1.247465      -0.117711       2.009593
       2.690000      -1.215483      -0.022922       2.011103
       2.700000      -1.184325       0.069219       2.012433
       2.710000      -1.154115       0.157867       2.013526
       2.720000      -1.124956       0.242283       2.014346
       2.730000      -1.096907       0.321947       2.014885
       2.740000      -1.069962       0.396679       2.015159
       2.750000      -1.044019       0.466744       2.015213
       2.760000      -1.018885       0.532874       2.015111
       2.770000      -0.994288       0.596152       2.014927
       2.780000      -0.969931       0.657777       2.014740
       2.790000      -0.945541       0.718782       2.014617
       2.800000      -0.920921       0.779814       2.014608
       2.810000      -0.895976       0.841048       2.014742
       2.820000      -0.870710       0.902267       2.015025
       2.830000      -0.845213       0.963030       2.015447
       2.840000      -0.819630       1.022864       2.015987
       2.850000      -0.794136       1.081407       2.016612
       2.860000      -0.768908       1.138455       2.017279
       2.870000      -0.744107       1.193909       2.017942
       2.880000      -0.719865       1.247675       2.018560
       2.890000      -0.696266       1.299565       2.019109
       2.900000      -0.673342       1.349278       2.019590
       2.910000      -0.651067       1.396475       2.020031
       2.920000      -0.629369       1.440924       2.020478
       2.930000      -0.608153       1.482630       2.020983
       2.940000      -0.587346       1.521883       2.021579
       2.950000      -0.566928       1.559177       2.022276
       2.960000      -0.546953       1.595029       2.023052
       2.970000      -0.527546       1.629764       2.023872
       2.980000      -0.508874       1.663366       2.024692
       2.990000      -0.491113       1.695440       2.025484
       3.000000      -0.474415       1.725288       2.026242
       3.010000      -0.458892       1.752055       2.026981
       3.020000      -0.444611       1.774842       2.027739
       3.030000      -0.431606       1.792799       2.028562
       3.040000      -0.419874       1.805171       2.029494
       3.050000      -0.409356       1.811360       2.030575
       3.060000      -0.399913       1.810969       2.031836
       3.070000      -0.391300       1.803838       2.033302
       3.080000      -0.383167       1.790040       2.034992
       3.090000      -0.375093       1.769872       2.036910
       3.100000      -0.366638       1.743878       2.039040
       3.110000      -0.357409       1.712916       2.041335
       3.120000      -0.347113       1.678260       2.043724
       3.130000      -0.335573       1.641699       2.046113
       3.140000      -0.322730       1.605560       2.048404
       3.150000      -0.308613       1.572571       2.050509
       3.160000      -0.293306       1.545542       2.052362
       3.170000      -0.276933       1.526906       2.053927
       3.180000      -0.259636       1.518265       2.055198
       3.190000      -0.241570       1.520099       2.056196
       3.200000      -0.222891       1.531710       2.056961
       3.210000      -0.203747       1.551430       2.057544
       3.220000      -0.184267       1.576985       2.057994
       3.230000      -0.164552       1.605928       2.058353
       3.240000      -0.144680       1.636039       2.058642
       3.250000      -0.124714       1.665633       2.058852
       3.260000      -0.104712       1.693742       2.058953
       3.270000      -0.084735       1.720147       2.058896
       3.280000      -0.064853       1.745251       2.058637
       3.290000      -0.045140       1.769804       2.058156
       3.300000      -0.025664       1.794517       2.057468
       3.310000      -0.006486       1.819698       2.056622
       3.320000       0.012353       1.845032       2.055685
       3.330000       0.030832       1.869593       2.054722
       3.340000       0.048945       1.892107       2.053786
       3.350000       0.066699       1.911385       2.052917
       3.360000       0.084101       1.926801       2.052150
       3.370000       0.101157       1.938644       2.051525
       3.380000       0.117869       1.948180       2.051096
       3.390000       0.134232       1.957351       2.050931
       3.400000       0.150233       1.968176       2.051098
       3.410000       0.165847       1.982086       2.051656
       3.420000       0.181029       1.999465       2.052637
       3.430000       0.195715       2.019540       2.054025
       3.440000       0.209829       2.040632       2.055759
       3.450000       0.223307       2.060642       2.057736
       3.460000       0.236122       2.077600       2.059822
       3.470000       0.248317       2.090152       2.061874
       3.480000       0.260010       2.097833       2.063756
       3.490000       0.271383       2.101029       2.065353
       3.500000       0.282653       2.100602       2.066583
       3.510000       0.294035       2.097282       2.067396
       3.520000       0.305720       2.091076       2.067776
       3.530000       0.317855       2.080931       2.067739
       3.540000       0.330535       2.064825       2.067327
       3.550000       0.343798       2.040262       2.066613
       3.560000       0.357626       2.005041       2.065698
       3.570000       0.371943       1.958057       2.064709
       3.580000       0.386635       1.899863       2.063781
       3.590000       0.401567       1.832764       2.063051
       3.600000       0.416596       1.760406       2.062638
       3.610000       0.431590       1.687061       2.062636
       3.620000       0.446428       1.616932       2.063113
       3.630000       0.461001       1.553725       2.064105
       3.640000       0.475206       1.500463       2.065616
       3.650000       0.488935       1.459419       2.067610
       3.660000       0.502073       1.432017       2.070016
       3.670000       0.514494       1.418756       2.072729
       3.680000       0.526088       1.419215       2.075626
       3.690000       0.536783       1.432204       2.078581
       3.700000       0.546585       1.455990       2.081481
       3.710000       0.555615       1.488509       2.084236
       3.720000       0.564108       1.527513       2.086789
       3.730000       0.572397       1.570625       2.089104
       3.740000       0.580847       1.615337       2.091152
       3.750000       0.589790       1.659005       2.092898
       3.760000       0.599469       1.698874       2.094293
       3.770000       0.610012       1.732163       2.095282
       3.780000       0.621435       1.756239       2.095819
       3.790000       0.633667       1.768883       2.095890
       3.800000       0.646580       1.768675       2.095524
       3.810000       0.660017       1.755392       2.094797
       3.820000       0.673816       1.730312       2.093822
       3.830000       0.687831       1.696227       2.092736
       3.840000       0.701947       1.657055       2.091685
       3.850000       0.716088       1.617114       2.090808
       3.860000       0.730218       1.580286       2.090213
       3.870000       0.744335       1.549398       2.089965
       3.880000       0.758456       1.525985       2.090072
       3.890000       0.772599       1.510423       2.090502
       3.900000       0.786775       1.502248       2.091188
       3.910000       0.800982       1.500476       2.092045
       3.920000       0.815203       1.503819       2.092981
       3.930000       0.829408       1.510805       2.093895
       3.940000       0.843556       1.519900       2.094685
       3.950000       0.857600       1.529690       2.095254
       3.960000       0.871497       1.539128       2.095525
       3.970000       0.885216       1.547726       2.095444
       3.980000       0.898744       1.555601       2.094985
       3.990000       0.912083       1.563291       2.094143
       4.000000       0.925239       1.571409       2.092925
       4.010000       0.938202       1.580327       2.091350
       4.020000       0.950931       1.590026       2.089459
       4.030000       0.963343       1.600170       2.087332
       4.040000       0.975309       1.610299       2.085105
       4.050000       0.986665       1.619973       2.082966
       4.060000       0.997243       1.628740       2.081122
       4.070000       1.006902       1.635939       2.079754
       4.080000       1.015579       1.640471       2.078968
       4.090000       1.023326       1.640719       2.078764
       4.100000       1.030326       1.634722       2.079042
       4.110000       1.036869       1.620611       2.079636
       4.120000       1.043302       1.597174       2.080350
       4.130000       1.049953       1.564392       2.081007
       4.140000       1.057077       1.523752       2.081481
       4.150000       1.064834       1.478241       2.081727
       4.160000       1.073290       1.431984       2.081782
       4.170000       1.082446       1.389610       2.081763
       4.180000       1.092259       1.355488       2.081833
       4.190000       1.102665       1.333030       2.082154
       4.200000       1.113587       1.324230       2.082841
       4.210000       1.124946       1.329567       2.083919
       4.220000       1.136668       1.348214       2.085308
       4.230000       1.148692       1.378417       2.086831
       4.240000       1.160979       1.417886       2.088247
       4.250000       1.173511       1.464071       2.089296
       4.260000       1.186285       1.514315       2.089750
       4.270000       1.199310       1.565909       2.089455
       4.280000       1.212596       1.616117       2.088360
       4.290000       1.226156       1.662191       2.086513
       4.300000       1.240005       1.701441       2.084046
       4.310000       1.254165       1.731359       2.081139
       4.320000       1.268658       1.749855       2.077979
       4.330000       1.283503       1.755601       2.074739
       4.340000       1.298702       1.748424       2.071572
       4.350000       1.314231       1.729631       2.068613
       4.360000       1.330040       1.702084       2.065998
       4.370000       1.346053       1.669924       2.063859
       4.380000       1.362185       1.637943       2.062329
       4.390000       1.378352       1.610787       2.061509
       4.400000       1.394493       1.592242       2.061458
       4.410000       1.410580       1.584792       2.062166
       4.420000       1.426619       1.589537       2.063560
       4.430000       1.442642       1.606350       2.065504
       4.440000       1.458697       1.634164       2.067824
       4.450000       1.474820       1.671244       2.070319
       4.460000       1.491028       1.715405       2.072790
       4.470000       1.507304       1.764171       2.075049
       4.480000       1.523588       1.814907       2.076946
       4.490000       1.539772       1.864943       2.078374
       4.500000       1.555683       1.911702       2.079277
       4.510000       1.571072       1.952833       2.079633
       4.520000       1.585601       1.986349       2.079440
       4.530000       1.598836       2.010760       2.078705
       4.540000       1.610269       2.025213       2.077442
       4.550000       1.619357       2.029575       2.075694
       4.560000       1.625607       2.024431       2.073542
       4.570000       1.628684       2.010916       2.071112
       4.580000       1.628552       1.990358       2.068566
       4.590000       1.625586       1.963847       2.066087
       4.600000       1.620615       1.931894       2.063857
       4.610000       1.614845       1.894355       2.062047
       4.620000       1.609657       1.850680       2.060791
       4.630000       1.606343       1.800385       2.060171
       4.640000       1.605877       1.743616       2.060196
       4.650000       1.608797       1.681609       2.060809
       4.660000       1.615210       1.616899       2.061900
       4.670000       1.624868       1.553138       2.063342
       4.680000       1.637287       1.494534       2.065022
       4.690000       1.651836       1.445075       2.066860
       4.700000       1.667802       1.407781       2.068808
       4.710000       1.684437       1.384232       2.070829
       4.720000       1.700986       1.374427       2.072872
       4.730000       1.716720       1.376938       2.074853
       4.740000       1.730977       1.389225       2.076644
       4.750000       1.743223       1.408023       2.078085
       4.760000       1.753113       1.429709       2.079001
       4.770000       1.760561       1.450634       2.079220
       4.780000       1.765790       1.467415       2.078593
       4.790000       1.769334       1.477203       2.077004
       4.800000       1.771975       1.477947       2.074369
       4.810000       1.774614       1.468644       2.070642
       4.820000       1.778104       1.449498       2.065819
       4.830000       1.783105       1.421912       2.059952
       4.840000       1.790016       1.388238       2.053163
       4.850000       1.798997       1.351372       2.045663
       4.860000       1.810056       1.314310       2.037745
       4.870000       1.823139       1.279815       2.029767
       4.880000       1.838200       1.250219       2.022116
       4.890000       1.855213       1.227301       2.015165
       4.900000       1.874147       1.212169       2.009226
       4.910000       1.894934       1.205139       2.004533
       4.920000       1.917438       1.205638       2.001229
       4.930000       1.941446       1.212197       1.999369
       4.940000       1.966680       1.222582       1.998923
       4.950000       1.992818       1.234052       1.999782
       4.960000       2.019524       1.243727       2.001768
       4.970000       2.046491       1.249005       2.004648
       4.980000       2.073483       1.247951       2.008158
       4.990000       2.100370       1.239612       2.012025
       5.000000       2.127154       1.224156       2.015988
       5.010000       2.153965       1.202812       2.019815
       5.020000       2.181010       1.177571       2.023315
       5.030000       2.208494       1.150715       2.026352
       5.040000       2.236512       1.124271       2.028847
       5.050000       2.264952       1.099585       2.030788
       5.060000       2.293432       1.077145       2.032230
       5.070000       2.321272       1.056729       2.033295
       5.080000       2.347529       1.037778       2.034146
       5.090000       2.371051       1.019845       2.034965
       5.100000       2.390579       1.002940       2.035914
       5.110000       2.404871       0.987689       2.037120
       5.120000       2.412855       0.975265       2.038666
       5.130000       2.413791       0.967172       2.040594
       5.140000       2.407403       0.964942       2.042912
       5.150000       2.393947       0.969865       2.045594
       5.160000       2.374190       0.982783       2.048589
       5.170000       2.349289       1.003982       2.051832
       5.180000       2.320631       1.033143       2.055261
       5.190000       2.289655       1.069380       2.058832
       5.200000       2.257719       1.111340       2.062519
       5.210000       2.225975       1.157360       2.066309
       5.220000       2.195267       1.205653       2.070178
       5.230000       2.166031       1.254478       2.074076
       5.240000       2.138240       1.302240       2.077920
       5.250000       2.111402       1.347518       2.081589
       5.260000       2.084631       1.389015       2.084943
       5.270000       2.056765       1.425490       2.087837
       5.280000       2.026546       1.455732       2.090136
       5.290000       1.992835       1.478629       2.091732
       5.300000       1.954843       1.493325       2.092557
       5.310000       1.912356       1.499431       2.092587
       5.320000       1.865899       1.497211       2.091847
       5.330000       1.816797       1.487657       2.090408
       5.340000       1.767075       1.472393       2.088381
       5.350000       1.719188       1.453379       2.085910
       5.360000       1.675626       1.432503       2.083164
       5.370000       1.638490       1.411188       2.080325
       5.380000       1.609184       1.390198       2.077578
       5.390000       1.588304       1.369719       2.075099
       5.400000       1.575725       1.349674       2.073043
       5.410000       1.570813       1.330122       2.071541
       5.420000       1.572653       1.311543       2.070699
       5.430000       1.580222       1.294891       2.070595
       5.440000       1.592443       1.281386       2.071277
       5.450000       1.608146       1.272161       2.072758
       5.460000       1.625967       1.267904       2.075012
       5.470000       1.644292       1.268643       2.077980
       5.480000       1.661272       1.273723       2.081577
       5.490000       1.674962       1.281962       2.085710
       5.500000       1.683537       1.291895       2.090284
       5.510000       1.685546       1.302038       2.095212
       5.520000       1.680147       1.311146       2.100413
       5.530000       1.667272       1.318427       2.105807
       5.540000       1.647674       1.323697       2.111327
       5.550000       1.622836       1.327418       2.116909
       5.560000       1.594764       1.330570       2.122503
       5.570000       1.565677       1.334404       2.128061
       5.580000       1.537675       1.340158       2.133532
       5.590000       1.512435       1.348841       2.138851
       5.600000       1.490997       1.361111       2.143937
       5.610000       1.473692       1.377237       2.148690
       5.620000       1.460198       1.397099       2.153000
       5.630000       1.449736       1.420215       2.156754
       5.640000       1.441347       1.445806       2.159856
       5.650000       1.434208       1.472918       2.162237
       5.660000       1.427882       1.500558       2.163874
       5.670000       1.422412       1.527796       2.164793
       5.680000       1.418215       1.553792       2.165066
       5.690000       1.415796       1.577758       2.164803
       5.700000       1.415444       1.598948       2.164126
       5.710000       1.417027       1.616725       2.163152
       5.720000       1.420005       1.630697       2.161985
       5.730000       1.423625       1.640858       2.160715
       5.740000       1.427210       1.647620       2.159435
       5.750000       1.430410       1.651701       2.158258
       5.760000       1.433296       1.653887       2.157320
       5.770000       1.436254       1.654747       2.156767
       5.780000       1.439720       1.654398       2.156728
       5.790000       1.443871       1.652411       2.157298
       5.800000       1.448419       1.647895       2.158523
       5.810000       1.452600       1.639738       2.160395
       5.820000       1.455357       1.626904       2.162871
       5.830000       1.455650       1.608670       2.165884
       5.840000       1.452770       1.584732       2.169361
       5.850000       1.446562       1.555206       2.173236
       5.860000       1.437452       1.520609       2.177449
       5.870000       1.426287       1.481883       2.181954
       5.880000       1.414045       1.440438       2.186710
       5.890000       1.401523       1.398150       2.191680
       5.900000       1.389162       1.357227       2.196826
       5.910000       1.377047       1.319963       2.202107
       5.920000       1.365078       1.288443       2.207475
       5.930000       1.353222       1.264298       2.212876
       5.940000       1.341744       1.248550       2.218255
       5.950000       1.331292       1.241559       2.223556
       5.960000       1.322812       1.243047       2.228728
       5.970000       1.317310       1.252195       2.233734
       5.980000       1.315569       1.267797       2.238545
       5.990000       1.317957       1.288462       2.243136
       6.000000       1.324392       1.312801       2.247481
       6.010000       1.334454       1.339545       2.251542
       6.020000       1.347567       1.367546       2.255279
       6.030000       1.363174       1.395692       2.258655
       6.040000       1.380831       1.422813       2.261652
       6.050000       1.400198       1.447681       2.264276
       6.060000       1.420949       1.469148       2.266557
       6.070000       1.442638       1.486394       2.268532
       6.080000       1.464601       1.499177       2.270232
       6.090000       1.485922       1.507952       2.271666
       6.100000       1.505468       1.513733       2.272819
       6.110000       1.521994       1.517711       2.273653
       6.120000       1.534283       1.520781       2.274119
       6.130000       1.541352       1.523205       2.274179
       6.140000       1.542683       1.524581       2.273826
       6.150000       1.538425       1.524128       2.273106
       6.160000       1.529482       1.521140       2.272133
       6.170000       1.517402       1.515412       2.271089
       6.180000       1.504062       1.507440       2.270204
       6.190000       1.491210       1.498302       2.269736
       6.200000       1.480035       1.489297       2.269933
       6.210000       1.470889       1.481508       2.271000
       6.220000       1.463292       1.475509       2.273081
       6.230000       1.456180       1.471360       2.276242
       6.240000       1.448325       1.468851       2.280469
       6.250000       1.438764       1.467852       2.285676
       6.260000       1.427082       1.468581       2.291714
       6.270000       1.413471       1.471633       2.298389
       6.280000       1.398575       1.477819       2.305483
       6.290000       1.383238       1.487900       2.312771
       6.300000       1.368294       1.502354       2.320039
       6.310000       1.354464       1.521246       2.327091
       6.320000       1.342358       1.544184       2.333758
       6.330000       1.332498       1.570348       2.339895
       6.340000       1.325311       1.598576       2.345385
       6.350000       1.321105       1.627511       2.350144
       6.360000       1.320042       1.655777       2.354130
       6.370000       1.322148       1.682167       2.357353
       6.380000       1.327337       1.705772       2.359883
       6.390000       1.335419       1.726008       2.361853
       6.400000       1.346060       1.742513       2.363460
       6.410000       1.358695       1.754922       2.364944
       6.420000       1.372453       1.762613       2.366557
       6.430000       1.386159       1.764567       2.368529
       6.440000       1.398464       1.759452       2.371028
       6.450000       1.408090       1.745954       2.374133
       6.460000       1.414121       1.723278       2.377829
       6.470000       1.416243       1.691610       2.382015
       6.480000       1.414815       1.652379       2.386529
       6.490000       1.410740       1.608179       2.391187
       6.500000       1.405154       1.562385       2.395815
       6.510000       1.399088       1.518566       2.400277
       6.520000       1.393227       1.479921       2.404488
       6.530000       1.387856       1.448866       2.408414
       6.540000       1.382977       1.426869       2.412059
       6.550000       1.378493       1.414463       2.415442
       6.560000       1.374365       1.411365       2.418589
       6.570000       1.370687       1.416629       2.421518
       6.580000       1.367680       1.428793       2.424248
       6.590000       1.365617       1.446039       2.426799
       6.600000       1.364723       1.466369       2.429201
       6.610000       1.365088       1.487802       2.431493
       6.620000       1.366603       1.508571       2.433721
       6.630000       1.368945       1.527262       2.435939
       6.640000       1.371560       1.542901       2.438197
       6.650000       1.373671       1.554961       2.440529
       6.660000       1.374288       1.563305       2.442943
       6.670000       1.372286       1.568066       2.445408
       6.680000       1.366550       1.569489       2.447862
       6.690000       1.356207       1.567793       2.450225
       6.700000       1.340886       1.563153       2.452419
       6.710000       1.320941       1.555812       2.454396
       6.720000       1.297522       1.546254       2.456150
       6.730000       1.272434       1.535314       2.457731
       6.740000       1.247791       1.524125       2.459234
       6.750000       1.225573       1.513929       2.460790
       6.760000       1.207246       1.505825       2.462540
       6.770000       1.193556       1.500573       2.464605
       6.780000       1.184538       1.498477       2.467066
       6.790000       1.179658       1.499367       2.469953
       6.800000       1.177979       1.502645       2.473246
       6.810000       1.178261       1.507387       2.476882
       6.820000       1.179020       1.512486       2.480766
       6.830000       1.178590       1.516831       2.484784
       6.840000       1.175263       1.519502       2.488823
       6.850000       1.167509       1.519929       2.492786
       6.860000       1.154224       1.517991       2.496611
       6.870000       1.134928       1.513988       2.500268
       6.880000       1.109890       1.508509       2.503760
       6.890000       1.080119       1.502256       2.507117
       6.900000       1.047240       1.495895       2.510390
       6.910000       1.013221       1.489960       2.513652
       6.920000       0.979997       1.484797       2.516995
       6.930000       0.949055       1.480465       2.520522
       6.940000       0.921117       1.476607       2.524342
       6.950000       0.896002       1.472320       2.528545
       6.960000       0.872694       1.466119       2.533192
       6.970000       0.849573       1.456055       2.538305
       6.980000       0.824744       1.439982       2.543870
       6.990000       0.796384       1.415908       2.549853
       7.000000       0.763053       1.382352       2.556223
       7.010000       0.723912       1.338595       2.562971
       7.020000       0.678828       1.284772       2.570123
       7.030000       0.628335       1.221791       2.577735
       7.040000       0.573491       1.151133       2.585867
       7.050000       0.515685       1.074619       2.594556
       7.060000       0.456453       0.994258       2.603792
       7.070000       0.397342       0.912180       2.613500
       7.080000       0.339801       0.830614       2.623551
       7.090000       0.285085       0.751815       2.633779
       7.100000       0.234147       0.677878       2.644003
       7.110000       0.187541       0.610455       2.654059
       7.120000       0.145350       0.550466       2.663814
       7.130000       0.107182       0.497921       2.673190
       7.140000       0.072244       0.451942       2.682162
       7.150000       0.039493       0.411014       2.690765
       7.160000       0.007862       0.373382       2.699087
       7.170000      -0.023501       0.337484       2.707263
       7.180000      -0.055038       0.302267       2.715460
       7.190000      -0.086684       0.267282       2.723866
       7.200000      -0.117890       0.232560       2.732659
       7.210000      -0.147747       0.198332       2.741981
       7.220000      -0.175168       0.164737       2.751914
       7.230000      -0.199113       0.131630       2.762473
       7.240000      -0.218793       0.098563       2.773613
       7.250000      -0.233823       0.064914       2.785248
       7.260000      -0.244248       0.030128       2.797289
       7.270000      -0.250452      -0.006061       2.809672
       7.280000      -0.252976      -0.043489       2.822383
       7.290000      -0.252360      -0.081540       2.835454
       7.300000      -0.249037      -0.119227       2.848950
       7.310000      -0.243331      -0.155321       2.862932
       7.320000      -0.235491      -0.188515       2.877431
       7.330000      -0.225741      -0.217612       2.892431
       7.340000      -0.214314      -0.241718       2.907869
       7.350000      -0.201480      -0.260424       2.923654
       7.360000      -0.187563      -0.273878       2.939693
       7.370000      -0.172955      -0.282726       2.955909
       7.380000      -0.158094      -0.287920       2.972257
       7.390000      -0.143416      -0.290466       2.988729
       7.400000      -0.129271      -0.291211       3.005342
       7.410000      -0.115824      -0.290710       3.022127
       7.420000      -0.102978      -0.289211       3.039102
       7.430000      -0.090368      -0.286738       3.056249
       7.440000      -0.077454      -0.283240       3.073499
       7.450000      -0.063691      -0.278739       3.090727
       7.460000      -0.048705      -0.273421       3.107767
       7.470000      -0.032429      -0.267632       3.124423
       7.480000      -0.015133      -0.261842       3.140473
       7.490000       0.002610      -0.256628       3.155667
       7.500000       0.019993      -0.252723       3.169711
       7.510000       0.036057      -0.251088       3.182260
       7.520000       0.049792      -0.252891       3.192917
       7.530000       0.060270      -0.259347       3.201252
       7.540000       0.066815      -0.271426       3.206841
       7.550000       0.069167      -0.289568       3.209325
       7.560000       0.067592      -0.313535       3.208454
       7.570000       0.062863      -0.342482       3.204127
       7.580000       0.056107      -0.375203       3.196394
       7.590000       0.048571      -0.410411       3.185439
       7.600000       0.041410      -0.446933       3.171569
       7.610000       0.035547      -0.483770       3.155209
       7.620000       0.031652      -0.520072       3.136923
       7.630000       0.030181      -0.555095       3.117419
       7.640000       0.031431      -0.588178       3.097537
       7.650000       0.035572      -0.618731       3.078182
       7.660000       0.042657      -0.646245       3.060226
       7.670000       0.052615      -0.670328       3.044367
       7.680000       0.065229      -0.690770       3.030997
       7.690000       0.080119      -0.707602       3.020120
       7.700000       0.096723      -0.721088       3.011354
       7.710000       0.114316      -0.731631       3.004045
       7.720000       0.132061      -0.739626       2.997455
       7.730000       0.149093      -0.745320       2.990962
       7.740000       0.164624      -0.748754       2.984200
       7.750000       0.178024      -0.749813       2.977101
       7.760000       0.188893      -0.748345       2.969828
       7.770000       0.197085      -0.744292       2.962621
       7.780000       0.202697      -0.737768       2.955642
       7.790000       0.206032      -0.729053       2.948843
       7.800000       0.207522      -0.718534       2.941938
       7.810000       0.207652      -0.706626       2.934453
       7.820000       0.206885      -0.693741       2.925850
       7.830000       0.205609      -0.680324       2.915671
       7.840000       0.204107      -0.666939       2.903649
       7.850000       0.202559      -0.654346       2.889782
       7.860000       0.201065      -0.643489       2.874332
       7.870000       0.199669      -0.635378       2.857783
       7.880000       0.198377      -0.630891       2.840750
       7.890000       0.197168      -0.630588       2.823882
       7.900000       0.195987      -0.634586       2.807766
       7.910000       0.194741      -0.642551       2.792858
       7.920000       0.193308      -0.653754       2.779451
       7.930000       0.191562      -0.667176       2.767688
       7.940000       0.189412      -0.681605       2.757622
       7.950000       0.186843      -0.695737       2.749309
       7.960000       0.183930      -0.708278       2.742889
       7.970000       0.180844      -0.718080       2.738623
       7.980000       0.177828      -0.724281       2.736858
       7.990000       0.175186      -0.726413       2.737945
       8.000000       0.173263      -0.724421       2.742147
       8.010000       0.172444      -0.718590       2.749590
       8.020000       0.173126      -0.709387       2.760253
       8.030000       0.175672      -0.697295       2.773994
       8.040000       0.180338      -0.682702       2.790584
       8.050000       0.187204      -0.665881       2.809754
       8.060000       0.196141      -0.647033       2.831228
       8.070000       0.206820      -0.626338       2.854764
       8.080000       0.218771      -0.603994       2.880159
       8.090000       0.231454      -0.580225       2.907244
       8.100000       0.244327      -0.555314       2.935842
       8.110000       0.256890      -0.529651       2.965731
       8.120000       0.268701      -0.503794       2.996609
       8.130000       0.279394      -0.478480       3.028103
       8.140000       0.288692      -0.454546       3.059799
       8.150000       0.296428      -0.432793       3.091290
       8.160000       0.302561      -0.413806       3.122225
       8.170000       0.307183      -0.397823       3.152323
       8.180000       0.310493      -0.384691       3.181367
       8.190000       0.312763      -0.373929       3.209158
       8.200000       0.314291      -0.364868       3.235469
       8.210000       0.315381      -0.356816       3.259991
       8.220000       0.316319      -0.349188       3.282301
       8.230000       0.317364      -0.341570       3.301853
       8.240000       0.318729      -0.333708       3.318007
       8.250000       0.320562      -0.325465       3.330088
       8.260000       0.322927      -0.316755       3.337479
       8.270000       0.325810      -0.307531       3.339724
       8.280000       0.329135      -0.297798       3.336598
       8.290000       0.332791      -0.287663       3.328124
       8.300000       0.336654      -0.277362       3.314519
       8.310000       0.340608      -0.267234       3.296103
       8.320000       0.344547      -0.257635       3.273215
       8.330000       0.348375      -0.248836       3.246205
       8.340000       0.352007      -0.240930       3.215483
       8.350000       0.355362      -0.233816       3.181598
       8.360000       0.358369      -0.227251       3.145278
       8.370000       0.360963      -0.220947       3.107388
       8.380000       0.363110      -0.214655       3.068829
       8.390000       0.364836      -0.208201       3.030400
       8.400000       0.366264      -0.201457       2.992706
       8.410000       0.367620      -0.194280       2.956128
       8.420000       0.369203      -0.186473       2.920867
       8.430000       0.371329      -0.177801       2.887031
       8.440000       0.374266      -0.168052       2.854741
       8.450000       0.378188      -0.157126       2.824220
       8.460000       0.383162      -0.145084       2.795834
       8.470000       0.389154      -0.132152       2.770072
       8.480000       0.396045      -0.118660       2.747471
       8.490000       0.403648      -0.104946       2.728478
       8.500000       0.411741      -0.091250       2.713311
       8.510000       0.420101      -0.077644       2.701842
       8.520000       0.428544      -0.064001       2.693556
       8.530000       0.436950      -0.050038       2.687626
       8.540000       0.445254      -0.035412       2.683091
       8.550000       0.453424      -0.019831       2.679103
       8.560000       0.461417      -0.003143       2.675170
       8.570000       0.469161       0.014627       2.671294
       8.580000       0.476552       0.033293       2.667959
       8.590000       0.483469       0.052548       2.665951
       8.600000       0.489803       0.072015       2.666096
       8.610000       0.495483       0.091299       2.668995
       8.620000       0.500496       0.110046       2.674885
       8.630000       0.504897       0.127998       2.683638
       8.640000       0.508808       0.145041       2.694871
       8.650000       0.512400       0.161208       2.708102
       8.660000       0.515861       0.176636       2.722875
       8.670000       0.519357       0.191479       2.738824
       8.680000       0.522986       0.205836       2.755672
       8.690000       0.526767       0.219706       2.773204
       8.700000       0.530637       0.233027       2.791226
       8.710000       0.534485       0.245745       2.809554
       8.720000       0.538180       0.257900       2.828029
       8.730000       0.541602       0.269662       2.846548
       8.740000       0.544667       0.281310       2.865104
       8.750000       0.547345       0.293166       2.883821
       8.760000       0.549682       0.305515       2.902992
       8.770000       0.551813       0.318540       2.923100
       8.780000       0.553950       0.332291       2.944814
       8.790000       0.556355       0.346676       2.968938
       8.800000       0.559301       0.361498       2.996311
       8.810000       0.563039       0.376514       3.027690
       8.820000       0.567773       0.391520       3.063645
       8.830000       0.573642       0.406428       3.104482
       8.840000       0.580714       0.421325       3.150200
       8.850000       0.588981       0.436469       3.200479
       8.860000       0.598366       0.452250       3.254709
       8.870000       0.608736       0.469099       3.312053
       8.880000       0.619914       0.487390       3.371526
       8.890000       0.631695       0.507346       3.432071
       8.900000       0.643856       0.528976       3.492594
       8.910000       0.656162       0.552064       3.551941
       8.920000       0.668376       0.576194       3.608811
       8.930000       0.680256       0.600816       3.661648
       8.940000       0.691561       0.625313       3.708514
       8.950000       0.702051       0.649054       3.746984
       8.960000       0.711492       0.671426       3.774092
       8.970000       0.719666       0.691840       3.786366
       8.980000       0.726384       0.709753       3.780016
       8.990000       0.731507       0.724688       3.751290
       9.000000       0.734961       0.736298       3.696987
       9.010000       0.736761       0.744416       3.615050
       9.020000       0.737025       0.749083       3.505104
       9.030000       0.735974       0.750519       3.368801
       9.040000       0.733908       0.749032       3.209862
       9.050000       0.731167       0.744905       3.033775
       9.060000       0.728076       0.738314       2.847204
       9.070000       0.724908       0.729320       2.657209
       9.080000       0.721872       0.717964       2.470457
       9.090000       0.719118       0.704404       2.292591
       9.100000       0.716759       0.689019       2.127862
       9.110000       0.714892       0.672424       1.979045
       9.120000       0.713600       0.655379       1.847570
       9.130000       0.712954       0.638634       1.733751
       9.140000       0.713013       0.622799       1.637009
       9.150000       0.713823       0.608306       1.556038
       9.160000       0.715438       0.595470       1.488928
       9.170000       0.717929       0.584578       1.433323
       9.180000       0.721385       0.575931       1.386685
       9.190000       0.725894       0.569776       1.346661
       9.200000       0.731510       0.566173       1.311434
       9.210000       0.738217       0.564856       1.279904
       9.220000       0.745907       0.565176       1.251614
       9.230000       0.754381       0.566129       1.226466
       9.240000       0.763368       0.566466       1.204392
       9.250000       0.772572       0.564854       1.185142
       9.260000       0.781714       0.560069       1.168270
       9.270000       0.790584       0.551206       1.153299
       9.280000       0.799078       0.537895       1.139960
       9.290000       0.807214       0.520461       1.128371
       9.300000       0.815131       0.499965       1.119086
       9.310000       0.823048       0.478056       1.112950
       9.320000       0.831217       0.456664       1.110817
       9.330000       0.839860       0.437612       1.113233
       9.340000       0.849130       0.422294       1.120189
       9.350000       0.859086       0.411502       1.131027
       9.360000       0.869698       0.405403       1.144502
       9.370000       0.880854       0.403616       1.158988
       9.380000       0.892384       0.405328       1.172783
       9.390000       0.904082       0.409447       1.184472
       9.400000       0.915732       0.414793       1.193280
       9.410000       0.927128       0.420317       1.199279
       9.420000       0.938101       0.425322       1.203368
       9.430000       0.948531       0.429612       1.206982
       9.440000       0.958357       0.433530       1.211591
       9.450000       0.967563       0.437853       1.218174
       9.460000       0.976163       0.443576       1.226844
       9.470000       0.984172       0.451657       1.236723
       9.480000       0.991583       0.462803       1.246096
       9.490000       0.998361       0.477346       1.252754
       9.500000       1.004459       0.495235       1.254431
       9.510000       1.009841       0.516119       1.249230
       9.520000       1.014512       0.539454       1.235965
       9.530000       1.018524       0.564607       1.214349
       9.540000       1.021968       0.590899       1.185032
       9.550000       1.024950       0.617564       1.149472
       9.560000       1.027557       0.643649       1.109684
       9.570000       1.029841       0.667904       1.067934
       9.580000       1.031804       0.688721       1.026440
       9.590000       1.033398       0.704158       0.987151
       9.600000       1.034537       0.712085       0.951622
       9.610000       1.035099       0.710426       0.920979
       9.620000       1.034949       0.697497       0.895927
       9.630000       1.033948       0.672363       0.876772
       9.640000       1.031964       0.635122       0.863445
       9.650000       1.028885       0.587021       0.855523
       9.660000       1.024636       0.530309       0.852290
       9.670000       1.019211       0.467868       0.852852
       9.680000       1.012720       0.402751       0.856285
       9.690000       1.005423       0.337769       0.861795
       9.700000       0.997736       0.275254       0.868820
       9.710000       0.990185       0.216963       0.877068
       9.720000       0.983313       0.164087       0.886478
       9.730000       0.977562       0.117302       0.897146
       9.740000       0.973197       0.076853       0.909233
       9.750000       0.970274       0.042671       0.922886
       9.760000       0.968683       0.014506       0.938153
       9.770000       0.968223      -0.007960       0.954920
       9.780000       0.968662      -0.025067       0.972857
       9.790000       0.969761      -0.037193       0.991395
       9.800000       0.971254      -0.044826       1.009743
       9.810000       0.972815      -0.048612       1.026959
       9.820000       0.974039      -0.049358       1.042069
       9.830000       0.974466      -0.047951       1.054203
       9.840000       0.973640      -0.045245       1.062717
       9.850000       0.971196      -0.041958       1.067275
       9.860000       0.966938      -0.038616       1.067872
       9.870000       0.960900      -0.035554       1.064808
       9.880000       0.953360      -0.032937       1.058616
       9.890000       0.944807      -0.030785       1.049946
       9.900000       0.935853      -0.029001       1.039435
       9.910000       0.927119      -0.027413       1.027599
       9.920000       0.919123      -0.025825       1.014757
       9.930000       0.912194      -0.024080       1.001021
       9.940000       0.906453      -0.022120       0.986333
       9.950000       0.901827      -0.020033       0.970538
       9.960000       0.898115      -0.018082       0.953486
       9.970000       0.895061      -0.016694       0.935146
       9.980000       0.892439      -0.016416       0.915687
       9.990000       0.890131      -0.017824       0.895505
      10.000000       0.888167      -0.021432       0.875173
      10.010000       0.886714      -0.027638       0.855303
      10.020000       0.886007      -0.036720       0.836374
      10.030000       0.886245      -0.048887       0.818581
      10.040000       0.887493      -0.064320       0.801784
      10.050000       0.889631      -0.083182       0.785567
      10.060000       0.892358      -0.105564       0.769373
      10.070000       0.895252      -0.131380       0.752634
      10.080000       0.897843      -0.160266       0.734859
      10.090000       0.899686      -0.191538       0.715685
      10.100000       0.900418      -0.224229       0.694905
      10.110000       0.899793      -0.257196       0.672501
      10.120000       0.897716      -0.289241       0.648657
      10.130000       0.894260      -0.319212       0.623730
      10.140000       0.889677      -0.346068       0.598144
      10.150000       0.884378      -0.368936       0.572268
      10.160000       0.878868      -0.387156       0.546324
      10.170000       0.873675      -0.400338       0.520402
      10.180000       0.869263      -0.408392       0.494557
      10.190000       0.865991      -0.411528       0.468958
      10.200000       0.864101      -0.410207       0.443971
      10.210000       0.863726      -0.405058       0.420153
      10.220000       0.864904      -0.396781       0.398149
      10.230000       0.867585      -0.386058       0.378556
      10.240000       0.871640      -0.373500       0.361830
      10.250000       0.876864      -0.359637       0.348236
      10.260000       0.882999      -0.344948       0.337854
      10.270000       0.889753      -0.329895       0.330590
      10.280000       0.896822      -0.314948       0.326192
      10.290000       0.903919      -0.300585       0.324277
      10.300000       0.910794      -0.287270       0.324371
      10.310000       0.917262      -0.275422       0.325966
      10.320000       0.923223      -0.265389       0.328550
      10.330000       0.928675      -0.257412       0.331621
      10.340000       0.933706      -0.251590       0.334681
      10.350000       0.938476      -0.247847       0.337227
      10.360000       0.943179      -0.245935       0.338772
      10.370000       0.948004      -0.245466       0.338881
      10.380000       0.953105      -0.245996       0.337220
      10.390000       0.958582      -0.247100       0.333587
      10.400000       0.964477      -0.248454       0.327918
      10.410000       0.970768      -0.249854       0.320267
      10.420000       0.977386      -0.251218       0.310760
      10.430000       0.984212      -0.252552       0.299556
      10.440000       0.991102      -0.253913       0.286831
      10.450000       0.997901      -0.255361       0.272803
      10.460000       1.004458      -0.256914       0.257766
      10.470000       1.010644      -0.258513       0.242125
      10.480000       1.016365      -0.259997       0.226382
      10.490000       1.021577      -0.261090       0.211087
      10.500000       1.026302      -0.261440       0.196779
      10.510000       1.030646      -0.260677       0.183934
      10.520000       1.034792      -0.258516       0.172944
      10.530000       1.038979      -0.254839       0.164118
      10.540000       1.043454      -0.249762       0.157692
      10.550000       1.048422      -0.243625       0.153837
      10.560000       1.053998      -0.236938       0.152657
      10.570000       1.060194      -0.230272       0.154161
      10.580000       1.066924      -0.224144       0.158258
      10.590000       1.074041      -0.218934       0.164768
      10.600000       1.081371      -0.214833       0.173446
      10.610000       1.088742      -0.211870       0.184022
      10.620000       1.095994      -0.209966       0.196219
      10.630000       1.102978      -0.209009       0.209756
      10.640000       1.109567      -0.208888       0.224346
      10.650000       1.115663      -0.209486       0.239691
      10.660000       1.121225      -0.210638       0.255479
      10.670000       1.126286      -0.212098       0.271386
      10.680000       1.130948      -0.213549       0.287095
      10.690000       1.135372      -0.214660       0.302321
      10.700000       1.139744      -0.215183       0.316857
      10.710000       1.144240      -0.215033       0.330641
      10.720000       1.148999      -0.214325       0.343801
      10.730000       1.154108      -0.213349       0.356684
      10.740000       1.159606      -0.212490       0.369818
      10.750000       1.165506      -0.212136       0.383840
      10.760000       1.171824      -0.212601       0.399383
      10.770000       1.178596      -0.214083       0.416982
      10.780000       1.185873      -0.216662       0.437010
      10.790000       1.193704      -0.220293       0.459653
      10.800000       1.202109      -0.224808       0.484940
      10.810000       1.211059      -0.229897       0.512784
      10.820000       1.220476      -0.235114       0.543015
      10.830000       1.230245      -0.239925       0.575399
      10.840000       1.240234      -0.243780       0.609635
      10.850000       1.250302      -0.246215       0.645359
      10.860000       1.260301      -0.246928       0.682152
      10.870000       1.270062      -0.245829       0.719569
      10.880000       1.279393      -0.243040       0.757162
      10.890000       1.288069      -0.238858       0.794486
      10.900000       1.295860      -0.233706       0.831081
      10.910000       1.302543      -0.228075       0.866421
      10.920000       1.307940      -0.222473       0.899848
      10.930000       1.311914      -0.217392       0.930505
      10.940000       1.314368      -0.213264       0.957290
      10.950000       1.315211      -0.210426       0.978849
      10.960000       1.314344      -0.209084       0.993621
      10.970000       1.311665      -0.209281       0.999903
      10.980000       1.307126      -0.210889       0.995947
      10.990000       1.300803      -0.213625       0.980054
      11.000000       1.292985      -0.217085       0.950714
      11.010000       1.284214      -0.220792       0.906779
      11.020000       1.275260      -0.224246       0.847695
      11.030000       1.267013      -0.226977       0.773722
      11.040000       1.260323      -0.228591       0.686065
      11.050000       1.255844      -0.228811       0.586839
      11.060000       1.253954      -0.227502       0.478852
      11.070000       1.254752      -0.224669       0.365270
      11.080000       1.258139      -0.220431       0.249272
      11.090000       1.263912      -0.214985       0.133766
      11.100000       1.271848      -0.208565       0.021229
      11.110000       1.281735      -0.201419      -0.086332
      11.120000       1.293371      -0.193793      -0.187328
      11.130000       1.306528      -0.185928      -0.280496
      11.140000       1.320931      -0.178057      -0.364839
      11.150000       1.336244      -0.170394      -0.439622
      11.160000       1.352071      -0.163116      -0.504429
      11.170000       1.367979      -0.156343      -0.559226
      11.180000       1.383513      -0.150124      -0.604363
      11.190000       1.398216      -0.144441      -0.640502
      11.200000       1.411648      -0.139226      -0.668474
      11.210000       1.423400      -0.134392      -0.689122
      11.220000       1.433115      -0.129856      -0.703186
      11.230000       1.440520      -0.125552      -0.711267
      11.240000       1.445470      -0.121436      -0.713868
      11.250000       1.447997      -0.117474      -0.711500
      11.260000       1.448343      -0.113636      -0.704769
      11.270000       1.446953      -0.109888      -0.694423
      11.280000       1.444412      -0.106183      -0.681328
      11.290000       1.441342      -0.102464      -0.666403
      11.300000       1.438290      -0.098652      -0.650537
      11.310000       1.435643      -0.094651      -0.634510
      11.320000       1.433592      -0.090347      -0.618938
      11.330000       1.432137      -0.085627      -0.604240
      11.340000       1.431114      -0.080398      -0.590640
      11.350000       1.430257      -0.074604      -0.578208
      11.360000       1.429258      -0.068228      -0.566923
      11.370000       1.427851      -0.061287      -0.556743
      11.380000       1.425882      -0.053825      -0.547639
      11.390000       1.423379      -0.045903      -0.539587
      11.400000       1.420580      -0.037602      -0.532509
      11.410000       1.417916      -0.029020      -0.526218
      11.420000       1.415959      -0.020274      -0.520384
      11.430000       1.415313      -0.011491      -0.514553
      11.440000       1.416510      -0.002805      -0.508226
      11.450000       1.419905       0.005650      -0.500966
      11.460000       1.425614       0.013758      -0.492506
      11.470000       1.433499       0.021435      -0.482818
      11.480000       1.443184       0.028641      -0.472133
      11.490000       1.454098       0.035392      -0.460888
      11.500000       1.465519       0.041751      -0.449635
      11.510000       1.476634       0.047819      -0.438927
      11.520000       1.486598       0.053728      -0.429223
      11.530000       1.494608       0.059626      -0.420818
      11.540000       1.499980       0.065662      -0.413822
      11.550000       1.502223       0.071959      -0.408169
      11.560000       1.501121       0.078590      -0.403663
      11.570000       1.496813       0.085560      -0.400027
      11.580000       1.489855       0.092811      -0.396964
      11.590000       1.481225       0.100239      -0.394196
      11.600000       1.472220       0.107723      -0.391505
      11.610000       1.464240       0.115152      -0.388748
      11.620000       1.458514       0.122433      -0.385866
      11.630000       1.455844       0.129491      -0.382854
      11.640000       1.456470       0.136261      -0.379720
      11.650000       1.460053       0.142685      -0.376420
      11.660000       1.465781       0.148708      -0.372823
      11.670000       1.472539       0.154281      -0.368721
      11.680000       1.479105       0.159374      -0.363904
      11.690000       1.484337       0.163970      -0.358287
      11.700000       1.487344       0.168071      -0.352017
      11.710000       1.487626       0.171703      -0.345526
      11.720000       1.485155       0.174922      -0.339479
      11.730000       1.480386       0.177820      -0.334646
      11.740000       1.474142       0.180529      -0.331720
      11.750000       1.467423       0.183217      -0.331139
      11.760000       1.461155       0.186076      -0.332962
      11.770000       1.456003       0.189302      -0.336832
      11.780000       1.452268       0.193071      -0.342042
      11.790000       1.449920       0.197513      -0.347674
      11.800000       1.448691       0.202691      -0.352776
      11.810000       1.448187       0.208598      -0.356515
      11.820000       1.447972       0.215161      -0.358280
      11.830000       1.447604       0.222273      -0.357722
      11.840000       1.446667       0.229807      -0.354740
      11.850000       1.444830       0.237648      -0.349440
      11.860000       1.441937       0.245697      -0.342078
      11.870000       1.438099       0.253879      -0.333002
      11.880000       1.433713       0.262133      -0.322605
      11.890000       1.429358       0.270398      -0.311280
      11.900000       1.425595       0.278602      -0.299401
      11.910000       1.422731       0.286655      -0.287321
      11.920000       1.420673       0.294456      -0.275382
      11.930000       1.418923       0.301901      -0.263910
      11.940000       1.416708       0.308904      -0.253209
      11.950000       1.413204       0.315406      -0.243535
      11.960000       1.407773       0.321391      -0.235058
      11.970000       1.400158       0.326883      -0.227834
      11.980000       1.390583       0.331949      -0.221789
      11.990000       1.379725       0.336681      -0.216710
      12.000000       1.368547       0.341186      -0.212283
      12.010000       1.358035       0.345568      -0.208136
      12.020000       1.348919       0.349918      -0.203908
      12.030000       1.341450       0.354306      -0.199303
      12.040000       1.335307       0.358777      -0.194133
      12.050000       1.329658       0.363350      -0.188329
      12.060000       1.323342       0.368006      -0.181922
      12.070000       1.315127       0.372694      -0.175021
      12.080000       1.303966       0.377335      -0.167774
      12.090000       1.289197       0.381844      -0.160338
      12.100000       1.270660       0.386143      -0.152869
      12.110000       1.248690       0.390188      -0.145516
      12.120000       1.224003       0.393979      -0.138420
      12.130000       1.197487       0.397563      -0.131701
      12.140000       1.169973       0.401032      -0.125428
      12.150000       1.142078       0.404514      -0.119606
      12.160000       1.114150       0.408153      -0.114166
      12.170000       1.086305       0.412091      -0.108996
      12.180000       1.058500       0.416444      -0.103974
      12.190000       1.030591       0.421285      -0.099001
      12.200000       1.002363       0.426632      -0.094007
      12.210000       0.973555       0.432459      -0.088940
      12.220000       0.943911       0.438700      -0.083748
      12.230000       0.913267       0.445269      -0.078365
      12.240000       0.881661       0.452074      -0.072707
      12.250000       0.849395       0.459030      -0.066686
      12.260000       0.817020       0.466078      -0.060222
      12.270000       0.785255       0.473188      -0.053263
      12.280000       0.754883       0.480364      -0.045808
      12.290000       0.726647       0.487637      -0.037921
      12.300000       0.701191       0.495053      -0.029734
      12.310000       0.678998       0.502657      -0.021430
      12.320000       0.660370       0.510476      -0.013212
      12.330000       0.645443       0.518519      -0.005260
      12.340000       0.634247       0.526766       0.002296
      12.350000       0.626784       0.535182       0.009392
      12.360000       0.623073       0.543718       0.016029
      12.370000       0.623119       0.552325       0.022252
      12.380000       0.626812       0.560954       0.028122
      12.390000       0.633798       0.569561       0.033679
      12.400000       0.643391       0.578099       0.038914
      12.410000       0.654593       0.586515       0.043767
      12.420000       0.666215       0.594739       0.048135
      12.430000       0.677069       0.602690       0.051914
      12.440000       0.686179       0.610279       0.055034
      12.450000       0.692939       0.617420       0.057496
      12.460000       0.697188       0.624041       0.059387
      12.470000       0.699165       0.630089       0.060872
      12.480000       0.699348       0.635532       0.062180
      12.490000       0.698237       0.640359       0.063572
      12.500000       0.696158       0.644579       0.065307
      12.510000       0.693144       0.648220       0.067607
      12.520000       0.688918       0.651320       0.070623
      12.530000       0.682955       0.653927       0.074418
      12.540000       0.674571       0.656094       0.078958
      12.550000       0.662999       0.657875       0.084121
      12.560000       0.647428       0.659318       0.089721
      12.570000       0.627030       0.660461       0.095547
      12.580000       0.601038       0.661328       0.101397
      12.590000       0.568902       0.661931       0.107130
      12.600000       0.530523       0.662280       0.112684
      12.610000       0.486482       0.662394       0.118090
      12.620000       0.438175       0.662315       0.123454
      12.630000       0.387759       0.662113       0.128926
      12.640000       0.337880       0.661880       0.134658
      12.650000       0.291243       0.661715       0.140760
      12.660000       0.250139       0.661700       0.147266
      12.670000       0.216086       0.661882       0.154106
      12.680000       0.189679       0.662263       0.161106
      12.690000       0.170683       0.662808       0.168006
      12.700000       0.158291       0.663461       0.174492
      12.710000       0.151460       0.664157       0.180241
      12.720000       0.149184       0.664822       0.184953
      12.730000       0.150665       0.665378       0.188393
      12.740000       0.155348       0.665734       0.190413
      12.750000       0.162871       0.665805       0.190985
      12.760000       0.173008       0.665528       0.190219
      12.770000       0.185616       0.664884       0.188369
      12.780000       0.200617       0.663905       0.185811
      12.790000       0.217963       0.662667       0.183013
      12.800000       0.237581       0.661278       0.180468
      12.810000       0.259289       0.659871       0.178636
      12.820000       0.282738       0.658608       0.177884
      12.830000       0.307385       0.657681       0.178445
      12.840000       0.332532       0.657296       0.180408
      12.850000       0.357401       0.657629       0.183725
      12.860000       0.381239       0.658776       0.188245
      12.870000       0.403425       0.660712       0.193750
      12.880000       0.423561       0.663279       0.199988
      12.890000       0.441512       0.666208       0.206699
      12.900000       0.457380       0.669161       0.213621
      12.910000       0.471422       0.671781       0.220484
      12.920000       0.483924       0.673737       0.227009
      12.930000       0.495068       0.674762       0.232900
      12.940000       0.504841       0.674674       0.237867
      12.950000       0.512998       0.673377       0.241642
      12.960000       0.519086       0.670856       0.244029
      12.970000       0.522530       0.667150       0.244937
      12.980000       0.522753       0.662334       0.244427
      12.990000       0.519313       0.656505       0.242731
      13.000000       0.512014       0.649777       0.240250
      13.010000       0.500947       0.642288       0.237505
      13.020000       0.486440       0.634201       0.235063
      13.030000       0.468966       0.625703       0.233448
      13.040000       0.449036       0.616989       0.233065
      13.050000       0.427145       0.608260       0.234162
      13.060000       0.403774       0.599711       0.236836
      13.070000       0.379409       0.591538       0.241050
      13.080000       0.354540       0.583946       0.246672
      13.090000       0.329617       0.577134       0.253504
      13.100000       0.304983       0.571271       0.261301
      13.110000       0.280837       0.566467       0.269795
      13.120000       0.257273       0.562741       0.278707
      13.130000       0.234414       0.560006       0.287763
      13.140000       0.212566       0.558080       0.296714
      13.150000       0.192310       0.556717       0.305348
      13.160000       0.174465       0.555645       0.313492
      13.170000       0.159922       0.554609       0.321005
      13.180000       0.149426       0.553394       0.327762
      13.190000       0.143384       0.551842       0.333634
      13.200000       0.141764       0.549862       0.338468
      13.210000       0.144117       0.547433       0.342091
      13.220000       0.149673       0.544610       0.344324
      13.230000       0.157502       0.541521       0.345026
      13.240000       0.166662       0.538343       0.344139
      13.250000       0.176337       0.535263       0.341743
      13.260000       0.185916       0.532426       0.338082
      13.270000       0.195023       0.529892       0.333561
      13.280000       0.203495       0.527629       0.328709
      13.290000       0.211341       0.525528       0.324105
      13.300000       0.218684       0.523448       0.320281
      13.310000       0.225723       0.521266       0.317654
      13.320000       0.232706       0.518923       0.316470
      13.330000       0.239903       0.516446       0.316807
      13.340000       0.247583       0.513947       0.318598
      13.350000       0.255980       0.511593       0.321670
      13.360000       0.265250       0.509553       0.325785
      13.370000       0.275449       0.507956       0.330676
      13.380000       0.286525       0.506858       0.336072
      13.390000       0.298316       0.506232       0.341722
      13.400000       0.310568       0.505961       0.347415
      13.410000       0.322953       0.505851       0.352990
      13.420000       0.335101       0.505627       0.358346
      13.430000       0.346650       0.504947       0.363434
      13.440000       0.357291       0.503420       0.368247
      13.450000       0.366789       0.500637       0.372804
      13.460000       0.374988       0.496220       0.377133
      13.470000       0.381779       0.489888       0.381265
      13.480000       0.387077       0.481525       0.385223
      13.490000       0.390786       0.471240       0.389028
      13.500000       0.392775       0.459380       0.392697
      13.510000       0.392856       0.446491       0.396243
      13.520000       0.390788       0.433228       0.399675
      13.530000       0.386324       0.420240       0.403013
      13.540000       0.379292       0.408059       0.406295
      13.550000       0.369691       0.397029       0.409602
      13.560000       0.357754       0.387274       0.413057
      13.570000       0.343962       0.378716       0.416820
      13.580000       0.328981       0.371144       0.421056
      13.590000       0.313563       0.364298       0.425897
      13.600000       0.298433       0.357958       0.431406
      13.610000       0.284202       0.352010       0.437566
      13.620000       0.271313       0.346455       0.444271
      13.630000       0.260037       0.341403       0.451353
      13.640000       0.250503       0.337030       0.458605
      13.650000       0.242754       0.333540       0.465811
      13.660000       0.236785       0.331148       0.472776
      13.670000       0.232566       0.330056       0.479346
      13.680000       0.230025       0.330437       0.485418
      13.690000       0.228996       0.332400       0.490941
      13.700000       0.229183       0.335959       0.495907
      13.710000       0.230145       0.341000       0.500340
      13.720000       0.231338       0.347266       0.504287
      13.730000       0.232217       0.354375       0.507803
      13.740000       0.232349       0.361855       0.510950
      13.750000       0.231492       0.369194       0.513790
      13.760000       0.229615       0.375897       0.516395
      13.770000       0.226838       0.381549       0.518849
      13.780000       0.223344       0.385862       0.521261
      13.790000       0.219306       0.388714       0.523767
      13.800000       0.214878       0.390156       0.526533
      13.810000       0.210225       0.390399       0.529742
      13.820000       0.205575       0.389769       0.533563
      13.830000       0.201239       0.388660       0.538121
      13.840000       0.197610       0.387489       0.543472
      13.850000       0.195131       0.386660       0.549596
      13.860000       0.194250       0.386531       0.556405
      13.870000       0.195360       0.387383       0.563771
      13.880000       0.198733       0.389389       0.571556
      13.890000       0.204471       0.392585       0.579627
      13.900000       0.212477       0.396872       0.587870
      13.910000       0.222471       0.402031       0.596188
      13.920000       0.234039       0.407776       0.604496
      13.930000       0.246706       0.413792       0.612714
      13.940000       0.259995       0.419780       0.620762
      13.950000       0.273485       0.425470       0.628560
      13.960000       0.286837       0.430618       0.636035
      13.970000       0.299812       0.434994       0.643129
      13.980000       0.312275       0.438373       0.649812
      13.990000       0.324187       0.440536       0.656084
      14.000000       0.335589       0.441272       0.661975
      14.010000       0.346561       0.440390       0.667522
      14.020000       0.357188       0.437717       0.672762
      14.030000       0.367513       0.433106       0.677716
      14.040000       0.377505       0.426437       0.682393
      14.050000       0.387038       0.417650       0.686801
      14.060000       0.395890       0.406793       0.690946
      14.070000       0.403757       0.394070       0.694838
      14.080000       0.410304       0.379895       0.698472
      14.090000       0.415224       0.364894       0.701821
      14.100000       0.418296       0.349858       0.704834
      14.110000       0.419428       0.335633       0.707447
      14.120000       0.418669       0.322990       0.709595
      14.130000       0.416199       0.312508       0.711222
      14.140000       0.412304       0.304511       0.712285
      14.150000       0.407335       0.299058       0.712746
      14.160000       0.401681       0.295982       0.712555
      14.170000       0.395719       0.294954       0.711650
      14.180000       0.389786       0.295553       0.709948
      14.190000       0.384136       0.297330       0.707355
      14.200000       0.378930       0.299855       0.703773
      14.210000       0.374222       0.302733       0.699097
      14.220000       0.369976       0.305606       0.693230
      14.230000       0.366075       0.308137       0.686079
      14.240000       0.362344       0.309995       0.677576
      14.250000       0.358567       0.310854       0.667692
      14.260000       0.354527       0.310406       0.656465
      14.270000       0.350050       0.308390       0.644015
      14.280000       0.345064       0.304611       0.630538
      14.290000       0.339644       0.298965       0.616300
      14.300000       0.334030       0.291458       0.601599
      14.310000       0.328604       0.282215       0.586736
      14.320000       0.323831       0.271490       0.571984
      14.330000       0.320175       0.259662       0.557565
      14.340000       0.318014       0.247211       0.543641
      14.350000       0.317573       0.234664       0.530320
      14.360000       0.318895       0.222528       0.517682
      14.370000       0.321849       0.211221       0.505794
      14.380000       0.326174       0.201027       0.494721
      14.390000       0.331531       0.192081       0.484518
      14.400000       0.337563       0.184397       0.475202
      14.410000       0.343937       0.177901       0.466727
      14.420000       0.350389       0.172484       0.458969
      14.430000       0.356743       0.168050       0.451745
      14.440000       0.362919       0.164544       0.444832
      14.450000       0.368912       0.161970       0.438014
      14.460000       0.374733       0.160380       0.431121
      14.470000       0.380344       0.159845       0.424070
      14.480000       0.385603       0.160424       0.416893
      14.490000       0.390254       0.162135       0.409748
      14.500000       0.393959       0.164939       0.402897
      14.510000       0.396371       0.168742       0.396663
      14.520000       0.397213       0.173411       0.391361
      14.530000       0.396329       0.178792       0.387239
      14.540000       0.393715       0.184738       0.384441
      14.550000       0.389505       0.191115       0.383010
      14.560000       0.383950       0.197817       0.382910
      14.570000       0.377402       0.204758       0.384061
      14.580000       0.370298       0.211867       0.386365
      14.590000       0.363148       0.219073       0.389720
      14.600000       0.356502       0.226280       0.394018
      14.610000       0.350905       0.233357       0.399138
      14.620000       0.346838       0.240122       0.404951
      14.630000       0.344647       0.246351       0.411319
      14.640000       0.344490       0.251804       0.418101
      14.650000       0.346307       0.256256       0.425159
      14.660000       0.349841       0.259543       0.432356
      14.670000       0.354690       0.261589       0.439560
      14.680000       0.360394       0.262437       0.446658
      14.690000       0.366513       0.262241       0.453563
      14.700000       0.372696       0.261254       0.460234
      14.710000       0.378711       0.259789       0.466678
      14.720000       0.384444       0.258171       0.472939
      14.730000       0.389880       0.256701       0.479081
      14.740000       0.395059       0.255618       0.485161
      14.750000       0.400048       0.255088       0.491210
      14.760000       0.404908       0.255204       0.497223
      14.770000       0.409673       0.255995       0.503156
      14.780000       0.414332       0.257451       0.508936
      14.790000       0.418821       0.259539       0.514475
      14.800000       0.423042       0.262218       0.519686
      14.810000       0.426885       0.265450       0.524514
      14.820000       0.430264       0.269188       0.528954
      14.830000       0.433135       0.273372       0.533067
      14.840000       0.435497       0.277914       0.536971
      14.850000       0.437375       0.282698       0.540823
      14.860000       0.438793       0.287587       0.544783
      14.870000       0.439758       0.292434       0.548977
      14.880000       0.440259       0.297097       0.553478
      14.890000       0.440280       0.301455       0.558288
      14.900000       0.439818       0.305416       0.563356
      14.910000       0.438899       0.308924       0.568592
      14.920000       0.437582       0.311955       0.573894
      14.930000       0.435953       0.314516       0.579167
      14.940000       0.434122       0.316632       0.584345
      14.950000       0.432222       0.318338       0.589396
      14.960000       0.430413       0.319672       0.594326
      14.970000       0.428891       0.320668       0.599171
      14.980000       0.427878       0.321358       0.603983
      14.990000       0.427600       0.321782       0.608820
      15.000000       0.428254       0.322003       0.613739
      15.010000       0.429969       0.322121       0.618790
      15.020000       0.432776       0.322277       0.624016
      15.030000       0.436603       0.322636       0.629450
      15.040000       0.441276       0.323364       0.635110
      15.050000       0.446554       0.324602       0.641005
      15.060000       0.452162       0.326450       0.647124
      15.070000       0.457837       0.328952       0.653446
      15.080000       0.463358       0.332097       0.659941
      15.090000       0.468561       0.335818       0.666575
      15.100000       0.473338       0.339997       0.673315
      15.110000       0.477619       0.344478       0.680133
      15.120000       0.481350       0.349078       0.687006
      15.130000       0.484460       0.353604       0.693915
      15.140000       0.486852       0.357882       0.700846
      15.150000       0.488415       0.361785       0.707787
      15.160000       0.489048       0.365254       0.714728
      15.170000       0.488694       0.368309       0.721658
      15.180000       0.487364       0.371035       0.728567
      15.190000       0.485140       0.373548       0.735451
      15.200000       0.482165       0.375953       0.742312
      15.210000       0.478618       0.378304       0.749160
      15.220000       0.474705       0.380589       0.756015
      15.230000       0.470653       0.382727       0.762902
      15.240000       0.466703       0.384587       0.769854
      15.250000       0.463095       0.386012       0.776894
      15.260000       0.460026       0.386856       0.784030
      15.270000       0.457613       0.387005       0.791233
      15.280000       0.455869       0.386399       0.798436
      15.290000       0.454705       0.385043       0.805528
      15.300000       0.453960       0.382996       0.812371
      15.310000       0.453427       0.380357       0.818827
      15.320000       0.452882       0.377235       0.824783
      15.330000       0.452096       0.373727       0.830177
      15.340000       0.450840       0.369912       0.834995
      15.350000       0.448892       0.365853       0.839264
      15.360000       0.446056       0.361626       0.843023
      15.370000       0.442181       0.357334       0.846288
      15.380000       0.437203       0.353131       0.849029
      15.390000       0.431188       0.349210       0.851161
      15.400000       0.424375       0.345794       0.852553
      15.410000       0.417170       0.343100       0.853059
      15.420000       0.410102       0.341312       0.852555
      15.430000       0.403720       0.340544       0.850967
      15.440000       0.398480       0.340828       0.848274
      15.450000       0.394657       0.342111       0.844490
      15.460000       0.392306       0.344267       0.839627
      15.470000       0.391280       0.347127       0.833662
      15.480000       0.391284       0.350508       0.826524
      15.490000       0.391947       0.354238       0.818113
      15.500000       0.392900       0.358175       0.808332
      15.510000       0.393847       0.362207       0.797140
      15.520000       0.394609       0.366256       0.784581
      15.530000       0.395143       0.370267       0.770790
      15.540000       0.395533       0.374201       0.755969
      15.550000       0.395944       0.378030       0.740346
      15.560000       0.396565       0.381731       0.724134
      15.570000       0.397551       0.385291       0.707488
      15.580000       0.398965       0.388697       0.690495
      15.590000       0.400760       0.391935       0.673166
      15.600000       0.402782       0.394986       0.655451
      15.610000       0.404810       0.397821       0.637253
      15.620000       0.406600       0.400407       0.618461
      15.630000       0.407939       0.402712       0.598991
      15.640000       0.408680       0.404709       0.578827
      15.650000       0.408767       0.406381       0.558056
      15.660000       0.408251       0.407724       0.536881
      15.670000       0.407284       0.408745       0.515608
      15.680000       0.406109       0.409478       0.494596
      15.690000       0.405034       0.409982       0.474209
      15.700000       0.404384       0.410342       0.454768
      15.710000       0.404449       0.410667       0.436523
      15.720000       0.405433       0.411063       0.419644
      15.730000       0.407428       0.411625       0.404226
      15.740000       0.410405       0.412413       0.390310
      15.750000       0.414240       0.413450       0.377895
      15.760000       0.418738       0.414719       0.366946
      15.770000       0.423674       0.416171       0.357409
      15.780000       0.428819       0.417735       0.349206
      15.790000       0.433959       0.419324       0.342247
      15.800000       0.438898       0.420852       0.336436
      15.810000       0.443462       0.422238       0.331672
      15.820000       0.447490       0.423427       0.327855
      15.830000       0.450845       0.424399       0.324880
      15.840000       0.453407       0.425173       0.322633
      15.850000       0.455092       0.425810       0.320991
      15.860000       0.455856       0.426394       0.319822
      15.870000       0.455722       0.427018       0.318991
      15.880000       0.454804       0.427765       0.318363
      15.890000       0.453319       0.428696       0.317809
      15.900000       0.451576       0.429839       0.317209
      15.910000       0.449928       0.431194       0.316456
      15.920000       0.448706       0.432739       0.315459
      15.930000       0.448158       0.434442       0.314145
      15.940000       0.448402       0.436270       0.312462
      15.950000       0.449423       0.438193       0.310383
      15.960000       0.451085       0.440175       0.307915
      15.970000       0.453179       0.442177       0.305107
      15.980000       0.455470       0.444139       0.302061
      15.990000       0.457750       0.445995       0.298935
      16.000000       0.459870       0.447675       0.295938
      16.010000       0.461752       0.449120       0.293313
      16.020000       0.463369       0.450300       0.291314
      16.030000       0.464711       0.451217       0.290178
      16.040000       0.465754       0.451903       0.290101
      16.050000       0.466447       0.452419       0.291217
      16.060000       0.466716       0.452841       0.293585
      16.070000       0.466491       0.453249       0.297190
      16.080000       0.465729       0.453721       0.301945
      16.090000       0.464437       0.454317       0.307712
      16.100000       0.462668       0.455075       0.314323
      16.110000       0.460512       0.456008       0.321595
      16.120000       0.458053       0.457107       0.329347
      16.130000       0.455345       0.458354       0.337411
      16.140000       0.452390       0.459719       0.345636
      16.150000       0.449158       0.461179       0.353899
      16.160000       0.445640       0.462711       0.362102
      16.170000       0.441900       0.464299       0.370185
      16.180000       0.438116       0.465938       0.378117
      16.190000       0.434573       0.467621       0.385898
      16.200000       0.431611       0.469346       0.393546
      16.210000       0.429552       0.471100       0.401084
      16.220000       0.428622       0.472851       0.408530
      16.230000       0.428903       0.474545       0.415889
      16.240000       0.430325       0.476105       0.423154
      16.250000       0.432694       0.477442       0.430300
      16.260000       0.435750       0.478481       0.437297
      16.270000       0.439218       0.479179       0.444105
      16.280000       0.442859       0.479547       0.450688
      16.290000       0.446488       0.479649       0.457011
      16.300000       0.449972       0.479596       0.463050
      16.310000       0.453212       0.479508       0.468791
      16.320000       0.456120       0.479496       0.474229
      16.330000       0.458596       0.479629       0.479363
      16.340000       0.460522       0.479927       0.484190
      16.350000       0.461759       0.480363       0.488701
      16.360000       0.462169       0.480874       0.492877
      16.370000       0.461648       0.481387       0.496700
      16.380000       0.460155       0.481836       0.500159
      16.390000       0.457749       0.482176       0.503262
      16.400000       0.454590       0.482396       0.506039
      16.410000       0.450932       0.482507       0.508547
      16.420000       0.447087       0.482540       0.510859
      16.430000       0.443376       0.482539       0.513058
      16.440000       0.440084       0.482548       0.515221
      16.450000       0.437425       0.482607       0.517414
      16.460000       0.435525       0.482747       0.519689
      16.470000       0.434432       0.482981       0.522081
      16.480000       0.434142       0.483311       0.524615
      16.490000       0.434610       0.483731       0.527305
      16.500000       0.435770       0.484229       0.530156
      16.510000       0.437539       0.484790       0.533162
      16.520000       0.439822       0.485388       0.536307
      16.530000       0.442525       0.485988       0.539557
      16.540000       0.445565       0.486538       0.542866
      16.550000       0.448875       0.486983       0.546177
      16.560000       0.452396       0.487278       0.549435
      16.570000       0.456066       0.487404       0.552592
      16.580000       0.459798       0.487371       0.555610
      16.590000       0.463469       0.487213       0.558462
      16.600000       0.466920       0.486976       0.561125
      16.610000       0.469976       0.486695       0.563583
      16.620000       0.472481       0.486394       0.565826
      16.630000       0.474334       0.486083       0.567853
      16.640000       0.475517       0.485774       0.569680
      16.650000       0.476095       0.485483       0.571340
      16.660000       0.476191       0.485238       0.572882
      16.670000       0.475937       0.485064       0.574366
      16.680000       0.475430       0.484981       0.575854
      16.690000       0.474710       0.484994       0.577398
      16.700000       0.473754       0.485094       0.579042
      16.710000       0.472503       0.485262       0.580813
      16.720000       0.470891       0.485479       0.582731
      16.730000       0.468866       0.485727       0.584807
      16.740000       0.466414       0.485990       0.587042
      16.750000       0.463555       0.486260       0.589433
      16.760000       0.460354       0.486535       0.591972
      16.770000       0.456904       0.486828       0.594641
      16.780000       0.453321       0.487170       0.597417
      16.790000       0.449728       0.487613       0.600262
      16.800000       0.446249       0.488219       0.603125
      16.810000       0.443014       0.489052       0.605939
      16.820000       0.440167       0.490164       0.608629
      16.830000       0.437881       0.491582       0.611121
      16.840000       0.436339       0.493301       0.613350
      16.850000       0.435711       0.495282       0.615267
      16.860000       0.436110       0.497458       0.616842
      16.870000       0.437564       0.499741       0.618058
      16.880000       0.440005       0.502030       0.618908
      16.890000       0.443281       0.504228       0.619397
      16.900000       0.447189       0.506247       0.619536
      16.910000       0.451502       0.508018       0.619348
      16.920000       0.455995       0.509493       0.618870
      16.930000       0.460455       0.510644       0.618157
      16.940000       0.464691       0.511469       0.617287
      16.950000       0.468543       0.511988       0.616354
      16.960000       0.471892       0.512247       0.615467
      16.970000       0.474673       0.512315       0.614732
      16.980000       0.476886       0.512275       0.614243
      16.990000       0.478593       0.512213       0.614069
      17.000000       0.479901       0.512206       0.614247
      17.010000       0.480941       0.512317       0.614785
      17.020000       0.481844       0.512587       0.615667
      17.030000       0.482728       0.513038       0.616863
      17.040000       0.483699       0.513673       0.618337
      17.050000       0.484842       0.514479       0.620059
      17.060000       0.486226       0.515432       0.622005
      17.070000       0.487888       0.516507       0.624160
      17.080000       0.489830       0.517678       0.626508
      17.090000       0.492017       0.518924       0.629031
      17.100000       0.494377       0.520231       0.631701
      17.110000       0.496815       0.521587       0.634479
      17.120000       0.499211       0.522975       0.637318
      17.130000       0.501430       0.524371       0.640169
      17.140000       0.503324       0.525744       0.642981
      17.150000       0.504741       0.527050       0.645702
      17.160000       0.505548       0.528241       0.648286
      17.170000       0.505653       0.529267       0.650691
      17.180000       0.505024       0.530080       0.652876
      17.190000       0.503699       0.530640       0.654805
      17.200000       0.501791       0.530919       0.656445
      17.210000       0.499477       0.530912       0.657772
      17.220000       0.496991       0.530635       0.658772
      17.230000       0.494600       0.530131       0.659450
      17.240000       0.492569       0.529463       0.659830
      17.250000       0.491125       0.528715       0.659954
      17.260000       0.490423       0.527975       0.659888
      17.270000       0.490527       0.527328       0.659712
      17.280000       0.491409       0.526841       0.659516
      17.290000       0.492964       0.526548       0.659396
      17.300000       0.495032       0.526452       0.659441
      17.310000       0.497423       0.526523       0.659724
      17.320000       0.499943       0.526715       0.660295
      17.330000       0.502414       0.526975       0.661169
      17.340000       0.504694       0.527265       0.662330
      17.350000       0.506704       0.527563       0.663732
      17.360000       0.508435       0.527874       0.665315
      17.370000       0.509953       0.528221       0.667009
      17.380000       0.511376       0.528638       0.668751
      17.390000       0.512850       0.529159       0.670490
      17.400000       0.514505       0.529805       0.672192
      17.410000       0.516433       0.530576       0.673847
      17.420000       0.518675       0.531452       0.675462
      17.430000       0.521218       0.532395       0.677058
      17.440000       0.524003       0.533360       0.678664
      17.450000       0.526927       0.534299       0.680304
      17.460000       0.529856       0.535178       0.681991
      17.470000       0.532629       0.535975       0.683729
      17.480000       0.535072       0.536690       0.685514
      17.490000       0.537007       0.537337       0.687337
      17.500000       0.538267       0.537933       0.689190
      17.510000       0.538708       0.538488       0.691067
      17.520000       0.538223       0.539001       0.692964
      17.530000       0.536752       0.539453       0.694874
      17.540000       0.534293       0.539819       0.696786
      17.550000       0.530897       0.540081       0.698681
      17.560000       0.526663       0.540233       0.700536
      17.570000       0.521738       0.540291       0.702328
      17.580000       0.516308       0.540289       0.704029
      17.590000       0.510602       0.540275       0.705616
      17.600000       0.504877       0.540301       0.707062
      17.610000       0.499409       0.540418       0.708347
      17.620000       0.494448       0.540673       0.709461
      17.630000       0.490188       0.541105       0.710411
      17.640000       0.486727       0.541742       0.711227
      17.650000       0.484061       0.542598       0.711962
      17.660000       0.482090       0.543661       0.712684
      17.670000       0.480653       0.544902       0.713460
      17.680000       0.479578       0.546266       0.714342
      17.690000       0.478721       0.547690       0.715354
      17.700000       0.478004       0.549109       0.716486
      17.710000       0.477421       0.550464       0.717703
      17.720000       0.477022       0.551709       0.718949
      17.730000       0.476873       0.552807       0.720169
      17.740000       0.477026       0.553731       0.721318
      17.750000       0.477484       0.554468       0.722374
      17.760000       0.478199       0.555015       0.723345
      17.770000       0.479083       0.555391       0.724264
      17.780000       0.480023       0.555626       0.725187
      17.790000       0.480902       0.555764       0.726178
      17.800000       0.481613       0.555846       0.727291
      17.810000       0.482079       0.555907       0.728566
      17.820000       0.482252       0.555970       0.730016
      17.830000       0.482122       0.556046       0.731635
      17.840000       0.481712       0.556145       0.733399
      17.850000       0.481083       0.556274       0.735279
      17.860000       0.480329       0.556449       0.737239
      17.870000       0.479567       0.556688       0.739248
      17.880000       0.478932       0.557008       0.741276
      17.890000       0.478554       0.557418       0.743294
      17.900000       0.478540       0.557915       0.745277
      17.910000       0.478962       0.558489       0.747205
      17.920000       0.479841       0.559130       0.749061
      17.930000       0.481148       0.559834       0.750835
      17.940000       0.482814       0.560602       0.752525
      17.950000       0.484744       0.561442       0.754133
      17.960000       0.486843       0.562363       0.755662
      17.970000       0.489028       0.563367       0.757115
      17.980000       0.491241       0.564450       0.758495
      17.990000       0.493456       0.565602       0.759803
      18.000000       0.495668       0.566812       0.761050
      18.010000       0.497890       0.568073       0.762248
      18.020000       0.500142       0.569383       0.763422
      18.030000       0.502446       0.570747       0.764601
      18.040000       0.504819       0.572175       0.765816
      18.050000       0.507277       0.573673       0.767098
      18.060000       0.509827       0.575237       0.768470
      18.070000       0.512468       0.576853       0.769954
      18.080000       0.515189       0.578497       0.771567
      18.090000       0.517977       0.580132       0.773327
      18.100000       0.520816       0.581722       0.775258
      18.110000       0.523699       0.583228       0.777383
      18.120000       0.526629       0.584620       0.779725
      18.130000       0.529622       0.585873       0.782295
      18.140000       0.532691       0.586967       0.785098
      18.150000       0.535845       0.587890       0.788122
      18.160000       0.539081       0.588635       0.791343
      18.170000       0.542382       0.589202       0.794729
      18.180000       0.545720       0.589595       0.798244
      18.190000       0.549062       0.589822       0.801853
      18.200000       0.552366       0.589885       0.805525
      18.210000       0.555588       0.589776       0.809237
      18.220000       0.558676       0.589477       0.812974
      18.230000       0.561580       0.588962       0.816724
      18.240000       0.564253       0.588212       0.820481
      18.250000       0.566661       0.587227       0.824238
      18.260000       0.568785       0.586035       0.827987
      18.270000       0.570619       0.584694       0.831719
      18.280000       0.572162       0.583275       0.835425
      18.290000       0.573413       0.581851       0.839094
      18.300000       0.574364       0.580482       0.842719
      18.310000       0.574998       0.579209       0.846292
      18.320000       0.575285       0.578048       0.849805
      18.330000       0.575192       0.577003       0.853248
      18.340000       0.574682       0.576068       0.856607
      18.350000       0.573720       0.575234       0.859867
      18.360000       0.572280       0.574493       0.863007
      18.370000       0.570345       0.573844       0.866008
      18.380000       0.567924       0.573287       0.868851
      18.390000       0.565055       0.572829       0.871518
      18.400000       0.561815       0.572479       0.873994
      18.410000       0.558321       0.572247       0.876260
      18.420000       0.554721       0.572147       0.878304
      18.430000       0.551178       0.572195       0.880118
      18.440000       0.547847       0.572407       0.881714
      18.450000       0.544865       0.572796       0.883130
      18.460000       0.542341       0.573369       0.884428
      18.470000       0.540355       0.574125       0.885688
      18.480000       0.538955       0.575048       0.886994
      18.490000       0.538154       0.576115       0.888420
      18.500000       0.537931       0.577296       0.890020
      18.510000       0.538241       0.578558       0.891823
      18.520000       0.539026       0.579870       0.893836
      18.530000       0.540230       0.581209       0.896045
      18.540000       0.541796       0.582555       0.898430
      18.550000       0.543669       0.583900       0.900967
      18.560000       0.545779       0.585236       0.903633
      18.570000       0.548039       0.586561       0.906405
      18.580000       0.550349       0.587869       0.909255
      18.590000       0.552597       0.589153       0.912144
      18.600000       0.554682       0.590401       0.915023
      18.610000       0.556523       0.591599       0.917835
      18.620000       0.558081       0.592726       0.920524
      18.630000       0.559357       0.593760       0.923038
      18.640000       0.560396       0.594681       0.925338
      18.650000       0.561265       0.595472       0.927398
      18.660000       0.562036       0.596121       0.929198
      18.670000       0.562769       0.596628       0.930721
      18.680000       0.563504       0.597005       0.931932
      18.690000       0.564261       0.597278       0.932773
      18.700000       0.565053       0.597481       0.933153
      18.710000       0.565885       0.597658       0.932964
      18.720000       0.566762       0.597847       0.932096
      18.730000       0.567681       0.598083       0.930457
      18.740000       0.568623       0.598387       0.927996
      18.750000       0.569553       0.598768       0.924704
      18.760000       0.570427       0.599222       0.920617
      18.770000       0.571206       0.599737       0.915806
      18.780000       0.571867       0.600293       0.910381
      18.790000       0.572411       0.600869       0.904479
      18.800000       0.572856       0.601441       0.898269
      18.810000       0.573225       0.601989       0.891937
      18.820000       0.573532       0.602495       0.885668
      18.830000       0.573779       0.602942       0.879613
      18.840000       0.573958       0.603321       0.873859
      18.850000       0.574055       0.603628       0.868415
      18.860000       0.574061       0.603868       0.863204
      18.870000       0.573967       0.604052       0.858082
      18.880000       0.573777       0.604200       0.852876
      18.890000       0.573506       0.604335       0.847413
      18.900000       0.573182       0.604479       0.841551
      18.910000       0.572841       0.604650       0.835192
      18.920000       0.572519       0.604862       0.828281
      18.930000       0.572237       0.605121       0.820803
      18.940000       0.572001       0.605430       0.812790
      18.950000       0.571802       0.605786       0.804336
      18.960000       0.571625       0.606185       0.795603
      18.970000       0.571460       0.606620       0.786821
      18.980000       0.571305       0.607079       0.778267
      18.990000       0.571172       0.607549       0.770221
      19.000000       0.571086       0.608008       0.762922
      19.010000       0.571079       0.608437       0.756525
      19.020000       0.571187       0.608816       0.751082
      19.030000       0.571446       0.609135       0.746539
      19.040000       0.571888       0.609396       0.742767
      19.050000       0.572536       0.609611       0.739596
      19.060000       0.573405       0.609804       0.736864
      19.070000       0.574497       0.610004       0.734444
      19.080000       0.575804       0.610238       0.732268
      19.090000       0.577309       0.610531       0.730329
      19.100000       0.578993       0.610903       0.728668
      19.110000       0.580833       0.611374       0.727344
      19.120000       0.582813       0.611957       0.726409
      19.130000       0.584915       0.612665       0.725879
      19.140000       0.587123       0.613504       0.725724
      19.150000       0.589416       0.614472       0.725868
      19.160000       0.591764       0.615556       0.726196
      19.170000       0.594130       0.616733       0.726571
      19.180000       0.596475       0.617970       0.726853
      19.190000       0.598767       0.619227       0.726907
      19.200000       0.600980       0.620461       0.726615
      19.210000       0.603106       0.621633       0.725878
      19.220000       0.605150       0.622709       0.724627
      19.230000       0.607128       0.623671       0.722828
      19.240000       0.609065       0.624511       0.720496
      19.250000       0.610989       0.625236       0.717701
      19.260000       0.612931       0.625862       0.714577
      19.270000       0.614920       0.626408       0.711308
      19.280000       0.616980       0.626889       0.708116
      19.290000       0.619126       0.627320       0.705228
      19.300000       0.621363       0.627709       0.702847
      19.310000       0.623684       0.628063       0.701133
      19.320000       0.626073       0.628391       0.700184
      19.330000       0.628502       0.628706       0.700031
      19.340000       0.630935       0.629027       0.700646
      19.350000       0.633327       0.629375       0.701945
      19.360000       0.635627       0.629772       0.703805
      19.370000       0.637782       0.630238       0.706078
      19.380000       0.639742       0.630785       0.708608
      19.390000       0.641467       0.631414       0.711241
      19.400000       0.642933       0.632120       0.713844
      19.410000       0.644135       0.632884       0.716309
      19.420000       0.645090       0.633684       0.718558
      19.430000       0.645834       0.634496       0.720541
      19.440000       0.646412       0.635296       0.722230
      19.450000       0.646872       0.636070       0.723616
      19.460000       0.647251       0.636807       0.724706
      19.470000       0.647564       0.637505       0.725519
      19.480000       0.647800       0.638167       0.726081
      19.490000       0.647920       0.638800       0.726421
      19.500000       0.647869       0.639408       0.726569
      19.510000       0.647583       0.639996       0.726548
      19.520000       0.646999       0.640566       0.726384
      19.530000       0.646060       0.641120       0.726093
      19.540000       0.644714       0.641660       0.725694
      19.550000       0.642913       0.642193       0.725202
      19.560000       0.640621       0.642730       0.724638
      19.570000       0.637814       0.643280       0.724031
      19.580000       0.634490       0.643854       0.723427
      19.590000       0.630678       0.644451       0.722888
      19.600000       0.626446       0.645064       0.722494
      19.610000       0.621898       0.645669       0.722336
      19.620000       0.617183       0.646233       0.722504
      19.630000       0.612481       0.646712       0.723082
      19.640000       0.607987       0.647058       0.724134
      19.650000       0.603896       0.647224       0.725694
      19.660000       0.600374       0.647172       0.727761
      19.670000       0.597543       0.646877       0.730299
      19.680000       0.595461       0.646331       0.733235
      19.690000       0.594125       0.645540       0.736468
      19.700000       0.593481       0.644527       0.739877
      19.710000       0.593437       0.643323       0.743328
      19.720000       0.593882       0.641972       0.746693
      19.730000       0.594703       0.640521       0.749857
      19.740000       0.595791       0.639021       0.752737
      19.750000       0.597053       0.637525       0.755278
      19.760000       0.598416       0.636086       0.757459
      19.770000       0.599830       0.634754       0.759285
      19.780000       0.601265       0.633571       0.760776
      19.790000       0.602712       0.632572       0.761969
      19.800000       0.604174       0.631784       0.762910
      19.810000       0.605658       0.631224       0.763651
      19.820000       0.607178       0.630900       0.764239
      19.830000       0.608744       0.630809       0.764708
      19.840000       0.610369       0.630941       0.765077
      19.850000       0.612067       0.631273       0.765347
      19.860000       0.613849       0.631776       0.765511
      19.870000       0.615722       0.632416       0.765563
      19.880000       0.617687       0.633156       0.765505
      19.890000       0.619740       0.633961       0.765338
      19.900000       0.621868       0.634802       0.765066
      19.910000       0.624056       0.635652       0.764679
      19.920000       0.626290       0.636493       0.764153
      19.930000       0.628558       0.637313       0.763447
      19.940000       0.630853       0.638099       0.762511
      19.950000       0.633174       0.638840       0.761305
      19.960000       0.635519       0.639525       0.759817
      19.970000       0.637883       0.640137       0.758083
      19.980000       0.640255       0.640662       0.756195
      19.990000       0.642621       0.641084       0.754296
      20.000000       0.644962       0.641393       0.752556
