  # energy grid [eV]     epsi_x  epsi_y  epsi_z
       0.000000            NaN            NaN            NaN
       0.010000       0.000099       0.000027       0.000142
       0.020000       0.000198       0.000055       0.000285
       0.030000       0.000298       0.000082       0.000428
       0.040000       0.000397       0.000109       0.000571
       0.050000       0.000496       0.000136       0.000715
       0.060000       0.000595       0.000164       0.000860
       0.070000       0.000695       0.000191       0.001006
       0.080000       0.000794       0.000218       0.001153
       0.090000       0.000894       0.000246       0.001301
       0.100000       0.000993       0.000273       0.001450
       0.110000       0.001092       0.000300       0.001601
       0.120000       0.001192       0.000328       0.001754
       0.130000       0.001292       0.000355       0.001909
       0.140000       0.001391       0.000382       0.002066
       0.150000       0.001491       0.000410       0.002226
       0.160000       0.001591       0.000437       0.002388
       0.170000       0.001691       0.000464       0.002553
       0.180000       0.001790       0.000492       0.002722
       0.190000       0.001890       0.000519       0.002894
       0.200000       0.001991       0.000547       0.003070
       0.210000       0.002091       0.000574       0.003251
       0.220000       0.002191       0.000601       0.003435
       0.230000       0.002291       0.000629       0.003625
       0.240000       0.002392       0.000656       0.003821
       0.250000       0.002493       0.000684       0.004022
       0.260000       0.002593       0.000711       0.004230
       0.270000       0.002694       0.000739       0.004445
       0.280000       0.002795       0.000766       0.004667
       0.290000       0.002896       0.000794       0.004899
       0.300000       0.002997       0.000821       0.005139
       0.310000       0.003099       0.000849       0.005389
       0.320000       0.003200       0.000877       0.005651
       0.330000       0.003302       0.000904       0.005924
       0.340000       0.003404       0.000932       0.006211
       0.350000       0.003506       0.000960       0.006513
       0.360000       0.003608       0.000987       0.006831
       0.370000       0.003710       0.001015       0.007167
       0.380000       0.003813       0.001043       0.007522
       0.390000       0.003916       0.001071       0.007900
       0.400000       0.004018       0.001098       0.008302
       0.410000       0.004121       0.001126       0.008731
       0.420000       0.004225       0.001154       0.009191
       0.430000       0.004328       0.001182       0.009684
       0.440000       0.004432       0.001210       0.010216
       0.450000       0.004536       0.001238       0.010790
       0.460000       0.004640       0.001266       0.011413
       0.470000       0.004744       0.001294       0.012090
       0.480000       0.004849       0.001322       0.012829
       0.490000       0.004953       0.001350       0.013637
       0.500000       0.005058       0.001378       0.014525
       0.510000       0.005164       0.001406       0.015504
       0.520000       0.005269       0.001434       0.016585
       0.530000       0.005375       0.001463       0.017783
       0.540000       0.005481       0.001491       0.019114
       0.550000       0.005587       0.001519       0.020597
       0.560000       0.005694       0.001548       0.022252
       0.570000       0.005801       0.001576       0.024100
       0.580000       0.005908       0.001604       0.026165
       0.590000       0.006015       0.001633       0.028468
       0.600000       0.006123       0.001661       0.031027
       0.610000       0.006231       0.001690       0.033856
       0.620000       0.006339       0.001718       0.036954
       0.630000       0.006448       0.001747       0.040298
       0.640000       0.006557       0.001776       0.043836
       0.650000       0.006666       0.001804       0.047475
       0.660000       0.006776       0.001833       0.051069
       0.670000       0.006886       0.001862       0.054422
       0.680000       0.006996       0.001891       0.057300
       0.690000       0.007107       0.001920       0.059458
       0.700000       0.007218       0.001949       0.060691
       0.710000       0.007329       0.001978       0.060877
       0.720000       0.007441       0.002007       0.060011
       0.730000       0.007553       0.002036       0.058209
       0.740000       0.007665       0.002065       0.055672
       0.750000       0.007778       0.002094       0.052644
       0.760000       0.007892       0.002123       0.049361
       0.770000       0.008005       0.002153       0.046024
       0.780000       0.008119       0.002182       0.042780
       0.790000       0.008234       0.002212       0.039727
       0.800000       0.008349       0.002241       0.036922
       0.810000       0.008464       0.002271       0.034387
       0.820000       0.008580       0.002300       0.032126
       0.830000       0.008696       0.002330       0.030127
       0.840000       0.008813       0.002360       0.028371
       0.850000       0.008930       0.002389       0.026838
       0.860000       0.009048       0.002419       0.025506
       0.870000       0.009166       0.002449       0.024353
       0.880000       0.009285       0.002479       0.023359
       0.890000       0.009404       0.002509       0.022507
       0.900000       0.009524       0.002539       0.021780
       0.910000       0.009644       0.002570       0.021166
       0.920000       0.009764       0.002600       0.020651
       0.930000       0.009886       0.002630       0.020227
       0.940000       0.010007       0.002661       0.019884
       0.950000       0.010129       0.002691       0.019614
       0.960000       0.010252       0.002722       0.019413
       0.970000       0.010376       0.002752       0.019273
       0.980000       0.010500       0.002783       0.019193
       0.990000       0.010624       0.002814       0.019167
       1.000000       0.010749       0.002844       0.019193
       1.010000       0.010875       0.002875       0.019270
       1.020000       0.011001       0.002906       0.019396
       1.030000       0.011128       0.002938       0.019571
       1.040000       0.011256       0.002969       0.019793
       1.050000       0.011384       0.003000       0.020065
       1.060000       0.011513       0.003031       0.020386
       1.070000       0.011642       0.003063       0.020758
       1.080000       0.011772       0.003094       0.021184
       1.090000       0.011903       0.003126       0.021666
       1.100000       0.012035       0.003157       0.022208
       1.110000       0.012167       0.003189       0.022814
       1.120000       0.012300       0.003221       0.023489
       1.130000       0.012434       0.003253       0.024239
       1.140000       0.012568       0.003285       0.025071
       1.150000       0.012703       0.003317       0.025995
       1.160000       0.012839       0.003349       0.027018
       1.170000       0.012975       0.003382       0.028154
       1.180000       0.013113       0.003414       0.029414
       1.190000       0.013251       0.003447       0.030815
       1.200000       0.013390       0.003479       0.032373
       1.210000       0.013530       0.003512       0.034110
       1.220000       0.013670       0.003545       0.036049
       1.230000       0.013812       0.003578       0.038217
       1.240000       0.013954       0.003611       0.040645
       1.250000       0.014097       0.003644       0.043367
       1.260000       0.014241       0.003677       0.046421
       1.270000       0.014386       0.003711       0.049850
       1.280000       0.014532       0.003744       0.053697
       1.290000       0.014679       0.003778       0.058004
       1.300000       0.014827       0.003811       0.062808
       1.310000       0.014975       0.003845       0.068136
       1.320000       0.015125       0.003879       0.073990
       1.330000       0.015275       0.003913       0.080337
       1.340000       0.015427       0.003947       0.087089
       1.350000       0.015579       0.003982       0.094089
       1.360000       0.015733       0.004016       0.101089
       1.370000       0.015888       0.004051       0.107756
       1.380000       0.016043       0.004085       0.113684
       1.390000       0.016200       0.004120       0.118440
       1.400000       0.016358       0.004155       0.121633
       1.410000       0.016517       0.004190       0.122981
       1.420000       0.016677       0.004225       0.122375
       1.430000       0.016838       0.004261       0.119899
       1.440000       0.017000       0.004296       0.115806
       1.450000       0.017164       0.004332       0.110471
       1.460000       0.017328       0.004367       0.104319
       1.470000       0.017494       0.004403       0.097756
       1.480000       0.017661       0.004439       0.091130
       1.490000       0.017830       0.004475       0.084702
       1.500000       0.017999       0.004512       0.078648
       1.510000       0.018170       0.004548       0.073072
       1.520000       0.018343       0.004585       0.068018
       1.530000       0.018516       0.004622       0.063492
       1.540000       0.018691       0.004659       0.059474
       1.550000       0.018868       0.004696       0.055931
       1.560000       0.019045       0.004733       0.052822
       1.570000       0.019225       0.004770       0.050104
       1.580000       0.019405       0.004808       0.047736
       1.590000       0.019587       0.004845       0.045680
       1.600000       0.019771       0.004883       0.043902
       1.610000       0.019956       0.004921       0.042371
       1.620000       0.020143       0.004960       0.041060
       1.630000       0.020331       0.004998       0.039947
       1.640000       0.020521       0.005037       0.039011
       1.650000       0.020712       0.005075       0.038235
       1.660000       0.020905       0.005114       0.037605
       1.670000       0.021100       0.005153       0.037110
       1.680000       0.021296       0.005193       0.036738
       1.690000       0.021495       0.005232       0.036483
       1.700000       0.021695       0.005272       0.036338
       1.710000       0.021896       0.005312       0.036298
       1.720000       0.022100       0.005352       0.036360
       1.730000       0.022305       0.005392       0.036522
       1.740000       0.022513       0.005432       0.036782
       1.750000       0.022722       0.005473       0.037141
       1.760000       0.022933       0.005514       0.037602
       1.770000       0.023147       0.005555       0.038166
       1.780000       0.023362       0.005596       0.038838
       1.790000       0.023579       0.005638       0.039623
       1.800000       0.023799       0.005679       0.040529
       1.810000       0.024021       0.005721       0.041565
       1.820000       0.024244       0.005763       0.042741
       1.830000       0.024471       0.005806       0.044069
       1.840000       0.024699       0.005848       0.045566
       1.850000       0.024930       0.005891       0.047248
       1.860000       0.025163       0.005934       0.049136
       1.870000       0.025398       0.005977       0.051254
       1.880000       0.025636       0.006021       0.053631
       1.890000       0.025876       0.006065       0.056298
       1.900000       0.026119       0.006109       0.059293
       1.910000       0.026364       0.006153       0.062657
       1.920000       0.026613       0.006198       0.066439
       1.930000       0.026863       0.006242       0.070690
       1.940000       0.027117       0.006287       0.075467
       1.950000       0.027373       0.006333       0.080828
       1.960000       0.027632       0.006378       0.086830
       1.970000       0.027894       0.006424       0.093521
       1.980000       0.028160       0.006470       0.100935
       1.990000       0.028428       0.006517       0.109070
       2.000000       0.028699       0.006564       0.117881
       2.010000       0.028973       0.006611       0.127253
       2.020000       0.029251       0.006658       0.136985
       2.030000       0.029531       0.006706       0.146781
       2.040000       0.029816       0.006753       0.156253
       2.050000       0.030103       0.006802       0.164953
       2.060000       0.030394       0.006850       0.172419
       2.070000       0.030689       0.006899       0.178235
       2.080000       0.030987       0.006948       0.182089
       2.090000       0.031289       0.006998       0.183801
       2.100000       0.031595       0.007048       0.183340
       2.110000       0.031905       0.007098       0.180804
       2.120000       0.032219       0.007149       0.176399
       2.130000       0.032536       0.007199       0.170409
       2.140000       0.032858       0.007251       0.163169
       2.150000       0.033184       0.007302       0.155037
       2.160000       0.033515       0.007354       0.146376
       2.170000       0.033850       0.007407       0.137524
       2.180000       0.034189       0.007459       0.128777
       2.190000       0.034533       0.007513       0.120372
       2.200000       0.034882       0.007566       0.112480
       2.210000       0.035236       0.007620       0.105208
       2.220000       0.035595       0.007675       0.098608
       2.230000       0.035959       0.007729       0.092689
       2.240000       0.036328       0.007785       0.087430
       2.250000       0.036702       0.007840       0.082794
       2.260000       0.037082       0.007896       0.078733
       2.270000       0.037468       0.007953       0.075194
       2.280000       0.037859       0.008010       0.072129
       2.290000       0.038257       0.008067       0.069489
       2.300000       0.038660       0.008125       0.067231
       2.310000       0.039070       0.008184       0.065317
       2.320000       0.039486       0.008243       0.063714
       2.330000       0.039908       0.008302       0.062393
       2.340000       0.040337       0.008362       0.061331
       2.350000       0.040773       0.008422       0.060507
       2.360000       0.041217       0.008483       0.059904
       2.370000       0.041667       0.008545       0.059510
       2.380000       0.042125       0.008607       0.059315
       2.390000       0.042591       0.008670       0.059311
       2.400000       0.043065       0.008733       0.059495
       2.410000       0.043547       0.008797       0.059865
       2.420000       0.044037       0.008861       0.060422
       2.430000       0.044536       0.008926       0.061170
       2.440000       0.045043       0.008992       0.062114
       2.450000       0.045560       0.009058       0.063264
       2.460000       0.046086       0.009125       0.064632
       2.470000       0.046622       0.009193       0.066232
       2.480000       0.047168       0.009261       0.068085
       2.490000       0.047724       0.009330       0.070212
       2.500000       0.048291       0.009400       0.072640
       2.510000       0.048868       0.009470       0.075402
       2.520000       0.049457       0.009542       0.078535
       2.530000       0.050058       0.009614       0.082082
       2.540000       0.050670       0.009686       0.086092
       2.550000       0.051295       0.009760       0.090620
       2.560000       0.051933       0.009834       0.095729
       2.570000       0.052584       0.009910       0.101482
       2.580000       0.053249       0.009986       0.107948
       2.590000       0.053928       0.010063       0.115192
       2.600000       0.054622       0.010141       0.123267
       2.610000       0.055331       0.010219       0.132206
       2.620000       0.056055       0.010299       0.142005
       2.630000       0.056796       0.010380       0.152601
       2.640000       0.057554       0.010462       0.163857
       2.650000       0.058330       0.010545       0.175545
       2.660000       0.059124       0.010629       0.187338
       2.670000       0.059937       0.010714       0.198827
       2.680000       0.060769       0.010800       0.209560
       2.690000       0.061622       0.010887       0.219091
       2.700000       0.062496       0.010975       0.227041
       2.710000       0.063392       0.011065       0.233136
       2.720000       0.064312       0.011156       0.237225
       2.730000       0.065255       0.011248       0.239277
       2.740000       0.066223       0.011342       0.239359
       2.750000       0.067218       0.011437       0.237607
       2.760000       0.068240       0.011533       0.234199
       2.770000       0.069290       0.011631       0.229337
       2.780000       0.070370       0.011731       0.223230
       2.790000       0.071482       0.011832       0.216087
       2.800000       0.072626       0.011934       0.208111
       2.810000       0.073805       0.012039       0.199507
       2.820000       0.075019       0.012145       0.190476
       2.830000       0.076271       0.012253       0.181217
       2.840000       0.077563       0.012362       0.171927
       2.850000       0.078897       0.012474       0.162796
       2.860000       0.080275       0.012588       0.153993
       2.870000       0.081699       0.012703       0.145665
       2.880000       0.083172       0.012821       0.137922
       2.890000       0.084697       0.012942       0.130840
       2.900000       0.086276       0.013064       0.124458
       2.910000       0.087914       0.013189       0.118784
       2.920000       0.089612       0.013317       0.113803
       2.930000       0.091375       0.013447       0.109484
       2.940000       0.093206       0.013580       0.105787
       2.950000       0.095108       0.013716       0.102668
       2.960000       0.097086       0.013854       0.100085
       2.970000       0.099142       0.013996       0.097997
       2.980000       0.101280       0.014141       0.096369
       2.990000       0.103502       0.014289       0.095170
       3.000000       0.105811       0.014441       0.094375
       3.010000       0.108212       0.014596       0.093965
       3.020000       0.110707       0.014754       0.093928
       3.030000       0.113305       0.014916       0.094254
       3.040000       0.116011       0.015082       0.094943
       3.050000       0.118838       0.015252       0.095999
       3.060000       0.121797       0.015426       0.097429
       3.070000       0.124903       0.015605       0.099250
       3.080000       0.128169       0.015789       0.101482
       3.090000       0.131610       0.015978       0.104155
       3.100000       0.135245       0.016173       0.107302
       3.110000       0.139088       0.016374       0.110966
       3.120000       0.143160       0.016581       0.115196
       3.130000       0.147480       0.016795       0.120051
       3.140000       0.152071       0.017016       0.125594
       3.150000       0.156957       0.017245       0.131897
       3.160000       0.162166       0.017482       0.139034
       3.170000       0.167730       0.017727       0.147075
       3.180000       0.173684       0.017981       0.156085
       3.190000       0.180068       0.018244       0.166104
       3.200000       0.186928       0.018518       0.177137
       3.210000       0.194315       0.018803       0.189132
       3.220000       0.202288       0.019099       0.201957
       3.230000       0.210914       0.019408       0.215386
       3.240000       0.220269       0.019731       0.229091
       3.250000       0.230443       0.020067       0.242660
       3.260000       0.241535       0.020420       0.255630
       3.270000       0.253659       0.020789       0.267546
       3.280000       0.266947       0.021176       0.278014
       3.290000       0.281548       0.021583       0.286746
       3.300000       0.297630       0.022011       0.293577
       3.310000       0.315381       0.022462       0.298458
       3.320000       0.335011       0.022939       0.301438
       3.330000       0.356745       0.023443       0.302630
       3.340000       0.380817       0.023977       0.302191
       3.350000       0.407461       0.024544       0.300295
       3.360000       0.436882       0.025147       0.297118
       3.370000       0.469229       0.025791       0.292831
       3.380000       0.504532       0.026479       0.287591
       3.390000       0.542639       0.027215       0.281541
       3.400000       0.583123       0.028007       0.274809
       3.410000       0.625190       0.028858       0.267509
       3.420000       0.667611       0.029778       0.259745
       3.430000       0.708733       0.030772       0.251612
       3.440000       0.746612       0.031852       0.243203
       3.450000       0.779312       0.033027       0.234613
       3.460000       0.805320       0.034309       0.225942
       3.470000       0.823968       0.035712       0.217303
       3.480000       0.835669       0.037252       0.208820
       3.490000       0.841878       0.038946       0.200628
       3.500000       0.844786       0.040815       0.192862
       3.510000       0.846888       0.042881       0.185654
       3.520000       0.850599       0.045167       0.179116
       3.530000       0.858004       0.047700       0.173334
       3.540000       0.870762       0.050507       0.168364
       3.550000       0.890101       0.053611       0.164236
       3.560000       0.916875       0.057034       0.160956
       3.570000       0.951592       0.060787       0.158517
       3.580000       0.994427       0.064865       0.156901
       3.590000       1.045178       0.069241       0.156092
       3.600000       1.103185       0.073859       0.156070
       3.610000       1.167230       0.078624       0.156824
       3.620000       1.235450       0.083404       0.158349
       3.630000       1.305315       0.088040       0.160647
       3.640000       1.373682       0.092365       0.163733
       3.650000       1.436947       0.096225       0.167632
       3.660000       1.491267       0.099504       0.172388
       3.670000       1.532857       0.102133       0.178055
       3.680000       1.558385       0.104091       0.184704
       3.690000       1.565494       0.105401       0.192414
       3.700000       1.553346       0.106122       0.201266
       3.710000       1.522978       0.106359       0.211328
       3.720000       1.477251       0.106256       0.222643
       3.730000       1.420340       0.105987       0.235206
       3.740000       1.356962       0.105734       0.248944
       3.750000       1.291606       0.105657       0.263690
       3.760000       1.227987       0.105866       0.279171
       3.770000       1.168802       0.106403       0.295009
       3.780000       1.115734       0.107233       0.310743
       3.790000       1.069603       0.108253       0.325882
       3.800000       1.030591       0.109308       0.339959
       3.810000       0.998478       0.110223       0.352592
       3.820000       0.972858       0.110854       0.363517
       3.830000       0.953301       0.111123       0.372594
       3.840000       0.939453       0.111042       0.379792
       3.850000       0.931049       0.110716       0.385163
       3.860000       0.927863       0.110310       0.388807
       3.870000       0.929628       0.110011       0.390852
       3.880000       0.935971       0.109989       0.391432
       3.890000       0.946400       0.110377       0.390684
       3.900000       0.960346       0.111257       0.388740
       3.910000       0.977251       0.112662       0.385737
       3.920000       0.996653       0.114575       0.381813
       3.930000       1.018227       0.116939       0.377108
       3.940000       1.041761       0.119650       0.371764
       3.950000       1.067094       0.122566       0.365911
       3.960000       1.094057       0.125510       0.359672
       3.970000       1.122443       0.128288       0.353151
       3.980000       1.151988       0.130710       0.346437
       3.990000       1.182316       0.132611       0.339606
       4.000000       1.212827       0.133863       0.332720
       4.010000       1.242593       0.134376       0.325837
       4.020000       1.270352       0.134099       0.319012
       4.030000       1.294668       0.133007       0.312305
       4.040000       1.314273       0.131103       0.305786
       4.050000       1.328436       0.128429       0.299543
       4.060000       1.337207       0.125082       0.293685
       4.070000       1.341368       0.121216       0.288347
       4.080000       1.342113       0.117033       0.283688
       4.090000       1.340600       0.112756       0.279884
       4.100000       1.337570       0.108598       0.277119
       4.110000       1.333216       0.104740       0.275573
       4.120000       1.327339       0.101318       0.275409
       4.130000       1.319719       0.098426       0.276770
       4.140000       1.310527       0.096119       0.279775
       4.150000       1.300594       0.094429       0.284525
       4.160000       1.291416       0.093366       0.291097
       4.170000       1.284934       0.092935       0.299546
       4.180000       1.283207       0.093132       0.309895
       4.190000       1.288112       0.093951       0.322116
       4.200000       1.301138       0.095378       0.336114
       4.210000       1.323270       0.097394       0.351697
       4.220000       1.354925       0.099959       0.368558
       4.230000       1.395890       0.103009       0.386271
       4.240000       1.445245       0.106445       0.404306
       4.250000       1.501287       0.110122       0.422079
       4.260000       1.561514       0.113850       0.439015
       4.270000       1.622726       0.117406       0.454612
       4.280000       1.681323       0.120561       0.468496
       4.290000       1.733754       0.123129       0.480432
       4.300000       1.777010       0.125002       0.490322
       4.310000       1.808962       0.126189       0.498183
       4.320000       1.828441       0.126805       0.504124
       4.330000       1.835113       0.127045       0.508319
       4.340000       1.829326       0.127138       0.510985
       4.350000       1.812083       0.127298       0.512361
       4.360000       1.785093       0.127694       0.512682
       4.370000       1.750731       0.128430       0.512162
       4.380000       1.711784       0.129539       0.510981
       4.390000       1.671026       0.130979       0.509281
       4.400000       1.630790       0.132645       0.507168
       4.410000       1.592736       0.134385       0.504720
       4.420000       1.557848       0.136027       0.502003
       4.430000       1.526628       0.137414       0.499075
       4.440000       1.499345       0.138433       0.496002
       4.450000       1.476222       0.139032       0.492846
       4.460000       1.457525       0.139227       0.489667
       4.470000       1.443547       0.139096       0.486504
       4.480000       1.434530       0.138773       0.483373
       4.490000       1.430566       0.138423       0.480266
       4.500000       1.431492       0.138228       0.477160
       4.510000       1.436823       0.138354       0.474046
       4.520000       1.445769       0.138938       0.470946
       4.530000       1.457303       0.140072       0.467948
       4.540000       1.470270       0.141791       0.465214
       4.550000       1.483437       0.144072       0.462982
       4.560000       1.495502       0.146832       0.461553
       4.570000       1.505090       0.149918       0.461271
       4.580000       1.510846       0.153126       0.462496
       4.590000       1.511667       0.156208       0.465567
       4.600000       1.507003       0.158918       0.470775
       4.610000       1.497117       0.161049       0.478331
       4.620000       1.483156       0.162472       0.488345
       4.630000       1.467012       0.163162       0.500799
       4.640000       1.451014       0.163193       0.515532
       4.650000       1.437563       0.162713       0.532217
       4.660000       1.428804       0.161913       0.550360
       4.670000       1.426393       0.160996       0.569324
       4.680000       1.431337       0.160149       0.588384
       4.690000       1.443900       0.159522       0.606814
       4.700000       1.463537       0.159202       0.623971
       4.710000       1.488847       0.159208       0.639374
       4.720000       1.517606       0.159476       0.652729
       4.730000       1.546899       0.159877       0.663935
       4.740000       1.573429       0.160234       0.673043
       4.750000       1.593987       0.160355       0.680213
       4.760000       1.606024       0.160072       0.685663
       4.770000       1.608173       0.159268       0.689639
       4.780000       1.600568       0.157909       0.692396
       4.790000       1.584834       0.156050       0.694200
       4.800000       1.563766       0.153833       0.695324
       4.810000       1.540794       0.151464       0.696052
       4.820000       1.519425       0.149179       0.696653
       4.830000       1.502793       0.147212       0.697371
       4.840000       1.493383       0.145765       0.698400
       4.850000       1.492926       0.144998       0.699882
       4.860000       1.502383       0.145023       0.701910
       4.870000       1.521982       0.145910       0.704546
       4.880000       1.551231       0.147684       0.707837
       4.890000       1.588921       0.150333       0.711833
       4.900000       1.633129       0.153800       0.716593
       4.910000       1.681236       0.157981       0.722186
       4.920000       1.730013       0.162716       0.728690
       4.930000       1.775792       0.167788       0.736187
       4.940000       1.814734       0.172924       0.744765
       4.950000       1.843192       0.177813       0.754510
       4.960000       1.858136       0.182139       0.765498
       4.970000       1.857627       0.185629       0.777767
       4.980000       1.841237       0.188117       0.791281
       4.990000       1.810258       0.189580       0.805899
       5.000000       1.767540       0.190150       0.821371
       5.010000       1.716963       0.190073       0.837360
       5.020000       1.662681       0.189641       0.853511
       5.030000       1.608408       0.189116       0.869506
       5.040000       1.556937       0.188672       0.885116
       5.050000       1.509944       0.188365       0.900216
       5.060000       1.468049       0.188139       0.914765
       5.070000       1.431056       0.187863       0.928788
       5.080000       1.398268       0.187381       0.942344
       5.090000       1.368818       0.186565       0.955513
       5.100000       1.341941       0.185356       0.968382
       5.110000       1.317159       0.183784       0.981045
       5.120000       1.294375       0.181953       0.993603
       5.130000       1.273891       0.180033       1.006161
       5.140000       1.256358       0.178229       1.018832
       5.150000       1.242667       0.176758       1.031731
       5.160000       1.233814       0.175830       1.044962
       5.170000       1.230760       0.175630       1.058595
       5.180000       1.234329       0.176304       1.072653
       5.190000       1.245142       0.177957       1.087088
       5.200000       1.263582       0.180648       1.101796
       5.210000       1.289760       0.184384       1.116630
       5.220000       1.323471       0.189116       1.131441
       5.230000       1.364131       0.194727       1.146101
       5.240000       1.410721       0.201024       1.160530
       5.250000       1.461751       0.207733       1.174702
       5.260000       1.515328       0.214507       1.188654
       5.270000       1.569318       0.220965       1.202478
       5.280000       1.621638       0.226741       1.216319
       5.290000       1.670549       0.231546       1.230353
       5.300000       1.714858       0.235217       1.244761
       5.310000       1.753925       0.237738       1.259698
       5.320000       1.787473       0.239228       1.275260
       5.330000       1.815355       0.239900       1.291468
       5.340000       1.837407       0.240019       1.308270
       5.350000       1.853484       0.239858       1.325548
       5.360000       1.863654       0.239652       1.343131
       5.370000       1.868433       0.239581       1.360801
       5.380000       1.868925       0.239759       1.378293
       5.390000       1.866812       0.240245       1.395301
       5.400000       1.864206       0.241069       1.411488
       5.410000       1.863429       0.242257       1.426510
       5.420000       1.866773       0.243838       1.440055
       5.430000       1.876270       0.245841       1.451889
       5.440000       1.893506       0.248267       1.461908
       5.450000       1.919479       0.251071       1.470158
       5.460000       1.954543       0.254156       1.476811
       5.470000       1.998418       0.257394       1.482068
       5.480000       2.050231       0.260659       1.486010
       5.490000       2.108546       0.263873       1.488452
       5.500000       2.171344       0.267018       1.488860
       5.510000       2.235969       0.270151       1.486380
       5.520000       2.299144       0.273375       1.479968
       5.530000       2.357185       0.276821       1.468601
       5.540000       2.406503       0.280614       1.451521
       5.550000       2.444320       0.284843       1.428469
       5.560000       2.469363       0.289525       1.399848
       5.570000       2.482212       0.294566       1.366764
       5.580000       2.485136       0.299735       1.330910
       5.590000       2.481492       0.304664       1.294319
       5.600000       2.474996       0.308890       1.259063
       5.610000       2.469167       0.311935       1.226987
       5.620000       2.467082       0.313416       1.199544
       5.630000       2.471402       0.313141       1.177733
       5.640000       2.484507       0.311155       1.162136
       5.650000       2.508636       0.307723       1.152998
       5.660000       2.545953       0.303276       1.150324
       5.670000       2.598560       0.298324       1.153992
       5.680000       2.668455       0.293381       1.163842
       5.690000       2.757452       0.288907       1.179772
       5.700000       2.867078       0.285262       1.201794
       5.710000       2.998450       0.282685       1.230080
       5.720000       3.152133       0.281292       1.264972
       5.730000       3.328025       0.281082       1.306955
       5.740000       3.525256       0.281956       1.356613
       5.750000       3.742163       0.283748       1.414581
       5.760000       3.976321       0.286262       1.481493
       5.770000       4.224632       0.289308       1.557945
       5.780000       4.483397       0.292735       1.644463
       5.790000       4.748311       0.296445       1.741462
       5.800000       5.014364       0.300401       1.849210
       5.810000       5.275709       0.304626       1.967787
       5.820000       5.525602       0.309201       2.097023
       5.830000       5.756557       0.314268       2.236405
       5.840000       5.960787       0.320023       2.384906
       5.850000       6.130894       0.326689       2.540744
       5.860000       6.260677       0.334476       2.701164
       5.870000       6.345815       0.343532       2.862345
       5.880000       6.384286       0.353898       3.019594
       5.890000       6.376458       0.365486       3.167856
       5.900000       6.324957       0.378063       3.302465
       5.910000       6.234441       0.391269       3.419899
       5.920000       6.111348       0.404657       3.518304
       5.930000       5.963579       0.417751       3.597627
       5.940000       5.800061       0.430108       3.659392
       5.950000       5.630143       0.441384       3.706279
       5.960000       5.462865       0.451378       3.741637
       5.970000       5.306224       0.460058       3.768981
       5.980000       5.166563       0.467546       3.791494
       5.990000       5.048196       0.474059       3.811564
       6.000000       4.953285       0.479816       3.830518
       6.010000       4.881913       0.484955       3.848634
       6.020000       4.832269       0.489490       3.865475
       6.030000       4.800866       0.493348       3.880401
       6.040000       4.782745       0.496444       3.893056
       6.050000       4.771688       0.498780       3.903603
       6.060000       4.760508       0.500499       3.912632
       6.070000       4.741519       0.501883       3.920804
       6.080000       4.707259       0.503304       3.928463
       6.090000       4.651446       0.505163       3.935425
       6.100000       4.570004       0.507834       3.941061
       6.110000       4.461892       0.511642       3.944620
       6.120000       4.329449       0.516847       3.945614
       6.130000       4.178088       0.523635       3.944035
       6.140000       4.015356       0.532106       3.940302
       6.150000       3.849633       0.542261       3.934969
       6.160000       3.688837       0.554007       3.928338
       6.170000       3.539474       0.567196       3.920175
       6.180000       3.406175       0.581666       3.909625
       6.190000       3.291674       0.597285       3.895369
       6.200000       3.197078       0.613958       3.875908
       6.210000       3.122277       0.631602       3.849887
       6.220000       3.066387       0.650114       3.816373
       6.230000       3.028134       0.669354       3.775064
       6.240000       3.006165       0.689172       3.726418
       6.250000       2.999219       0.709459       3.671695
       6.260000       3.006166       0.730206       3.612845
       6.270000       3.025902       0.751525       3.552276
       6.280000       3.057147       0.773601       3.492508
       6.290000       3.098222       0.796582       3.435826
       6.300000       3.146856       0.820424       3.384002
       6.310000       3.200071       0.844764       3.338144
       6.320000       3.254157       0.868871       3.298660
       6.330000       3.304746       0.891720       3.265279
       6.340000       3.347003       0.912180       3.237101
       6.350000       3.375976       0.929287       3.212640
       6.360000       3.387105       0.942528       3.189873
       6.370000       3.376887       0.952039       3.166353
       6.380000       3.343542       0.958651       3.139430
       6.390000       3.287467       0.963745       3.106625
       6.400000       3.211302       0.968987       3.066108
       6.410000       3.119524       0.976015       3.017143
       6.420000       3.017700       0.986205       2.960340
       6.430000       2.911643       1.000530       2.897616
       6.440000       2.806714       1.019531       2.831854
       6.450000       2.707397       1.043327       2.766366
       6.460000       2.617148       1.071622       2.704321
       6.470000       2.538400       1.103662       2.648295
       6.480000       2.472643       1.138174       2.600007
       6.490000       2.420503       1.173322       2.560243
       6.500000       2.381821       1.206785       2.528943
       6.510000       2.355740       1.235997       2.505385
       6.520000       2.340801       1.258543       2.488444
       6.530000       2.335082       1.272637       2.476838
       6.540000       2.336404       1.277528       2.469334
       6.550000       2.342622       1.273715       2.464814
       6.560000       2.351989       1.262862       2.462218
       6.570000       2.363456       1.247439       2.460375
       6.580000       2.376778       1.230206       2.457821
       6.590000       2.392341       1.213675       2.452742
       6.600000       2.410775       1.199706       2.443095
       6.610000       2.432567       1.189291       2.426953
       6.620000       2.457836       1.182521       2.402940
       6.630000       2.486378       1.178745       2.370614
       6.640000       2.517877       1.176854       2.330622
       6.650000       2.552138       1.175674       2.284607
       6.660000       2.589172       1.174363       2.234915
       6.670000       2.629096       1.172694       2.184226
       6.680000       2.671918       1.171128       2.135185
       6.690000       2.717297       1.170658       2.090087
       6.700000       2.764372       1.172498       2.050640
       6.710000       2.811651       1.177740       2.017803
       6.720000       2.856966       1.187096       1.991746
       6.730000       2.897509       1.200764       1.971919
       6.740000       2.929998       1.218419       1.957240
       6.750000       2.950998       1.239324       1.946363
       6.760000       2.957416       1.262512       1.937940
       6.770000       2.947087       1.287009       1.930809
       6.780000       2.919318       1.312043       1.924072
       6.790000       2.875238       1.337177       1.917094
       6.800000       2.817795       1.362329       1.909464
       6.810000       2.751379       1.387646       1.900970
       6.820000       2.681160       1.413295       1.891603
       6.830000       2.612305       1.439227       1.881524
       6.840000       2.549289       1.464997       1.871003
       6.850000       2.495425       1.489696       1.860285
       6.860000       2.452645       1.512013       1.849466
       6.870000       2.421519       1.530411       1.838404
       6.880000       2.401429       1.543371       1.826770
       6.890000       2.390842       1.549665       1.814195
       6.900000       2.387632       1.548593       1.800483
       6.910000       2.389420       1.540130       1.785734
       6.920000       2.393884       1.524943       1.770291
       6.930000       2.399023       1.504277       1.754526
       6.940000       2.403327       1.479761       1.738555
       6.950000       2.405813       1.453163       1.722051
       6.960000       2.405974       1.426168       1.704238
       6.970000       2.403694       1.400204       1.684091
       6.980000       2.399241       1.376365       1.660668
       6.990000       2.393316       1.355425       1.633428
       7.000000       2.387079       1.337925       1.602442
       7.010000       2.382049       1.324262       1.568392
       7.020000       2.379871       1.314751       1.532397
       7.030000       2.382048       1.309660       1.495746
       7.040000       2.389745       1.309208       1.459664
       7.050000       2.403695       1.313553       1.425187
       7.060000       2.424196       1.322719       1.393178
       7.070000       2.451130       1.336483       1.364403
       7.080000       2.484045       1.354232       1.339630
       7.090000       2.522285       1.374877       1.319665
       7.100000       2.565205       1.396895       1.305332
       7.110000       2.612356       1.418535       1.297408
       7.120000       2.663588       1.438173       1.296537
       7.130000       2.718972       1.454684       1.303165
       7.140000       2.778625       1.467718       1.317461
       7.150000       2.842535       1.477745       1.339245
       7.160000       2.910464       1.485891       1.367875
       7.170000       2.981947       1.493646       1.402130
       7.180000       3.056312       1.502544       1.440103
       7.190000       3.132636       1.513886       1.479164
       7.200000       3.209614       1.528506       1.516049
       7.210000       3.285375       1.546573       1.547126
       7.220000       3.357373       1.567455       1.568852
       7.230000       3.422463       1.589686       1.578356
       7.240000       3.477241       1.611107       1.573997
       7.250000       3.518584       1.629192       1.555688
       7.260000       3.544261       1.641527       1.524869
       7.270000       3.553398       1.646318       1.484145
       7.280000       3.546635       1.642775       1.436741
       7.290000       3.525935       1.631229       1.385949
       7.300000       3.494146       1.612960       1.334700
       7.310000       3.454469       1.589807       1.285285
       7.320000       3.409981       1.563742       1.239243
       7.330000       3.363310       1.536561       1.197382
       7.340000       3.316521       1.509767       1.159901
       7.350000       3.271171       1.484583       1.126598
       7.360000       3.228444       1.462005       1.097106
       7.370000       3.189222       1.442802       1.071112
       7.380000       3.154018       1.427451       1.048510
       7.390000       3.122832       1.416059       1.029453
       7.400000       3.095044       1.408335       1.014297
       7.410000       3.069482       1.403637       1.003495
       7.420000       3.044667       1.401089       0.997471
       7.430000       3.019149       1.399715       0.996534
       7.440000       2.991806       1.398588       1.000838
       7.450000       2.961987       1.396986       1.010363
       7.460000       2.929477       1.394527       1.024902
       7.470000       2.894322       1.391259       1.044018
       7.480000       2.856637       1.387634       1.066983
       7.490000       2.816540       1.384362       1.092720
       7.500000       2.774282       1.382190       1.119806
       7.510000       2.730511       1.381698       1.146583
       7.520000       2.686519       1.383185       1.171359
       7.530000       2.644296       1.386664       1.192659
       7.540000       2.606325       1.391941       1.209444
       7.550000       2.575213       1.398731       1.221208
       7.560000       2.553289       1.406775       1.227963
       7.570000       2.542313       1.415927       1.230130
       7.580000       2.543339       1.426212       1.228385
       7.590000       2.556717       1.437837       1.223491
       7.600000       2.582150       1.451184       1.216136
       7.610000       2.618753       1.466750       1.206783
       7.620000       2.665052       1.485030       1.195592
       7.630000       2.718952       1.506324       1.182444
       7.640000       2.777727       1.530528       1.167064
       7.650000       2.838155       1.556975       1.149235
       7.660000       2.896847       1.584417       1.128981
       7.670000       2.950773       1.611202       1.106645
       7.680000       2.997847       1.635587       1.082833
       7.690000       3.037350       1.656122       1.058270
       7.700000       3.070013       1.671970       1.033663
       7.710000       3.097703       1.683088       1.009652
       7.720000       3.122830       1.690197       0.986838
       7.730000       3.147655       1.694564       0.965849
       7.740000       3.173692       1.697639       0.947358
       7.750000       3.201358       1.700659       0.932049
       7.760000       3.229928       1.704340       0.920529
       7.770000       3.257776       1.708733       0.913240
       7.780000       3.282809       1.713269       0.910396
       7.790000       3.302955       1.716973       0.911967
       7.800000       3.316607       1.718776       0.917704
       7.810000       3.322942       1.717826       0.927184
       7.820000       3.322042       1.713713       0.939858
       7.830000       3.314782       1.706530       0.955053
       7.840000       3.302473       1.696793       0.971948
       7.850000       3.286380       1.685262       0.989519
       7.860000       3.267322       1.672761       1.006511
       7.870000       3.245518       1.660067       1.021496
       7.880000       3.220705       1.647889       1.033041
       7.890000       3.192409       1.636900       1.039953
       7.900000       3.160172       1.627754       1.041513
       7.910000       3.123629       1.621049       1.037627
       7.920000       3.082467       1.617254       1.028815
       7.930000       3.036385       1.616662       1.016077
       7.940000       2.985191       1.619416       1.000692
       7.950000       2.929037       1.625610       0.984007
       7.960000       2.868659       1.635403       0.967278
       7.970000       2.805430       1.649089       0.951555
       7.980000       2.741157       1.667064       0.937637
       7.990000       2.677700       1.689706       0.926069
       8.000000       2.616641       1.717231       0.917179
       8.010000       2.559146       1.749574       0.911137
       8.020000       2.506057       1.786353       0.908009
       8.030000       2.458103       1.826850       0.907795
       8.040000       2.416105       1.869998       0.910439
       8.050000       2.381072       1.914348       0.915810
       8.060000       2.354167       1.958054       0.923648
       8.070000       2.336589       1.998969       0.933488
       8.080000       2.329408       2.034866       0.944591
       8.090000       2.333415       2.063764       0.955916
       8.100000       2.348991       2.084235       0.966190
       8.110000       2.375979       2.095544       0.974090
       8.120000       2.413548       2.097578       0.978506
       8.130000       2.460033       2.090589       0.978802
       8.140000       2.512802       2.074921       0.974975
       8.150000       2.568237       2.050863       0.967648
       8.160000       2.621966       2.018709       0.957902
       8.170000       2.669409       1.978976       0.947007
       8.180000       2.706590       1.932659       0.936156
       8.190000       2.730983       1.881377       0.926269
       8.200000       2.742110       1.827354       0.917918
       8.210000       2.741645       1.773229       0.911363
       8.220000       2.733022       1.721763       0.906666
       8.230000       2.720700       1.675526       0.903814
       8.240000       2.709322       1.636654       0.902799
       8.250000       2.702996       1.606703       0.903633
       8.260000       2.704817       1.586633       0.906307
       8.270000       2.716679       1.576854       0.910729
       8.280000       2.739370       1.577336       0.916669
       8.290000       2.772866       1.587721       0.923732
       8.300000       2.816719       1.607416       0.931374
       8.310000       2.870358       1.635634       0.938947
       8.320000       2.933178       1.671353       0.945785
       8.330000       3.004387       1.713209       0.951296
       8.340000       3.082687       1.759370       0.955039
       8.350000       3.166018       1.807487       0.956766
       8.360000       3.251539       1.854834       0.956418
       8.370000       3.335892       1.898646       0.954102
       8.380000       3.415661       1.936597       0.950067
       8.390000       3.487788       1.967235       0.944685
       8.400000       3.549789       1.990226       0.938431
       8.410000       3.599737       2.006331       0.931834
       8.420000       3.636176       2.017187       0.925395
       8.430000       3.658142       2.024970       0.919482
       8.440000       3.665362       2.032038       0.914250
       8.450000       3.658531       2.040538       0.909619
       8.460000       3.639420       2.052013       0.905345
       8.470000       3.610673       2.067059       0.901169
       8.480000       3.575287       2.085116       0.896966
       8.490000       3.536012       2.104482       0.892848
       8.500000       3.494928       2.122585       0.889162
       8.510000       3.453344       2.136491       0.886408
       8.520000       3.412013       2.143555       0.885109
       8.530000       3.371520       2.142039       0.885685
       8.540000       3.332696       2.131533       0.888360
       8.550000       3.296889       2.113052       0.893126
       8.560000       3.265975       2.088823       0.899769
       8.570000       3.242114       2.061840       0.907950
       8.580000       3.227344       2.035345       0.917306
       8.590000       3.223174       2.012324       0.927526
       8.600000       3.230280       1.995127       0.938375
       8.610000       3.248298       1.985206       0.949653
       8.620000       3.275681       1.982996       0.961138
       8.630000       3.309646       1.987909       0.972539
       8.640000       3.346284       1.998450       0.983485
       8.650000       3.380968       2.012463       0.993551
       8.660000       3.409071       2.027485       1.002305
       8.670000       3.426840       2.041182       1.009363
       8.680000       3.432147       2.051751       1.014454
       8.690000       3.424849       2.058192       1.017480
       8.700000       3.406645       2.060383       1.018556
       8.710000       3.380548       2.058971       1.018039
       8.720000       3.350195       2.055128       1.016509
       8.730000       3.319213       2.050311       1.014712
       8.740000       3.290760       2.046083       1.013478
       8.750000       3.267319       2.044036       1.013634
       8.760000       3.250721       2.045761       1.015937
       8.770000       3.242281       2.052798       1.021014
       8.780000       3.242931       2.066556       1.029292
       8.790000       3.253180       2.088218       1.040923
       8.800000       3.272929       2.118680       1.055706
       8.810000       3.301203       2.158514       1.073047
       8.820000       3.335977       2.207955       1.091973
       8.830000       3.374189       2.266868       1.111237
       8.840000       3.411987       2.334690       1.129478
       8.850000       3.445172       2.410329       1.145433
       8.860000       3.469796       2.492053       1.158126
       8.870000       3.482820       2.577423       1.167000
       8.880000       3.482688       2.663326       1.171974
       8.890000       3.469606       2.746147       1.173412
       8.900000       3.445391       2.822053       1.172043
       8.910000       3.412913       2.887343       1.168845
       8.920000       3.375372       2.938802       1.164909
       8.930000       3.335690       2.974032       1.161318
       8.940000       3.296209       2.991739       1.159035
       8.950000       3.258722       2.991930       1.158833
       8.960000       3.224656       2.975951       1.161228
       8.970000       3.195218       2.946295       1.166430
       8.980000       3.171375       2.906186       1.174311
       8.990000       3.153703       2.859060       1.184411
       9.000000       3.142262       2.808095       1.196022
       9.010000       3.136621       2.755904       1.208347
       9.020000       3.136067       2.704437       1.220686
       9.030000       3.139919       2.655046       1.232583
       9.040000       3.147791       2.608697       1.243877
       9.050000       3.159688       2.566238       1.254639
       9.060000       3.175887       2.528669       1.265052
       9.070000       3.196651       2.497298       1.275285
       9.080000       3.221900       2.473752       1.285429
       9.090000       3.250935       2.459814       1.295502
       9.100000       3.282344       2.457184       1.305519
       9.110000       3.314122       2.467200       1.315588
       9.120000       3.344023       2.490605       1.325978
       9.130000       3.370065       2.527386       1.337143
       9.140000       3.391044       2.576727       1.349658
       9.150000       3.406838       2.637075       1.364089
       9.160000       3.418351       2.706292       1.380849
       9.170000       3.427064       2.781847       1.400071
       9.180000       3.434384       2.860977       1.421546
       9.190000       3.441061       2.940783       1.444762
       9.200000       3.446925       3.018320       1.469011
       9.210000       3.451005       3.090742       1.493573
       9.220000       3.451962       3.155550       1.517901
       9.230000       3.448611       3.210909       1.541751
       9.240000       3.440332       3.255901       1.565224
       9.250000       3.427224       3.290593       1.588703
       9.260000       3.409942       3.315858       1.612731
       9.270000       3.389321       3.332971       1.637885
       9.280000       3.365910       3.343107       1.664651
       9.290000       3.339617       3.346921       1.693336
       9.300000       3.309595       3.344319       1.723981
       9.310000       3.274408       3.334518       1.756329
       9.320000       3.232423       3.316370       1.789848
       9.330000       3.182291       3.288857       1.823870
       9.340000       3.123419       3.251633       1.857791
       9.350000       3.056283       3.205417       1.891293
       9.360000       2.982500       3.152098       1.924491
       9.370000       2.904587       3.094486       1.957953
       9.380000       2.825447       3.035781       1.992590
       9.390000       2.747728       2.978967       2.029443
       9.400000       2.673279       2.926306       2.069448
       9.410000       2.602896       2.879096       2.113226
       9.420000       2.536420       2.837710       2.160956
       9.430000       2.473138       2.801847       2.212382
       9.440000       2.412285       2.770849       2.266925
       9.450000       2.353461       2.743923       2.323893
       9.460000       2.296811       2.720213       2.382716
       9.470000       2.242957       2.698733       2.443117
       9.480000       2.192779       2.678273       2.505144
       9.490000       2.147172       2.657372       2.569069
       9.500000       2.106888       2.634465       2.635228
       9.510000       2.072483       2.608207       2.703902
       9.520000       2.044354       2.577891       2.775319
       9.530000       2.022772       2.543814       2.849761
       9.540000       2.007869       2.507386       2.927674
       9.550000       1.999528       2.470930       3.009702
       9.560000       1.997219       2.437218       3.096591
       9.570000       1.999857       2.408932       3.189053
       9.580000       2.005760       2.388208       3.287674
       9.590000       2.012794       2.376366       3.392948
       9.600000       2.018678       2.373858       3.505426
       9.610000       2.021441       2.380378       3.625888
       9.620000       2.019851       2.395072       3.755451
       9.630000       2.013686       2.416722       3.895515
       9.640000       2.003726       2.443864       4.047583
       9.650000       1.991479       2.474817       4.212992
       9.660000       1.978788       2.507702       4.392658
       9.670000       1.967462       2.540529       4.586922
       9.680000       1.959023       2.571392       4.795451
       9.690000       1.954599       2.598741       5.017169
       9.700000       1.954896       2.621625       5.250090
       9.710000       1.960218       2.639776       5.491079
       9.720000       1.970486       2.653486       5.735586
       9.730000       1.985258       2.663341       5.977513
       9.740000       2.003770       2.669922       6.209344
       9.750000       2.025038       2.673601       6.422653
       9.760000       2.048021       2.674489       6.608957
       9.770000       2.071818       2.672518       6.760804
       9.780000       2.095832       2.667592       6.872818
       9.790000       2.119820       2.659734       6.942448
       9.800000       2.143792       2.649186       6.970193
       9.810000       2.167807       2.636450       6.959277
       9.820000       2.191722       2.622256       6.914897
       9.830000       2.214974       2.607452       6.843256
       9.840000       2.236486       2.592799       6.750635
       9.850000       2.254731       2.578731       6.642689
       9.860000       2.267974       2.565149       6.524072
       9.870000       2.274614       2.551358       6.398369
       9.880000       2.273543       2.536202       6.268246
       9.890000       2.264405       2.518381       6.135676
       9.900000       2.247702       2.496873       6.002154
       9.910000       2.224723       2.471299       5.868865
       9.920000       2.197332       2.442097       5.736809
       9.930000       2.167654       2.410464       5.606880
       9.940000       2.137730       2.378108       5.479925
       9.950000       2.109228       2.346905       5.356812
       9.960000       2.083281       2.318572       5.238505
       9.970000       2.060465       2.294439       5.126107
       9.980000       2.040893       2.275338       5.020792
       9.990000       2.024321       2.261603       4.923541
      10.000000       2.010213       2.253134       4.834748
      10.010000       1.997756       2.249453       4.753850
      10.020000       1.985846       2.249752       4.679152
      10.030000       1.973141       2.252890       4.607966
      10.040000       1.958177       2.257394       4.537051
      10.050000       1.939534       2.261493       4.463231
      10.060000       1.916021       2.263219       4.384028
      10.070000       1.886854       2.260591       4.298183
      10.080000       1.851796       2.251880       4.205925
      10.090000       1.811235       2.235853       4.108929
      10.100000       1.766131       2.211939       4.009950
      10.110000       1.717817       2.180233       3.912213
      10.120000       1.667708       2.141383       3.818758
      10.130000       1.617045       2.096435       3.731907
      10.140000       1.566789       2.046734       3.653008
      10.150000       1.517668       1.993894       3.582451
      10.160000       1.470313       1.939748       3.519861
      10.170000       1.425379       1.886228       3.464354
      10.180000       1.383558       1.835123       3.414750
      10.190000       1.345506       1.787833       3.369705
      10.200000       1.311734       1.745196       3.327786
      10.210000       1.282550       1.707492       3.287551
      10.220000       1.258064       1.674618       3.247671
      10.230000       1.238253       1.646354       3.207120
      10.240000       1.223021       1.622612       3.165353
      10.250000       1.212235       1.603552       3.122405
      10.260000       1.205696       1.589526       3.078838
      10.270000       1.203075       1.580915       3.035523
      10.280000       1.203840       1.577936       2.993342
      10.290000       1.207220       1.580523       2.952918
      10.300000       1.212226       1.588311       2.914480
      10.310000       1.217734       1.600724       2.877911
      10.320000       1.222625       1.617114       2.842946
      10.330000       1.225937       1.636891       2.809419
      10.340000       1.226990       1.659568       2.777462
      10.350000       1.225466       1.684699       2.747551
      10.360000       1.221423       1.711726       2.720400
      10.370000       1.215249       1.739796       2.696771
      10.380000       1.207571       1.767658       2.677274
      10.390000       1.199126       1.793719       2.662220
      10.400000       1.190659       1.816317       2.651533
      10.410000       1.182855       1.834132       2.644707
      10.420000       1.176336       1.846570       2.640789
      10.430000       1.171673       1.853972       2.638423
      10.440000       1.169393       1.857535       2.635956
      10.450000       1.169947       1.859032       2.631625
      10.460000       1.173659       1.860459       2.623804
      10.470000       1.180668       1.863750       2.611245
      10.480000       1.190898       1.870588       2.593266
      10.490000       1.204057       1.882266       2.569821
      10.500000       1.219665       1.899562       2.541448
      10.510000       1.237119       1.922599       2.509130
      10.520000       1.255773       1.950746       2.474113
      10.530000       1.274998       1.982614       2.437747
      10.540000       1.294203       2.016187       2.401384
      10.550000       1.312808       2.049108       2.366314
      10.560000       1.330194       2.079054       2.333730
      10.570000       1.345668       2.104132       2.304698
      10.580000       1.358452       2.123154       2.280121
      10.590000       1.367701       2.135715       2.260687
      10.600000       1.372529       2.142066       2.246812
      10.610000       1.372085       2.142870       2.238596
      10.620000       1.365681       2.138959       2.235827
      10.630000       1.352952       2.131171       2.238036
      10.640000       1.333993       2.120235       2.244598
      10.650000       1.309399       2.106683       2.254838
      10.660000       1.280199       2.090771       2.268115
      10.670000       1.247724       2.072460       2.283859
      10.680000       1.213451       2.051496       2.301535
      10.690000       1.178878       2.027589       2.320568
      10.700000       1.145421       2.000628       2.340234
      10.710000       1.114344       1.970859       2.359568
      10.720000       1.086714       1.938952       2.377307
      10.730000       1.063380       1.905951       2.391928
      10.740000       1.044978       1.873130       2.401804
      10.750000       1.031942       1.841800       2.405485
      10.760000       1.024514       1.813084       2.402034
      10.770000       1.022738       1.787703       2.391301
      10.780000       1.026441       1.765803       2.374035
      10.790000       1.035218       1.746908       2.351760
      10.800000       1.048436       1.730005       2.326470
      10.810000       1.065259       1.713765       2.300253
      10.820000       1.084691       1.696807       2.274997
      10.830000       1.105650       1.677940       2.252203
      10.840000       1.127057       1.656341       2.232934
      10.850000       1.147958       1.631661       2.217806
      10.860000       1.167629       1.604067       2.206996
      10.870000       1.185655       1.574222       2.200262
      10.880000       1.201919       1.543183       2.196953
      10.890000       1.216529       1.512219       2.196045
      10.900000       1.229719       1.482596       2.196194
      10.910000       1.241773       1.455385       2.195841
      10.920000       1.252995       1.431345       2.193392
      10.930000       1.263694       1.410894       2.187464
      10.940000       1.274152       1.394149       2.177157
      10.950000       1.284545       1.380995       2.162245
      10.960000       1.294866       1.371143       2.143210
      10.970000       1.304854       1.364171       2.121073
      10.980000       1.313975       1.359549       2.097064
      10.990000       1.321441       1.356668       2.072246
      11.000000       1.326277       1.354882       2.047202
      11.010000       1.327451       1.353585       2.021902
      11.020000       1.324039       1.352305       1.995767
      11.030000       1.315406       1.350800       1.967927
      11.040000       1.301329       1.349110       1.937541
      11.050000       1.282041       1.347510       1.904106
      11.060000       1.258185       1.346404       1.867633
      11.070000       1.230685       1.346183       1.828686
      11.080000       1.200597       1.347149       1.788279
      11.090000       1.168952       1.349501       1.747693
      11.100000       1.136661       1.353370       1.708242
      11.110000       1.104477       1.358836       1.671068
      11.120000       1.073011       1.365920       1.636972
      11.130000       1.042775       1.374560       1.606347
      11.140000       1.014233       1.384628       1.579176
      11.150000       0.987833       1.395986       1.555109
      11.160000       0.964016       1.408561       1.533566
      11.170000       0.943194       1.422385       1.513865
      11.180000       0.925697       1.437534       1.495345
      11.190000       0.911701       1.453987       1.477479
      11.200000       0.901166       1.471430       1.459960
      11.210000       0.893793       1.489093       1.442735
      11.220000       0.889039       1.505724       1.425974
      11.230000       0.886193       1.519731       1.409991
      11.240000       0.884506       1.529482       1.395118
      11.250000       0.883336       1.533663       1.381581
      11.260000       0.882281       1.531559       1.369393
      11.270000       0.881239       1.523174       1.358297
      11.280000       0.880403       1.509159       1.347798
      11.290000       0.880179       1.490628       1.337252
      11.300000       0.881068       1.468952       1.326011
      11.310000       0.883527       1.445599       1.313561
      11.320000       0.887844       1.422030       1.299612
      11.330000       0.894040       1.399624       1.284125
      11.340000       0.901801       1.379575       1.267286
      11.350000       0.910465       1.362774       1.249449
      11.360000       0.919075       1.349706       1.231076
      11.370000       0.926506       1.340411       1.212656
      11.380000       0.931645       1.334544       1.194619
      11.390000       0.933613       1.331522       1.177267
      11.400000       0.931935       1.330728       1.160721
      11.410000       0.926643       1.331686       1.144942
      11.420000       0.918252       1.334120       1.129781
      11.430000       0.907640       1.337883       1.115047
      11.440000       0.895882       1.342776       1.100569
      11.450000       0.884063       1.348362       1.086238
      11.460000       0.873151       1.353879       1.072030
      11.470000       0.863899       1.358298       1.058017
      11.480000       0.856822       1.360506       1.044363
      11.490000       0.852192       1.359534       1.031307
      11.500000       0.850071       1.354763       1.019125
      11.510000       0.850343       1.346063       1.008084
      11.520000       0.852747       1.333866       0.998370
      11.530000       0.856892       1.319162       0.990024
      11.540000       0.862269       1.303409       0.982882
      11.550000       0.868254       1.288357       0.976545
      11.560000       0.874147       1.275797       0.970405
      11.570000       0.879232       1.267299       0.963735
      11.580000       0.882889       1.263974       0.955824
      11.590000       0.884685       1.266306       0.946135
      11.600000       0.884443       1.274050       0.934434
      11.610000       0.882246       1.286214       0.920848
      11.620000       0.878395       1.301119       0.905839
      11.630000       0.873326       1.316547       0.890096
      11.640000       0.867506       1.329982       0.874393
      11.650000       0.861329       1.338935       0.859452
      11.660000       0.855035       1.341304       0.845839
      11.670000       0.848674       1.335709       0.833909
      11.680000       0.842160       1.321721       0.823806
      11.690000       0.835374       1.299919       0.815486
      11.700000       0.828308       1.271776       0.808774
      11.710000       0.821144       1.239394       0.803426
      11.720000       0.814265       1.205164       0.799181
      11.730000       0.808163       1.171408       0.795807
      11.740000       0.803298       1.140097       0.793130
      11.750000       0.799980       1.112671       0.791046
      11.760000       0.798297       1.089975       0.789526
      11.770000       0.798137       1.072295       0.788602
      11.780000       0.799262       1.059427       0.788364
      11.790000       0.801427       1.050789       0.788940
      11.800000       0.804479       1.045530       0.790488
      11.810000       0.808429       1.042676       0.793180
      11.820000       0.813445       1.041292       0.797175
      11.830000       0.819784       1.040658       0.802592
      11.840000       0.827693       1.040388       0.809477
      11.850000       0.837291       1.040460       0.817789
      11.860000       0.848490       1.041129       0.827392
      11.870000       0.860969       1.042786       0.838072
      11.880000       0.874215       1.045815       0.849562
      11.890000       0.887617       1.050503       0.861574
      11.900000       0.900592       1.057012       0.873835
      11.910000       0.912692       1.065398       0.886110
      11.920000       0.923669       1.075620       0.898220
      11.930000       0.933484       1.087532       0.910060
      11.940000       0.942277       1.100842       0.921595
      11.950000       0.950306       1.115060       0.932872
      11.960000       0.957888       1.129482       0.943999
      11.970000       0.965347       1.143229       0.955130
      11.980000       0.972977       1.155362       0.966427
      11.990000       0.981045       1.165036       0.978017
      12.000000       0.989792       1.171641       0.989949
      12.010000       0.999419       1.174886       1.002147
      12.020000       1.010043       1.174815       1.014382
      12.030000       1.021640       1.171752       1.026278
      12.040000       1.034016       1.166211       1.037350
      12.050000       1.046820       1.158805       1.047088
      12.060000       1.059598       1.150172       1.055047
      12.070000       1.071850       1.140918       1.060927
      12.080000       1.083054       1.131573       1.064623
      12.090000       1.092642       1.122555       1.066228
      12.100000       1.099962       1.114120       1.066000
      12.110000       1.104259       1.106306       1.064297
      12.120000       1.104712       1.098900       1.061510
      12.130000       1.100513       1.091425       1.057997
      12.140000       1.090985       1.083199       1.054054
      12.150000       1.075693       1.073444       1.049932
      12.160000       1.054551       1.061447       1.045878
      12.170000       1.027891       1.046717       1.042192
      12.180000       0.996456       1.029103       1.039249
      12.190000       0.961335       1.008854       1.037477
      12.200000       0.923832       0.986617       1.037297
      12.210000       0.885311       0.963350       1.039047
      12.220000       0.847060       0.940178       1.042915
      12.230000       0.810171       0.918192       1.048898
      12.240000       0.775483       0.898247       1.056791
      12.250000       0.743549       0.880813       1.066203
      12.260000       0.714663       0.865893       1.076600
      12.270000       0.688907       0.853048       1.087379
      12.280000       0.666212       0.841512       1.097968
      12.290000       0.646433       0.830388       1.107937
      12.300000       0.629406       0.818883       1.117078
      12.310000       0.614993       0.806515       1.125428
      12.320000       0.603099       0.793245       1.133205
      12.330000       0.593677       0.779472       1.140695
      12.340000       0.586715       0.765922       1.148129
      12.350000       0.582219       0.753472       1.155624
      12.360000       0.580193       0.742956       1.163201
      12.370000       0.580613       0.735022       1.170861
      12.380000       0.583394       0.730052       1.178689
      12.390000       0.588371       0.728146       1.186912
      12.400000       0.595264       0.729153       1.195903
      12.410000       0.603675       0.732754       1.206128
      12.420000       0.613087       0.738556       1.218047
      12.430000       0.622902       0.746201       1.232034
      12.440000       0.632497       0.755454       1.248298
      12.450000       0.641298       0.766258       1.266853
      12.460000       0.648842       0.778733       1.287515
      12.470000       0.654808       0.793122       1.309933
      12.480000       0.659018       0.809702       1.333650
      12.490000       0.661406       0.828673       1.358179
      12.500000       0.661996       0.850076       1.383086
      12.510000       0.660900       0.873738       1.408053
      12.520000       0.658327       0.899247       1.432927
      12.530000       0.654594       0.925965       1.457717
      12.540000       0.650090       0.953054       1.482563
      12.550000       0.645223       0.979533       1.507658
      12.560000       0.640352       1.004358       1.533163
      12.570000       0.635734       1.026514       1.559127
      12.580000       0.631500       1.045099       1.585426
      12.590000       0.627663       1.059372       1.611751
      12.600000       0.624141       1.068761       1.637603
      12.610000       0.620801       1.072847       1.662329
      12.620000       0.617505       1.071366       1.685170
      12.630000       0.614155       1.064253       1.705358
      12.640000       0.610724       1.051734       1.722216
      12.650000       0.607268       1.034411       1.735280
      12.660000       0.603906       1.013282       1.744372
      12.670000       0.600789       0.989669       1.749647
      12.680000       0.598053       0.965055       1.751576
      12.690000       0.595784       0.940886       1.750899
      12.700000       0.593989       0.918395       1.748538
      12.710000       0.592587       0.898468       1.745496
      12.720000       0.591425       0.881584       1.742731
      12.730000       0.590309       0.867798       1.741031
      12.740000       0.589035       0.856776       1.740919
      12.750000       0.587425       0.847858       1.742588
      12.760000       0.585336       0.840144       1.745910
      12.770000       0.582665       0.832605       1.750484
      12.780000       0.579346       0.824217       1.755744
      12.790000       0.575368       0.814112       1.761092
      12.800000       0.570800       0.801734       1.766034
      12.810000       0.565814       0.786941       1.770285
      12.820000       0.560691       0.770017       1.773811
      12.830000       0.555794       0.751594       1.776811
      12.840000       0.551526       0.732494       1.779639
      12.850000       0.548275       0.713560       1.782706
      12.860000       0.546370       0.695524       1.786371
      12.870000       0.546066       0.678943       1.790862
      12.880000       0.547539       0.664196       1.796215
      12.890000       0.550895       0.651532       1.802267
      12.900000       0.556182       0.641128       1.808666
      12.910000       0.563379       0.633115       1.814904
      12.920000       0.572392       0.627569       1.820321
      12.930000       0.583033       0.624492       1.824129
      12.940000       0.595019       0.623777       1.825450
      12.950000       0.607996       0.625214       1.823417
      12.960000       0.621573       0.628512       1.817309
      12.970000       0.635359       0.633343       1.806688
      12.980000       0.648984       0.639380       1.791481
      12.990000       0.662099       0.646326       1.771991
      13.000000       0.674377       0.653935       1.748842
      13.010000       0.685510       0.662025       1.722866
      13.020000       0.695232       0.670485       1.694981
      13.030000       0.703343       0.679281       1.666081
      13.040000       0.709731       0.688443       1.636968
      13.050000       0.714364       0.698032       1.608312
      13.060000       0.717280       0.708110       1.580653
      13.070000       0.718568       0.718689       1.554425
      13.080000       0.718362       0.729690       1.529987
      13.090000       0.716853       0.740906       1.507670
      13.100000       0.714303       0.751977       1.487815
      13.110000       0.711039       0.762404       1.470797
      13.120000       0.707429       0.771586       1.457005
      13.130000       0.703826       0.778901       1.446784
      13.140000       0.700516       0.783785       1.440350
      13.150000       0.697672       0.785805       1.437692
      13.160000       0.695343       0.784680       1.438501
      13.170000       0.693462       0.780276       1.442115
      13.180000       0.691878       0.772570       1.447503
      13.190000       0.690406       0.761632       1.453300
      13.200000       0.688893       0.747636       1.457905
      13.210000       0.687266       0.730892       1.459647
      13.220000       0.685568       0.711883       1.457010
      13.230000       0.683929       0.691262       1.448865
      13.240000       0.682499       0.669786       1.434645
      13.250000       0.681363       0.648222       1.414424
      13.260000       0.680477       0.627252       1.388861
      13.270000       0.679644       0.607419       1.359041
      13.280000       0.678541       0.589121       1.326258
      13.290000       0.676771       0.572638       1.291815
      13.300000       0.673938       0.558171       1.256874
      13.310000       0.669717       0.545857       1.222380
      13.320000       0.663924       0.535780       1.189047
      13.330000       0.656544       0.527958       1.157391
      13.340000       0.647727       0.522325       1.127786
      13.350000       0.637740       0.518713       1.100503
      13.360000       0.626897       0.516841       1.075736
      13.370000       0.615495       0.516325       1.053602
      13.380000       0.603776       0.516720       1.034127
      13.390000       0.591927       0.517571       1.017246
      13.400000       0.580114       0.518483       1.002816
      13.410000       0.568516       0.519165       0.990643
      13.420000       0.557347       0.519465       0.980521
      13.430000       0.546851       0.519380       0.972258
      13.440000       0.537266       0.519062       0.965693
      13.450000       0.528796       0.518810       0.960686
      13.460000       0.521577       0.519054       0.957086
      13.470000       0.515666       0.520323       0.954689
      13.480000       0.511034       0.523183       0.953184
      13.490000       0.507564       0.528174       0.952142
      13.500000       0.505075       0.535735       0.951030
      13.510000       0.503345       0.546148       0.949277
      13.520000       0.502150       0.559494       0.946372
      13.530000       0.501290       0.575615       0.941952
      13.540000       0.500605       0.594099       0.935881
      13.550000       0.499953       0.614286       0.928266
      13.560000       0.499190       0.635301       0.919423
      13.570000       0.498132       0.656123       0.909803
      13.580000       0.496550       0.675684       0.899901
      13.590000       0.494178       0.692970       0.890186
      13.600000       0.490757       0.707103       0.881067
      13.610000       0.486081       0.717406       0.872887
      13.620000       0.480052       0.723442       0.865939
      13.630000       0.472703       0.725045       0.860483
      13.640000       0.464203       0.722337       0.856759
      13.650000       0.454836       0.715728       0.854996
      13.660000       0.444957       0.705883       0.855416
      13.670000       0.434934       0.693656       0.858226
      13.680000       0.425095       0.679997       0.863585
      13.690000       0.415691       0.665847       0.871561
      13.700000       0.406882       0.652041       0.882055
      13.710000       0.398751       0.639223       0.894731
      13.720000       0.391337       0.627821       0.908959
      13.730000       0.384666       0.618041       0.923789
      13.740000       0.378775       0.609915       0.937990
      13.750000       0.373721       0.603364       0.950156
      13.760000       0.369564       0.598251       0.958899
      13.770000       0.366347       0.594416       0.963067
      13.780000       0.364071       0.591667       0.961957
      13.790000       0.362671       0.589763       0.955426
      13.800000       0.362014       0.588390       0.943893
      13.810000       0.361906       0.587175       0.928201
      13.820000       0.362119       0.585732       0.909433
      13.830000       0.362424       0.583740       0.888717
      13.840000       0.362630       0.581010       0.867084
      13.850000       0.362616       0.577528       0.845384
      13.860000       0.362350       0.573443       0.824273
      13.870000       0.361889       0.568999       0.804223
      13.880000       0.361363       0.564447       0.785558
      13.890000       0.360954       0.559956       0.768488
      13.900000       0.360864       0.555564       0.753141
      13.910000       0.361291       0.551177       0.739605
      13.920000       0.362396       0.546612       0.727951
      13.930000       0.364283       0.541668       0.718261
      13.940000       0.366975       0.536197       0.710634
      13.950000       0.370411       0.530163       0.705184
      13.960000       0.374449       0.523661       0.702013
      13.970000       0.378888       0.516912       0.701193
      13.980000       0.383500       0.510234       0.702731
      13.990000       0.388070       0.504001       0.706542
      14.000000       0.392435       0.498604       0.712420
      14.010000       0.396509       0.494407       0.720011
      14.020000       0.400280       0.491716       0.728805
      14.030000       0.403789       0.490744       0.738138
      14.040000       0.407088       0.491591       0.747226
      14.050000       0.410212       0.494214       0.755227
      14.060000       0.413165       0.498412       0.761326
      14.070000       0.415921       0.503818       0.764853
      14.080000       0.418441       0.509925       0.765392
      14.090000       0.420668       0.516144       0.762868
      14.100000       0.422529       0.521893       0.757563
      14.110000       0.423917       0.526682       0.750059
      14.120000       0.424693       0.530171       0.741128
      14.130000       0.424682       0.532179       0.731593
      14.140000       0.423703       0.532658       0.722212
      14.150000       0.421593       0.531661       0.713589
      14.160000       0.418249       0.529319       0.706137
      14.170000       0.413673       0.525824       0.700078
      14.180000       0.407990       0.521423       0.695486
      14.190000       0.401455       0.516390       0.692333
      14.200000       0.394422       0.511001       0.690556
      14.210000       0.387296       0.505508       0.690101
      14.220000       0.380474       0.500118       0.690954
      14.230000       0.374286       0.494991       0.693147
      14.240000       0.368947       0.490233       0.696745
      14.250000       0.364535       0.485905       0.701805
      14.260000       0.360996       0.482035       0.708335
      14.270000       0.358178       0.478632       0.716252
      14.280000       0.355889       0.475702       0.725369
      14.290000       0.353954       0.473270       0.735413
      14.300000       0.352273       0.471394       0.746062
      14.310000       0.350838       0.470185       0.756985
      14.320000       0.349722       0.469808       0.767869
      14.330000       0.349040       0.470491       0.778427
      14.340000       0.348899       0.472510       0.788399
      14.350000       0.349359       0.476174       0.797571
      14.360000       0.350414       0.481785       0.805784
      14.370000       0.351995       0.489596       0.812950
      14.380000       0.353989       0.499769       0.819025
      14.390000       0.356276       0.512337       0.823965
      14.400000       0.358767       0.527189       0.827672
      14.410000       0.361428       0.544067       0.829964
      14.420000       0.364293       0.562574       0.830591
      14.430000       0.367450       0.582182       0.829284
      14.440000       0.371010       0.602248       0.825840
      14.450000       0.375072       0.622029       0.820198
      14.460000       0.379702       0.640727       0.812471
      14.470000       0.384914       0.657562       0.802935
      14.480000       0.390680       0.671881       0.791968
      14.490000       0.396939       0.683263       0.779977
      14.500000       0.403617       0.691596       0.767345
      14.510000       0.410624       0.697071       0.754392
      14.520000       0.417842       0.700096       0.741369
      14.530000       0.425091       0.701160       0.728451
      14.540000       0.432117       0.700684       0.715745
      14.550000       0.438596       0.698922       0.703293
      14.560000       0.444189       0.695931       0.691094
      14.570000       0.448602       0.691634       0.679125
      14.580000       0.451639       0.685914       0.667371
      14.590000       0.453218       0.678737       0.655855
      14.600000       0.453344       0.670220       0.644655
      14.610000       0.452065       0.660655       0.633895
      14.620000       0.449436       0.650461       0.623728
      14.630000       0.445514       0.640106       0.614293
      14.640000       0.440383       0.630022       0.605674
      14.650000       0.434181       0.620527       0.597865
      14.660000       0.427121       0.611788       0.590748
      14.670000       0.419472       0.603819       0.584100
      14.680000       0.411517       0.596505       0.577626
      14.690000       0.403492       0.589644       0.571012
      14.700000       0.395542       0.582986       0.563982
      14.710000       0.387700       0.576274       0.556361
      14.720000       0.379918       0.569301       0.548107
      14.730000       0.372109       0.561954       0.539321
      14.740000       0.364222       0.554254       0.530240
      14.750000       0.356276       0.546360       0.521189
      14.760000       0.348386       0.538539       0.512536
      14.770000       0.340732       0.531108       0.504624
      14.780000       0.333517       0.524375       0.497728
      14.790000       0.326911       0.518590       0.492014
      14.800000       0.321005       0.513933       0.487532
      14.810000       0.315791       0.510516       0.484215
      14.820000       0.311169       0.508387       0.481898
      14.830000       0.306974       0.507526       0.480344
      14.840000       0.303013       0.507822       0.479281
      14.850000       0.299114       0.509066       0.478448
      14.860000       0.295162       0.510957       0.477647
      14.870000       0.291117       0.513147       0.476781
      14.880000       0.287009       0.515305       0.475868
      14.890000       0.282919       0.517182       0.475029
      14.900000       0.278956       0.518650       0.474447
      14.910000       0.275233       0.519723       0.474320
      14.920000       0.271849       0.520528       0.474815
      14.930000       0.268878       0.521270       0.476028
      14.940000       0.266352       0.522172       0.477955
      14.950000       0.264259       0.523431       0.480484
      14.960000       0.262548       0.525186       0.483408
      14.970000       0.261148       0.527525       0.486459
      14.980000       0.259993       0.530499       0.489373
      14.990000       0.259048       0.534156       0.491939
      15.000000       0.258313       0.538539       0.494030
      15.010000       0.257817       0.543657       0.495614
      15.020000       0.257591       0.549442       0.496721
      15.030000       0.257644       0.555700       0.497422
      15.040000       0.257938       0.562107       0.497793
      15.050000       0.258385       0.568251       0.497913
      15.060000       0.258854       0.573698       0.497856
      15.070000       0.259201       0.578075       0.497700
      15.080000       0.259297       0.581135       0.497527
      15.090000       0.259055       0.582799       0.497411
      15.100000       0.258451       0.583163       0.497394
      15.110000       0.257525       0.582490       0.497451
      15.120000       0.256375       0.581174       0.497468
      15.130000       0.255131       0.579700       0.497240
      15.140000       0.253926       0.578576       0.496497
      15.150000       0.252869       0.578273       0.494955
      15.160000       0.252030       0.579170       0.492372
      15.170000       0.251437       0.581518       0.488614
      15.180000       0.251088       0.585412       0.483684
      15.190000       0.250966       0.590778       0.477728
      15.200000       0.251046       0.597366       0.471001
      15.210000       0.251301       0.604760       0.463814
      15.220000       0.251707       0.612416       0.456465
      15.230000       0.252233       0.619728       0.449198
      15.240000       0.252846       0.626084       0.442186
      15.250000       0.253502       0.630926       0.435545
      15.260000       0.254136       0.633780       0.429347
      15.270000       0.254665       0.634283       0.423651
      15.280000       0.254991       0.632235       0.418502
      15.290000       0.255031       0.627638       0.413941
      15.300000       0.254744       0.620740       0.410001
      15.310000       0.254147       0.612012       0.406703
      15.320000       0.253308       0.602080       0.404050
      15.330000       0.252322       0.591614       0.402023
      15.340000       0.251289       0.581225       0.400582
      15.350000       0.250292       0.571386       0.399665
      15.360000       0.249406       0.562411       0.399199
      15.370000       0.248709       0.554459       0.399108
      15.380000       0.248287       0.547577       0.399317
      15.390000       0.248229       0.541741       0.399749
      15.400000       0.248604       0.536890       0.400323
      15.410000       0.249441       0.532951       0.400947
      15.420000       0.250698       0.529838       0.401517
      15.430000       0.252265       0.527432       0.401921
      15.440000       0.253977       0.525574       0.402043
      15.450000       0.255643       0.524053       0.401767
      15.460000       0.257090       0.522619       0.400990
      15.470000       0.258198       0.521011       0.399629
      15.480000       0.258918       0.518989       0.397644
      15.490000       0.259281       0.516364       0.395060
      15.500000       0.259378       0.513029       0.391968
      15.510000       0.259337       0.508980       0.388525
      15.520000       0.259297       0.504317       0.384926
      15.530000       0.259379       0.499242       0.381379
      15.540000       0.259668       0.494036       0.378066
      15.550000       0.260198       0.489030       0.375127
      15.560000       0.260951       0.484559       0.372642
      15.570000       0.261866       0.480907       0.370639
      15.580000       0.262858       0.478256       0.369095
      15.590000       0.263841       0.476648       0.367950
      15.600000       0.264762       0.475967       0.367118
      15.610000       0.265620       0.475956       0.366502
      15.620000       0.266472       0.476259       0.366001
      15.630000       0.267421       0.476482       0.365533
      15.640000       0.268581       0.476265       0.365039
      15.650000       0.270040       0.475339       0.364494
      15.660000       0.271833       0.473575       0.363910
      15.670000       0.273922       0.471002       0.363323
      15.680000       0.276199       0.467800       0.362780
      15.690000       0.278499       0.464258       0.362332
      15.700000       0.280624       0.460712       0.362023
      15.710000       0.282384       0.457483       0.361884
      15.720000       0.283638       0.454824       0.361933
      15.730000       0.284336       0.452900       0.362174
      15.740000       0.284534       0.451785       0.362596
      15.750000       0.284377       0.451466       0.363170
      15.760000       0.284056       0.451849       0.363856
      15.770000       0.283743       0.452780       0.364594
      15.780000       0.283552       0.454066       0.365312
      15.790000       0.283512       0.455530       0.365930
      15.800000       0.283585       0.457044       0.366376
      15.810000       0.283694       0.458565       0.366604
      15.820000       0.283770       0.460121       0.366614
      15.830000       0.283771       0.461777       0.366455
      15.840000       0.283683       0.463577       0.366213
      15.850000       0.283507       0.465490       0.365990
      15.860000       0.283232       0.467400       0.365864
      15.870000       0.282832       0.469122       0.365869
      15.880000       0.282273       0.470456       0.365974
      15.890000       0.281524       0.471251       0.366081
      15.900000       0.280568       0.471443       0.366036
      15.910000       0.279389       0.471054       0.365641
      15.920000       0.277954       0.470161       0.364678
      15.930000       0.276188       0.468845       0.362935
      15.940000       0.273984       0.467150       0.360238
      15.950000       0.271213       0.465080       0.356471
      15.960000       0.267766       0.462611       0.351607
      15.970000       0.263590       0.459719       0.345716
      15.980000       0.258711       0.456404       0.338958
      15.990000       0.253242       0.452694       0.331566
      16.000000       0.247367       0.448646       0.323817
      16.010000       0.241308       0.444332       0.315996
      16.020000       0.235288       0.439831       0.308368
      16.030000       0.229500       0.435231       0.301147
      16.040000       0.224095       0.430646       0.294481
      16.050000       0.219178       0.426230       0.288447
      16.060000       0.214813       0.422180       0.283056
      16.070000       0.211030       0.418723       0.278267
      16.080000       0.207826       0.416094       0.274011
      16.090000       0.205171       0.414506       0.270213
      16.100000       0.203013       0.414124       0.266811
      16.110000       0.201284       0.415044       0.263755
      16.120000       0.199913       0.417273       0.261005
      16.130000       0.198831       0.420718       0.258520
      16.140000       0.197979       0.425181       0.256253
      16.150000       0.197318       0.430372       0.254149
      16.160000       0.196825       0.435929       0.252164
      16.170000       0.196501       0.441442       0.250272
      16.180000       0.196363       0.446485       0.248487
      16.190000       0.196433       0.450648       0.246865
      16.200000       0.196722       0.453559       0.245503
      16.210000       0.197218       0.454917       0.244528
      16.220000       0.197870       0.454519       0.244071
      16.230000       0.198597       0.452294       0.244249
      16.240000       0.199300       0.448315       0.245140
      16.250000       0.199877       0.442793       0.246766
      16.260000       0.200245       0.436046       0.249085
      16.270000       0.200352       0.428450       0.251987
      16.280000       0.200178       0.420397       0.255303
      16.290000       0.199724       0.412250       0.258821
      16.300000       0.199010       0.404324       0.262312
      16.310000       0.198062       0.396877       0.265554
      16.320000       0.196909       0.390110       0.268352
      16.330000       0.195586       0.384179       0.270549
      16.340000       0.194127       0.379200       0.272035
      16.350000       0.192570       0.375250       0.272746
      16.360000       0.190959       0.372365       0.272664
      16.370000       0.189350       0.370544       0.271811
      16.380000       0.187810       0.369749       0.270250
      16.390000       0.186418       0.369911       0.268069
      16.400000       0.185249       0.370926       0.265376
      16.410000       0.184365       0.372656       0.262289
      16.420000       0.183799       0.374910       0.258926
      16.430000       0.183549       0.377446       0.255404
      16.440000       0.183579       0.379980       0.251831
      16.450000       0.183830       0.382222       0.248306
      16.460000       0.184231       0.383928       0.244909
      16.470000       0.184716       0.384946       0.241697
      16.480000       0.185226       0.385246       0.238705
      16.490000       0.185717       0.384912       0.235948
      16.500000       0.186149       0.384106       0.233432
      16.510000       0.186482       0.383018       0.231159
      16.520000       0.186674       0.381824       0.229147
      16.530000       0.186683       0.380668       0.227429
      16.540000       0.186482       0.379659       0.226059
      16.550000       0.186061       0.378877       0.225107
      16.560000       0.185436       0.378377       0.224645
      16.570000       0.184642       0.378173       0.224734
      16.580000       0.183730       0.378235       0.225405
      16.590000       0.182754       0.378472       0.226656
      16.600000       0.181764       0.378740       0.228440
      16.610000       0.180800       0.378850       0.230672
      16.620000       0.179879       0.378593       0.233239
      16.630000       0.178993       0.377764       0.236019
      16.640000       0.178117       0.376201       0.238892
      16.650000       0.177215       0.373813       0.241760
      16.660000       0.176257       0.370599       0.244550
      16.670000       0.175229       0.366648       0.247216
      16.680000       0.174144       0.362117       0.249726
      16.690000       0.173035       0.357196       0.252057
      16.700000       0.171949       0.352072       0.254180
      16.710000       0.170939       0.346905       0.256055
      16.720000       0.170045       0.341821       0.257626
      16.730000       0.169291       0.336920       0.258822
      16.740000       0.168684       0.332300       0.259565
      16.750000       0.168217       0.328065       0.259786
      16.760000       0.167878       0.324331       0.259442
      16.770000       0.167661       0.321217       0.258531
      16.780000       0.167567       0.318824       0.257099
      16.790000       0.167607       0.317224       0.255237
      16.800000       0.167802       0.316449       0.253064
      16.810000       0.168180       0.316505       0.250709
      16.820000       0.168780       0.317385       0.248294
      16.830000       0.169643       0.319088       0.245921
      16.840000       0.170815       0.321616       0.243674
      16.850000       0.172331       0.324969       0.241615
      16.860000       0.174202       0.329115       0.239789
      16.870000       0.176405       0.333965       0.238219
      16.880000       0.178867       0.339353       0.236899
      16.890000       0.181462       0.345025       0.235796
      16.900000       0.184021       0.350649       0.234845
      16.910000       0.186350       0.355839       0.233963
      16.920000       0.188269       0.360201       0.233071
      16.930000       0.189638       0.363395       0.232113
      16.940000       0.190392       0.365182       0.231078
      16.950000       0.190541       0.365457       0.230008
      16.960000       0.190160       0.364240       0.228990
      16.970000       0.189363       0.361635       0.228144
      16.980000       0.188268       0.357790       0.227600
      16.990000       0.186973       0.352860       0.227479
      17.000000       0.185542       0.347015       0.227879
      17.010000       0.184006       0.340443       0.228858
      17.020000       0.182386       0.333362       0.230434
      17.030000       0.180712       0.326018       0.232583
      17.040000       0.179047       0.318663       0.235249
      17.050000       0.177491       0.311523       0.238352
      17.060000       0.176169       0.304773       0.241794
      17.070000       0.175202       0.298513       0.245465
      17.080000       0.174681       0.292772       0.249245
      17.090000       0.174639       0.287519       0.253006
      17.100000       0.175047       0.282692       0.256622
      17.110000       0.175824       0.278220       0.259978
      17.120000       0.176868       0.274053       0.262972
      17.130000       0.178084       0.270178       0.265521
      17.140000       0.179412       0.266620       0.267559
      17.150000       0.180832       0.263426       0.269030
      17.160000       0.182360       0.260645       0.269896
      17.170000       0.184021       0.258305       0.270137
      17.180000       0.185825       0.256395       0.269755
      17.190000       0.187760       0.254869       0.268781
      17.200000       0.189791       0.253662       0.267273
      17.210000       0.191868       0.252720       0.265319
      17.220000       0.193933       0.252030       0.263028
      17.230000       0.195927       0.251636       0.260521
      17.240000       0.197771       0.251648       0.257922
      17.250000       0.199362       0.252215       0.255350
      17.260000       0.200569       0.253494       0.252906
      17.270000       0.201241       0.255606       0.250680
      17.280000       0.201241       0.258605       0.248745
      17.290000       0.200472       0.262449       0.247164
      17.300000       0.198905       0.266993       0.245983
      17.310000       0.196590       0.271989       0.245232
      17.320000       0.193639       0.277102       0.244921
      17.330000       0.190205       0.281943       0.245040
      17.340000       0.186442       0.286112       0.245559
      17.350000       0.182492       0.289249       0.246439
      17.360000       0.178464       0.291085       0.247632
      17.370000       0.174445       0.291467       0.249087
      17.380000       0.170496       0.290367       0.250745
      17.390000       0.166664       0.287870       0.252536
      17.400000       0.162982       0.284148       0.254377
      17.410000       0.159472       0.279443       0.256176
      17.420000       0.156145       0.274038       0.257834
      17.430000       0.153000       0.268233       0.259259
      17.440000       0.150025       0.262322       0.260376
      17.450000       0.147206       0.256565       0.261140
      17.460000       0.144537       0.251172       0.261546
      17.470000       0.142022       0.246297       0.261631
      17.480000       0.139680       0.242044       0.261476
      17.490000       0.137532       0.238480       0.261184
      17.500000       0.135594       0.235644       0.260862
      17.510000       0.133867       0.233554       0.260601
      17.520000       0.132335       0.232205       0.260460
      17.530000       0.130967       0.231567       0.260467
      17.540000       0.129731       0.231591       0.260618
      17.550000       0.128600       0.232205       0.260898
      17.560000       0.127556       0.233320       0.261295
      17.570000       0.126592       0.234824       0.261815
      17.580000       0.125703       0.236583       0.262476
      17.590000       0.124880       0.238444       0.263301
      17.600000       0.124106       0.240240       0.264287
      17.610000       0.123361       0.241801       0.265385
      17.620000       0.122632       0.242969       0.266488
      17.630000       0.121915       0.243619       0.267436
      17.640000       0.121225       0.243677       0.268037
      17.650000       0.120592       0.243130       0.268097
      17.660000       0.120050       0.242036       0.267442
      17.670000       0.119633       0.240508       0.265939
      17.680000       0.119363       0.238696       0.263507
      17.690000       0.119248       0.236766       0.260130
      17.700000       0.119286       0.234868       0.255869
      17.710000       0.119464       0.233117       0.250862
      17.720000       0.119764       0.231576       0.245317
      17.730000       0.120161       0.230257       0.239488
      17.740000       0.120618       0.229131       0.233638
      17.750000       0.121093       0.228147       0.228001
      17.760000       0.121535       0.227253       0.222759
      17.770000       0.121900       0.226418       0.218033
      17.780000       0.122155       0.225644       0.213884
      17.790000       0.122280       0.224969       0.210333
      17.800000       0.122279       0.224461       0.207367
      17.810000       0.122167       0.224207       0.204951
      17.820000       0.121975       0.224289       0.203026
      17.830000       0.121745       0.224767       0.201515
      17.840000       0.121524       0.225656       0.200318
      17.850000       0.121361       0.226917       0.199319
      17.860000       0.121301       0.228455       0.198400
      17.870000       0.121378       0.230128       0.197447
      17.880000       0.121604       0.231769       0.196369
      17.890000       0.121981       0.233214       0.195109
      17.900000       0.122499       0.234339       0.193651
      17.910000       0.123146       0.235077       0.192019
      17.920000       0.123908       0.235432       0.190272
      17.930000       0.124771       0.235469       0.188482
      17.940000       0.125711       0.235297       0.186724
      17.950000       0.126691       0.235034       0.185055
      17.960000       0.127669       0.234785       0.183509
      17.970000       0.128599       0.234617       0.182087
      17.980000       0.129451       0.234547       0.180768
      17.990000       0.130217       0.234555       0.179517
      18.000000       0.130926       0.234599       0.178297
      18.010000       0.131632       0.234644       0.177088
      18.020000       0.132410       0.234685       0.175891
      18.030000       0.133330       0.234749       0.174725
      18.040000       0.134441       0.234880       0.173621
      18.050000       0.135747       0.235115       0.172610
      18.060000       0.137203       0.235464       0.171722
      18.070000       0.138713       0.235891       0.170980
      18.080000       0.140149       0.236323       0.170415
      18.090000       0.141369       0.236666       0.170063
      18.100000       0.142256       0.236829       0.169971
      18.110000       0.142735       0.236738       0.170192
      18.120000       0.142797       0.236347       0.170771
      18.130000       0.142487       0.235632       0.171733
      18.140000       0.141896       0.234587       0.173078
      18.150000       0.141130       0.233224       0.174779
      18.160000       0.140285       0.231570       0.176788
      18.170000       0.139432       0.229673       0.179041
      18.180000       0.138605       0.227592       0.181463
      18.190000       0.137806       0.225390       0.183966
      18.200000       0.137010       0.223114       0.186455
      18.210000       0.136177       0.220796       0.188837
      18.220000       0.135261       0.218449       0.191038
      18.230000       0.134227       0.216093       0.193016
      18.240000       0.133058       0.213770       0.194771
      18.250000       0.131769       0.211555       0.196344
      18.260000       0.130409       0.209551       0.197798
      18.270000       0.129058       0.207869       0.199209
      18.280000       0.127809       0.206594       0.200640
      18.290000       0.126753       0.205764       0.202142
      18.300000       0.125960       0.205350       0.203746
      18.310000       0.125470       0.205265       0.205476
      18.320000       0.125289       0.205385       0.207360
      18.330000       0.125401       0.205573       0.209433
      18.340000       0.125774       0.205718       0.211733
      18.350000       0.126378       0.205750       0.214295
      18.360000       0.127187       0.205643       0.217128
      18.370000       0.128184       0.205411       0.220206
      18.380000       0.129349       0.205079       0.223458
      18.390000       0.130651       0.204666       0.226774
      18.400000       0.132043       0.204176       0.230019
      18.410000       0.133459       0.203587       0.233052
      18.420000       0.134825       0.202865       0.235747
      18.430000       0.136066       0.201976       0.238005
      18.440000       0.137110       0.200894       0.239770
      18.450000       0.137886       0.199612       0.241031
      18.460000       0.138322       0.198147       0.241821
      18.470000       0.138352       0.196536       0.242208
      18.480000       0.137914       0.194833       0.242268
      18.490000       0.136970       0.193101       0.242067
      18.500000       0.135511       0.191407       0.241646
      18.510000       0.133566       0.189808       0.241018
      18.520000       0.131200       0.188343       0.240182
      18.530000       0.128511       0.187026       0.239146
      18.540000       0.125622       0.185847       0.237940
      18.550000       0.122661       0.184774       0.236622
      18.560000       0.119752       0.183767       0.235267
      18.570000       0.117003       0.182792       0.233960
      18.580000       0.114494       0.181828       0.232779
      18.590000       0.112273       0.180881       0.231778
      18.600000       0.110362       0.179985       0.230981
      18.610000       0.108762       0.179195       0.230370
      18.620000       0.107457       0.178575       0.229887
      18.630000       0.106424       0.178182       0.229447
      18.640000       0.105636       0.178043       0.228959
      18.650000       0.105057       0.178146       0.228344
      18.660000       0.104648       0.178434       0.227551
      18.670000       0.104363       0.178817       0.226565
      18.680000       0.104150       0.179181       0.225405
      18.690000       0.103961       0.179417       0.224118
      18.700000       0.103756       0.179437       0.222774
      18.710000       0.103511       0.179191       0.221449
      18.720000       0.103225       0.178668       0.220218
      18.730000       0.102918       0.177884       0.219130
      18.740000       0.102630       0.176877       0.218207
      18.750000       0.102412       0.175689       0.217433
      18.760000       0.102317       0.174368       0.216763
      18.770000       0.102390       0.172953       0.216141
      18.780000       0.102658       0.171472       0.215511
      18.790000       0.103127       0.169936       0.214835
      18.800000       0.103775       0.168337       0.214106
      18.810000       0.104557       0.166655       0.213340
      18.820000       0.105415       0.164875       0.212577
      18.830000       0.106287       0.162994       0.211870
      18.840000       0.107117       0.161031       0.211268
      18.850000       0.107869       0.159029       0.210815
      18.860000       0.108519       0.157055       0.210532
      18.870000       0.109063       0.155189       0.210418
      18.880000       0.109504       0.153518       0.210440
      18.890000       0.109852       0.152129       0.210546
      18.900000       0.110114       0.151099       0.210665
      18.910000       0.110292       0.150485       0.210726
      18.920000       0.110382       0.150318       0.210670
      18.930000       0.110373       0.150593       0.210456
      18.940000       0.110253       0.151264       0.210076
      18.950000       0.110012       0.152246       0.209550
      18.960000       0.109649       0.153411       0.208929
      18.970000       0.109169       0.154607       0.208283
      18.980000       0.108589       0.155665       0.207690
      18.990000       0.107932       0.156421       0.207227
      19.000000       0.107233       0.156742       0.206954
      19.010000       0.106530       0.156546       0.206906
      19.020000       0.105867       0.155812       0.207093
      19.030000       0.105288       0.154584       0.207498
      19.040000       0.104828       0.152948       0.208085
      19.050000       0.104510       0.151017       0.208808
      19.060000       0.104335       0.148902       0.209619
      19.070000       0.104285       0.146705       0.210470
      19.080000       0.104320       0.144510       0.211306
      19.090000       0.104382       0.142386       0.212065
      19.100000       0.104404       0.140395       0.212672
      19.110000       0.104314       0.138587       0.213046
      19.120000       0.104046       0.136997       0.213108
      19.130000       0.103541       0.135639       0.212799
      19.140000       0.102763       0.134500       0.212089
      19.150000       0.101699       0.133546       0.210984
      19.160000       0.100360       0.132719       0.209526
      19.170000       0.098783       0.131950       0.207783
      19.180000       0.097023       0.131164       0.205844
      19.190000       0.095146       0.130294       0.203809
      19.200000       0.093220       0.129302       0.201779
      19.210000       0.091311       0.128188       0.199859
      19.220000       0.089474       0.126994       0.198146
      19.230000       0.087747       0.125791       0.196734
      19.240000       0.086154       0.124666       0.195710
      19.250000       0.084705       0.123691       0.195152
      19.260000       0.083397       0.122908       0.195120
      19.270000       0.082228       0.122324       0.195652
      19.280000       0.081193       0.121909       0.196754
      19.290000       0.080292       0.121608       0.198389
      19.300000       0.079524       0.121357       0.200488
      19.310000       0.078891       0.121102       0.202948
      19.320000       0.078390       0.120813       0.205664
      19.330000       0.078015       0.120491       0.208542
      19.340000       0.077757       0.120157       0.211514
      19.350000       0.077598       0.119843       0.214549
      19.360000       0.077520       0.119574       0.217639
      19.370000       0.077501       0.119353       0.220792
      19.380000       0.077514       0.119156       0.224021
      19.390000       0.077530       0.118925       0.227337
      19.400000       0.077517       0.118582       0.230743
      19.410000       0.077444       0.118040       0.234231
      19.420000       0.077283       0.117223       0.237776
      19.430000       0.077015       0.116088       0.241327
      19.440000       0.076630       0.114642       0.244809
      19.450000       0.076132       0.112940       0.248122
      19.460000       0.075536       0.111080       0.251152
      19.470000       0.074870       0.109180       0.253786
      19.480000       0.074173       0.107359       0.255929
      19.490000       0.073489       0.105724       0.257523
      19.500000       0.072867       0.104356       0.258552
      19.510000       0.072356       0.103317       0.259031
      19.520000       0.071998       0.102648       0.259000
      19.530000       0.071829       0.102375       0.258503
      19.540000       0.071866       0.102511       0.257587
      19.550000       0.072107       0.103049       0.256297
      19.560000       0.072528       0.103969       0.254679
      19.570000       0.073084       0.105227       0.252781
      19.580000       0.073714       0.106759       0.250646
      19.590000       0.074355       0.108489       0.248311
      19.600000       0.074953       0.110331       0.245800
      19.610000       0.075479       0.112205       0.243113
      19.620000       0.075930       0.114039       0.240230
      19.630000       0.076333       0.115783       0.237114
      19.640000       0.076729       0.117397       0.233729
      19.650000       0.077163       0.118843       0.230050
      19.660000       0.077669       0.120074       0.226089
      19.670000       0.078257       0.121029       0.221895
      19.680000       0.078915       0.121635       0.217558
      19.690000       0.079610       0.121826       0.213200
      19.700000       0.080296       0.121564       0.208959
      19.710000       0.080927       0.120852       0.204965
      19.720000       0.081469       0.119737       0.201328
      19.730000       0.081909       0.118305       0.198124
      19.740000       0.082256       0.116663       0.195392
      19.750000       0.082538       0.114916       0.193132
      19.760000       0.082794       0.113154       0.191312
      19.770000       0.083063       0.111442       0.189874
      19.780000       0.083378       0.109817       0.188747
      19.790000       0.083759       0.108295       0.187852
      19.800000       0.084212       0.106882       0.187117
      19.810000       0.084727       0.105574       0.186482
      19.820000       0.085282       0.104374       0.185898
      19.830000       0.085849       0.103289       0.185326
      19.840000       0.086402       0.102334       0.184744
      19.850000       0.086924       0.101526       0.184146
      19.860000       0.087418       0.100881       0.183555
      19.870000       0.087903       0.100407       0.183026
      19.880000       0.088422       0.100105       0.182642
      19.890000       0.089030       0.099966       0.182508
      19.900000       0.089778       0.099974       0.182726
      19.910000       0.090705       0.100107       0.183384
      19.920000       0.091820       0.100348       0.184531
      19.930000       0.093096       0.100684       0.186175
      19.940000       0.094476       0.101114       0.188280
      19.950000       0.095878       0.101642       0.190768
      19.960000       0.097214       0.102279       0.193531
      19.970000       0.098400       0.103026       0.196440
      19.980000       0.099367       0.103874       0.199357
      19.990000       0.100066       0.104796       0.202144
      20.000000       0.100472       0.105743       0.204677
