  # energy grid [eV]     epsi_x  epsi_y  epsi_z
       0.000000            NaN            NaN            NaN
       0.010000       1.164365       0.460333       2.644617
       0.020000       2.325582       0.921495       3.462870
       0.030000       3.480874       1.384406       3.291572
       0.040000       4.628579       1.850260       2.873925
       0.050000       5.769283       2.320808       2.460449
       0.060000       6.906778       2.798524       2.106689
       0.070000       8.047954       3.286372       1.815015
       0.080000       9.200827       3.786902       1.576260
       0.090000      10.370629       4.300631       1.380505
       0.100000      11.554662       4.823940       1.219422
       0.110000      12.737162       5.346966       1.086447
       0.120000      13.885701       5.852093       0.976450
       0.130000      14.950838       6.313885       0.885373
       0.140000      15.870632       6.701240       0.809937
       0.150000      16.580764       6.982186       0.747421
       0.160000      17.028779       7.130652       0.695519
       0.170000      17.188186       7.133166       0.652265
       0.180000      17.066738       6.992771       0.616013
       0.190000      16.705141       6.728365       0.585444
       0.200000      16.166947       6.369809       0.559578
       0.210000      15.524332       5.951076       0.537753
       0.220000      14.845214       5.504068       0.519551
       0.230000      14.185043       5.054682       0.504691
       0.240000      13.583686       4.621357       0.492898
       0.250000      13.066068       4.215412       0.483793
       0.260000      12.644829       3.842352       0.476809
       0.270000      12.323667       3.503469       0.471180
       0.280000      12.100630       3.197365       0.465995
       0.290000      11.971023       2.921212       0.460324
       0.300000      11.929807       2.671698       0.453379
       0.310000      11.973429       2.445635       0.444642
       0.320000      12.101086       2.240280       0.433920
       0.330000      12.315391       2.053433       0.421288
       0.340000      12.622403       1.883400       0.406978
       0.350000      13.031030       1.728871       0.391271
       0.360000      13.551928       1.588780       0.374426
       0.370000      14.196089       1.462184       0.356669
       0.380000      14.973266       1.348170       0.338210
       0.390000      15.890231       1.245824       0.319273
       0.400000      16.948741       1.154220       0.300121
       0.410000      18.143117       1.072440       0.281065
       0.420000      19.457530       0.999589       0.262440
       0.430000      20.863455       0.934808       0.244576
       0.440000      22.318162       0.877282       0.227751
       0.450000      23.765313       0.826231       0.212163
       0.460000      25.138408       0.780898       0.197921
       0.470000      26.366939       0.740536       0.185041
       0.480000      27.384111       0.704395       0.173471
       0.490000      28.134740       0.671724       0.163102
       0.500000      28.582500       0.641799       0.153796
       0.510000      28.715979       0.613965       0.145407
       0.520000      28.552102       0.587695       0.137802
       0.530000      28.134482       0.562631       0.130880
       0.540000      27.525080       0.538589       0.124573
       0.550000      26.790568       0.515517       0.118852
       0.560000      25.987611       0.493432       0.113711
       0.570000      25.151837       0.472353       0.109160
       0.580000      24.293670       0.452263       0.105213
       0.590000      23.401796       0.433109       0.101884
       0.600000      22.452882       0.414823       0.099184
       0.610000      21.424310       0.397353       0.097117
       0.620000      20.305521       0.380687       0.095688
       0.630000      19.103943       0.364854       0.094897
       0.640000      17.843892       0.349907       0.094741
       0.650000      16.560089       0.335901       0.095211
       0.660000      15.289388       0.322878       0.096288
       0.670000      14.064027       0.310853       0.097936
       0.680000      12.907954       0.299819       0.100097
       0.690000      11.836053       0.289745       0.102680
       0.700000      10.855261       0.280590       0.105561
       0.710000       9.966468       0.272301       0.108585
       0.720000       9.166486       0.264823       0.111576
       0.730000       8.449696       0.258102       0.114348
       0.740000       7.809269       0.252087       0.116723
       0.750000       7.237996       0.246729       0.118539
       0.760000       6.728811       0.241985       0.119657
       0.770000       6.275084       0.237817       0.119977
       0.780000       5.870769       0.234191       0.119452
       0.790000       5.510457       0.231079       0.118114
       0.800000       5.189370       0.228457       0.116077
       0.810000       4.903325       0.226303       0.113523
       0.820000       4.648681       0.224602       0.110660
       0.830000       4.422279       0.223341       0.107677
       0.840000       4.221376       0.222510       0.104710
       0.850000       4.043587       0.222105       0.101820
       0.860000       3.886821       0.222123       0.099006
       0.870000       3.749229       0.222566       0.096221
       0.880000       3.629158       0.223438       0.093409
       0.890000       3.525134       0.224748       0.090530
       0.900000       3.435861       0.226509       0.087577
       0.910000       3.360263       0.228736       0.084579
       0.920000       3.297541       0.231452       0.081588
       0.930000       3.247235       0.234681       0.078672
       0.940000       3.209249       0.238456       0.075900
       0.950000       3.183836       0.242814       0.073342
       0.960000       3.171542       0.247800       0.071061
       0.970000       3.173135       0.253465       0.069111
       0.980000       3.189551       0.259870       0.067535
       0.990000       3.221862       0.267084       0.066365
       1.000000       3.271267       0.275188       0.065618
       1.010000       3.339095       0.284270       0.065295
       1.020000       3.426801       0.294431       0.065386
       1.030000       3.535945       0.305780       0.065858
       1.040000       3.668123       0.318431       0.066661
       1.050000       3.824849       0.332500       0.067718
       1.060000       4.007346       0.348095       0.068929
       1.070000       4.216236       0.365301       0.070175
       1.080000       4.451116       0.384161       0.071331
       1.090000       4.710035       0.404652       0.072289
       1.100000       4.988958       0.426659       0.072976
       1.110000       5.281368       0.449945       0.073372
       1.120000       5.578260       0.474153       0.073501
       1.130000       5.868743       0.498814       0.073421
       1.140000       6.141349       0.523403       0.073195
       1.150000       6.385831       0.547426       0.072872
       1.160000       6.594921       0.570513       0.072481
       1.170000       6.765454       0.592501       0.072035
       1.180000       6.898483       0.613483       0.071551
       1.190000       6.998362       0.633792       0.071063
       1.200000       7.071191       0.653941       0.070626
       1.210000       7.123204       0.674522       0.070320
       1.220000       7.159718       0.696114       0.070227
       1.230000       7.184939       0.719208       0.070424
       1.240000       7.202396       0.744165       0.070966
       1.250000       7.215389       0.771164       0.071876
       1.260000       7.226941       0.800146       0.073141
       1.270000       7.239230       0.830727       0.074710
       1.280000       7.253034       0.862140       0.076495
       1.290000       7.267722       0.893264       0.078383
       1.300000       7.281923       0.922768       0.080250
       1.310000       7.294431       0.949392       0.081987
       1.320000       7.304681       0.972292       0.083524
       1.330000       7.312444       0.991321       0.084837
       1.340000       7.317039       1.007127       0.085943
       1.350000       7.316698       1.021006       0.086876
       1.360000       7.308560       1.034572       0.087654
       1.370000       7.289208       1.049361       0.088249
       1.380000       7.255217       1.066482       0.088588
       1.390000       7.203247       1.086370       0.088560
       1.400000       7.129727       1.108671       0.088049
       1.410000       7.030568       1.132261       0.086978
       1.420000       6.901354       1.155429       0.085335
       1.430000       6.738012       1.176224       0.083189
       1.440000       6.537668       1.192948       0.080675
       1.450000       6.299421       1.204642       0.077970
       1.460000       6.024944       1.211412       0.075259
       1.470000       5.718857       1.214432       0.072708
       1.480000       5.388648       1.215635       0.070450
       1.490000       5.043936       1.217221       0.068581
       1.500000       4.695159       1.221157       0.067166
       1.510000       4.352112       1.228801       0.066240
       1.520000       4.022821       1.240703       0.065822
       1.530000       3.712987       1.256563       0.065912
       1.540000       3.425993       1.275352       0.066495
       1.550000       3.163265       1.295580       0.067543
       1.560000       2.924771       1.315699       0.069002
       1.570000       2.709512       1.334565       0.070798
       1.580000       2.515921       1.351805       0.072824
       1.590000       2.342163       1.367960       0.074945
       1.600000       2.186331       1.384318       0.077008
       1.610000       2.046573       1.402503       0.078852
       1.620000       1.921157       1.423980       0.080333
       1.630000       1.808506       1.449615       0.081338
       1.640000       1.707211       1.479380       0.081798
       1.650000       1.616026       1.512260       0.081685
       1.660000       1.533857       1.546369       0.081011
       1.670000       1.459753       1.579304       0.079821
       1.680000       1.392891       1.608698       0.078189
       1.690000       1.332565       1.632845       0.076215
       1.700000       1.278170       1.651182       0.074016
       1.710000       1.229198       1.664420       0.071725
       1.720000       1.185217       1.674278       0.069470
       1.730000       1.145867       1.682940       0.067373
       1.740000       1.110843       1.692508       0.065534
       1.750000       1.079887       1.704644       0.064031
       1.760000       1.052773       1.720473       0.062919
       1.770000       1.029294       1.740675       0.062235
       1.780000       1.009241       1.765617       0.061998
       1.790000       0.992388       1.795408       0.062217
       1.800000       0.978467       1.829833       0.062890
       1.810000       0.967153       1.868243       0.064001
       1.820000       0.958060       1.909511       0.065519
       1.830000       0.950751       1.952121       0.067394
       1.840000       0.944788       1.994393       0.069548
       1.850000       0.939794       2.034776       0.071870
       1.860000       0.935526       2.072135       0.074222
       1.870000       0.931925       2.106007       0.076446
       1.880000       0.929122       2.136786       0.078381
       1.890000       0.927396       2.165780       0.079892
       1.900000       0.927095       2.195050       0.080890
       1.910000       0.928539       2.227023       0.081349
       1.920000       0.931940       2.263955       0.081308
       1.930000       0.937351       2.307441       0.080851
       1.940000       0.944673       2.358105       0.080089
       1.950000       0.953706       2.415572       0.079126
       1.960000       0.964253       2.478718       0.078050
       1.970000       0.976221       2.546111       0.076917
       1.980000       0.989675       2.616513       0.075767
       1.990000       1.004833       2.689296       0.074630
       2.000000       1.021963       2.764660       0.073543
       2.010000       1.041270       2.843628       0.072556
       2.020000       1.062788       2.927876       0.071728
       2.030000       1.086368       3.019474       0.071118
       2.040000       1.111740       3.120590       0.070771
       2.050000       1.138649       3.233213       0.070713
       2.060000       1.166984       3.358934       0.070935
       2.070000       1.196826       3.498828       0.071394
       2.080000       1.228385       3.653437       0.072018
       2.090000       1.261853       3.822775       0.072712
       2.100000       1.297254       4.006173       0.073381
       2.110000       1.334382       4.201828       0.073946
       2.120000       1.372867       4.406049       0.074371
       2.130000       1.412317       4.612394       0.074674
       2.140000       1.452457       4.811101       0.074920
       2.150000       1.493161       4.989234       0.075206
       2.160000       1.534370       5.131873       0.075639
       2.170000       1.575960       5.224379       0.076312
       2.180000       1.617659       5.255286       0.077290
       2.190000       1.659071       5.218935       0.078597
       2.200000       1.699755       5.116828       0.080215
       2.210000       1.739278       4.957173       0.082084
       2.220000       1.777170       4.752855       0.084108
       2.230000       1.812794       4.518707       0.086168
       2.240000       1.845214       4.268998       0.088141
       2.250000       1.873116       4.015731       0.089918
       2.260000       1.894790       3.767887       0.091423
       2.270000       1.908189       3.531509       0.092619
       2.280000       1.911068       3.310287       0.093497
       2.290000       1.901233       3.106330       0.094076
       2.300000       1.876894       2.920795       0.094398
       2.310000       1.837060       2.754258       0.094531
       2.320000       1.781889       2.606799       0.094570
       2.330000       1.712852       2.477938       0.094639
       2.340000       1.632631       2.366531       0.094872
       2.350000       1.544718       2.270718       0.095406
       2.360000       1.452847       2.187969       0.096364
       2.370000       1.360445       2.115252       0.097841
       2.380000       1.270253       2.049311       0.099906
       2.390000       1.184188       1.987045       0.102586
       2.400000       1.103393       1.925889       0.105869
       2.410000       1.028406       1.864134       0.109696
       2.420000       0.959349       1.801095       0.113957
       2.430000       0.896104       1.737097       0.118482
       2.440000       0.838429       1.673273       0.123050
       2.450000       0.786035       1.611223       0.127401
       2.460000       0.738610       1.552624       0.131267
       2.470000       0.695827       1.498903       0.134420
       2.480000       0.657337       1.451011       0.136721
       2.490000       0.622767       1.409338       0.138149
       2.500000       0.591723       1.373731       0.138809
       2.510000       0.563799       1.343598       0.138902
       2.520000       0.538596       1.318088       0.138679
       2.530000       0.515746       1.296320       0.138386
       2.540000       0.494934       1.277614       0.138213
       2.550000       0.475919       1.261684       0.138270
       2.560000       0.458536       1.248710       0.138575
       2.570000       0.442692       1.239282       0.139060
       2.580000       0.428343       1.234252       0.139596
       2.590000       0.415468       1.234559       0.140024
       2.600000       0.404059       1.241090       0.140185
       2.610000       0.394101       1.254590       0.139949
       2.620000       0.385574       1.275618       0.139228
       2.630000       0.378443       1.304521       0.137997
       2.640000       0.372660       1.341416       0.136298
       2.650000       0.368156       1.386163       0.134243
       2.660000       0.364839       1.438350       0.132009
       2.670000       0.362584       1.497314       0.129809
       2.680000       0.361227       1.562225       0.127864
       2.690000       0.360570       1.632266       0.126368
       2.700000       0.360380       1.706872       0.125474
       2.710000       0.360407       1.785960       0.125279
       2.720000       0.360403       1.870042       0.125826
       2.730000       0.360148       1.960132       0.127105
       2.740000       0.359483       2.057406       0.129060
       2.750000       0.358319       2.162724       0.131598
       2.760000       0.356645       2.276100       0.134589
       2.770000       0.354510       2.396289       0.137879
       2.780000       0.351994       2.520571       0.141300
       2.790000       0.349192       2.644829       0.144681
       2.800000       0.346214       2.763889       0.147861
       2.810000       0.343191       2.872038       0.150699
       2.820000       0.340281       2.963549       0.153081
       2.830000       0.337652       3.033071       0.154929
       2.840000       0.335453       3.075904       0.156197
       2.850000       0.333778       3.088262       0.156885
       2.860000       0.332639       3.067655       0.157036
       2.870000       0.331964       3.013401       0.156730
       2.880000       0.331622       2.927090       0.156079
       2.890000       0.331464       2.812756       0.155202
       2.900000       0.331380       2.676551       0.154221
       2.910000       0.331336       2.525925       0.153237
       2.920000       0.331386       2.368559       0.152337
       2.930000       0.331645       2.211372       0.151588
       2.940000       0.332244       2.059877       0.151045
       2.950000       0.333275       1.917937       0.150739
       2.960000       0.334756       1.787857       0.150675
       2.970000       0.336634       1.670660       0.150827
       2.980000       0.338810       1.566437       0.151136
       2.990000       0.341197       1.474668       0.151528
       3.000000       0.343777       1.394470       0.151925
       3.010000       0.346631       1.324765       0.152264
       3.020000       0.349942       1.264366       0.152506
       3.030000       0.353949       1.212013       0.152634
       3.040000       0.358893       1.166406       0.152657
       3.050000       0.364956       1.126256       0.152600
       3.060000       0.372231       1.090372       0.152501
       3.070000       0.380701       1.057755       0.152407
       3.080000       0.390251       1.027670       0.152366
       3.090000       0.400694       0.999670       0.152428
       3.100000       0.411818       0.973564       0.152641
       3.110000       0.423431       0.949351       0.153048
       3.120000       0.435392       0.927115       0.153682
       3.130000       0.447600       0.906918       0.154561
       3.140000       0.459944       0.888702       0.155673
       3.150000       0.472238       0.872242       0.156973
       3.160000       0.484163       0.857164       0.158378
       3.170000       0.495265       0.843024       0.159775
       3.180000       0.504985       0.829402       0.161037
       3.190000       0.512705       0.815982       0.162047
       3.200000       0.517806       0.802557       0.162726
       3.210000       0.519708       0.788993       0.163059
       3.220000       0.517937       0.775181       0.163104
       3.230000       0.512210       0.761030       0.162980
       3.240000       0.502524       0.746503       0.162842
       3.250000       0.489225       0.731686       0.162839
       3.260000       0.472994       0.716839       0.163079
       3.270000       0.454759       0.702377       0.163606
       3.280000       0.435548       0.688799       0.164396
       3.290000       0.416325       0.676584       0.165359
       3.300000       0.397874       0.666092       0.166360
       3.310000       0.380728       0.657528       0.167236
       3.320000       0.365163       0.650937       0.167815
       3.330000       0.351222       0.646256       0.167946
       3.340000       0.338767       0.643378       0.167533
       3.350000       0.327541       0.642216       0.166564
       3.360000       0.317234       0.642739       0.165120
       3.370000       0.307541       0.644966       0.163352
       3.380000       0.298206       0.648942       0.161449
       3.390000       0.289045       0.654699       0.159589
       3.400000       0.279951       0.662243       0.157900
       3.410000       0.270887       0.671561       0.156453
       3.420000       0.261878       0.682664       0.155253
       3.430000       0.252997       0.695645       0.154261
       3.440000       0.244357       0.710702       0.153405
       3.450000       0.236089       0.728137       0.152600
       3.460000       0.228322       0.748288       0.151760
       3.470000       0.221155       0.771442       0.150814
       3.480000       0.214645       0.797740       0.149729
       3.490000       0.208794       0.827115       0.148524
       3.500000       0.203556       0.859269       0.147273
       3.510000       0.198844       0.893705       0.146101
       3.520000       0.194548       0.929796       0.145154
       3.530000       0.190562       0.966880       0.144575
       3.540000       0.186800       1.004362       0.144482
       3.550000       0.183215       1.041777       0.144948
       3.560000       0.179798       1.078809       0.146001
       3.570000       0.176576       1.115276       0.147621
       3.580000       0.173594       1.151096       0.149744
       3.590000       0.170904       1.186266       0.152269
       3.600000       0.168556       1.220835       0.155065
       3.610000       0.166588       1.254855       0.157985
       3.620000       0.165027       1.288315       0.160882
       3.630000       0.163881       1.321092       0.163636
       3.640000       0.163139       1.352938       0.166172
       3.650000       0.162772       1.383509       0.168464
       3.660000       0.162735       1.412373       0.170518
       3.670000       0.162966       1.438992       0.172343
       3.680000       0.163395       1.462651       0.173918
       3.690000       0.163947       1.482393       0.175177
       3.700000       0.164549       1.496988       0.176016
       3.710000       0.165134       1.504984       0.176324
       3.720000       0.165645       1.504827       0.176029
       3.730000       0.166038       1.495065       0.175149
       3.740000       0.166285       1.474614       0.173803
       3.750000       0.166376       1.443055       0.172202
       3.760000       0.166319       1.400868       0.170604
       3.770000       0.166143       1.349503       0.169265
       3.780000       0.165885       1.291219       0.168392
       3.790000       0.165585       1.228723       0.168122
       3.800000       0.165270       1.164722       0.168507
       3.810000       0.164947       1.101564       0.169518
       3.820000       0.164611       1.041031       0.171060
       3.830000       0.164250       0.984319       0.172988
       3.840000       0.163862       0.932121       0.175120
       3.850000       0.163466       0.884770       0.177258
       3.860000       0.163111       0.842358       0.179203
       3.870000       0.162874       0.804830       0.180776
       3.880000       0.162846       0.772021       0.181847
       3.890000       0.163125       0.743674       0.182353
       3.900000       0.163797       0.719441       0.182313
       3.910000       0.164930       0.698890       0.181817
       3.920000       0.166562       0.681544       0.180994
       3.930000       0.168693       0.666917       0.179982
       3.940000       0.171287       0.654568       0.178897
       3.950000       0.174259       0.644120       0.177830
       3.960000       0.177480       0.635257       0.176858
       3.970000       0.180787       0.627704       0.176065
       3.980000       0.184002       0.621209       0.175555
       3.990000       0.186968       0.615553       0.175452
       4.000000       0.189585       0.610599       0.175890
       4.010000       0.191837       0.606331       0.176983
       4.020000       0.193796       0.602880       0.178813
       4.030000       0.195603       0.600491       0.181406
       4.040000       0.197433       0.599459       0.184728
       4.050000       0.199452       0.600036       0.188678
       4.060000       0.201789       0.602358       0.193095
       4.070000       0.204512       0.606414       0.197762
       4.080000       0.207633       0.612042       0.202422
       4.090000       0.211104       0.618969       0.206808
       4.100000       0.214838       0.626861       0.210679
       4.110000       0.218727       0.635368       0.213862
       4.120000       0.222657       0.644158       0.216277
       4.130000       0.226523       0.652934       0.217939
       4.140000       0.230228       0.661434       0.218933
       4.150000       0.233673       0.669424       0.219379
       4.160000       0.236748       0.676692       0.219395
       4.170000       0.239344       0.683051       0.219086
       4.180000       0.241367       0.688371       0.218539
       4.190000       0.242767       0.692629       0.217834
       4.200000       0.243556       0.695962       0.217044
       4.210000       0.243809       0.698702       0.216237
       4.220000       0.243643       0.701359       0.215471
       4.230000       0.243197       0.704559       0.214789
       4.240000       0.242613       0.708957       0.214218
       4.250000       0.242018       0.715153       0.213761
       4.260000       0.241524       0.723640       0.213392
       4.270000       0.241221       0.734786       0.213063
       4.280000       0.241180       0.748850       0.212721
       4.290000       0.241453       0.765996       0.212332
       4.300000       0.242075       0.786298       0.211901
       4.310000       0.243071       0.809725       0.211474
       4.320000       0.244458       0.836108       0.211135
       4.330000       0.246239       0.865098       0.210992
       4.340000       0.248404       0.896142       0.211157
       4.350000       0.250930       0.928487       0.211739
       4.360000       0.253795       0.961259       0.212838
       4.370000       0.256993       0.993602       0.214537
       4.380000       0.260552       1.024859       0.216899
       4.390000       0.264529       1.054691       0.219950
       4.400000       0.269007       1.083090       0.223674
       4.410000       0.274064       1.110226       0.227998
       4.420000       0.279757       1.136220       0.232788
       4.430000       0.286109       1.160898       0.237854
       4.440000       0.293108       1.183656       0.242973
       4.450000       0.300723       1.203483       0.247913
       4.460000       0.308926       1.219157       0.252467
       4.470000       0.317704       1.229576       0.256485
       4.480000       0.327070       1.234101       0.259889
       4.490000       0.337044       1.232784       0.262675
       4.500000       0.347622       1.226394       0.264902
       4.510000       0.358735       1.216243       0.266659
       4.520000       0.370211       1.203910       0.268046
       4.530000       0.381763       1.190962       0.269149
       4.540000       0.393012       1.178753       0.270046
       4.550000       0.403549       1.168296       0.270805
       4.560000       0.413028       1.160234       0.271489
       4.570000       0.421256       1.154858       0.272147
       4.580000       0.428234       1.152163       0.272807
       4.590000       0.434138       1.151919       0.273470
       4.600000       0.439240       1.153732       0.274119
       4.610000       0.443795       1.157098       0.274734
       4.620000       0.447943       1.161442       0.275297
       4.630000       0.451641       1.166150       0.275797
       4.640000       0.454668       1.170594       0.276205
       4.650000       0.456688       1.174156       0.276465
       4.660000       0.457377       1.176256       0.276486
       4.670000       0.456560       1.176378       0.276156
       4.680000       0.454309       1.174110       0.275373
       4.690000       0.450957       1.169165       0.274072
       4.700000       0.447013       1.161374       0.272251
       4.710000       0.443044       1.150646       0.269976
       4.720000       0.439550       1.136889       0.267381
       4.730000       0.436895       1.119976       0.264644
       4.740000       0.435296       1.099776       0.261969
       4.750000       0.434856       1.076289       0.259540
       4.760000       0.435617       1.049816       0.257496
       4.770000       0.437611       1.021057       0.255893
       4.780000       0.440875       0.991081       0.254696
       4.790000       0.445443       0.961170       0.253785
       4.800000       0.451323       0.932607       0.252985
       4.810000       0.458475       0.906511       0.252104
       4.820000       0.466807       0.883745       0.250980
       4.830000       0.476212       0.864923       0.249519
       4.840000       0.486615       0.850459       0.247703
       4.850000       0.498042       0.840636       0.245590
       4.860000       0.510649       0.835668       0.243285
       4.870000       0.524722       0.835728       0.240911
       4.880000       0.540618       0.840968       0.238586
       4.890000       0.558694       0.851511       0.236410
       4.900000       0.579221       0.867434       0.234461
       4.910000       0.602324       0.888735       0.232798
       4.920000       0.627952       0.915289       0.231460
       4.930000       0.655881       0.946800       0.230474
       4.940000       0.685760       0.982766       0.229855
       4.950000       0.717165       1.022457       0.229613
       4.960000       0.749670       1.064920       0.229757
       4.970000       0.782883       1.109029       0.230293
       4.980000       0.816444       1.153568       0.231219
       4.990000       0.849989       1.197365       0.232517
       5.000000       0.883115       1.239431       0.234144
       5.010000       0.915350       1.279091       0.236028
       5.020000       0.946170       1.316025       0.238072
       5.030000       0.975052       1.350227       0.240162
       5.040000       1.001551       1.381891       0.242182
       5.050000       1.025361       1.411247       0.244032
       5.060000       1.046336       1.438371       0.245638
       5.070000       1.064418       1.463024       0.246966
       5.080000       1.079571       1.484565       0.248014
       5.090000       1.091757       1.502050       0.248799
       5.100000       1.101028       1.514501       0.249325
       5.110000       1.107665       1.521283       0.249564
       5.120000       1.112282       1.522419       0.249448
       5.130000       1.115806       1.518700       0.248882
       5.140000       1.119341       1.511544       0.247767
       5.150000       1.123982       1.502682       0.246028
       5.160000       1.130653       1.493814       0.243631
       5.170000       1.139973       1.486362       0.240589
       5.180000       1.152180       1.481379       0.236967
       5.190000       1.167081       1.479592       0.232877
       5.200000       1.184082       1.481517       0.228466
       5.210000       1.202306       1.487534       0.223903
       5.220000       1.220813       1.497859       0.219355
       5.230000       1.238857       1.512436       0.214969
       5.240000       1.256116       1.530813       0.210854
       5.250000       1.272775       1.552134       0.207078
       5.260000       1.289457       1.575291       0.203672
       5.270000       1.307024       1.599214       0.200630
       5.280000       1.326350       1.623213       0.197926
       5.290000       1.348141       1.647186       0.195512
       5.300000       1.372828       1.671611       0.193337
       5.310000       1.400540       1.697307       0.191353
       5.320000       1.431137       1.725074       0.189534
       5.330000       1.464283       1.755355       0.187878
       5.340000       1.499523       1.788030       0.186409
       5.350000       1.536331       1.822351       0.185164
       5.360000       1.574093       1.857027       0.184179
       5.370000       1.612060       1.890407       0.183464
       5.380000       1.649305       1.920750       0.182996
       5.390000       1.684731       1.946505       0.182716
       5.400000       1.717146       1.966524       0.182538
       5.410000       1.745405       1.980165       0.182377
       5.420000       1.768568       1.987255       0.182163
       5.430000       1.786054       1.987987       0.181867
       5.440000       1.797737       1.982813       0.181499
       5.450000       1.803958       1.972359       0.181105
       5.460000       1.805465       1.957388       0.180740
       5.470000       1.803241       1.938782       0.180464
       5.480000       1.798249       1.917530       0.180326
       5.490000       1.791156       1.894686       0.180379
       5.500000       1.782134       1.871320       0.180675
       5.510000       1.770864       1.848459       0.181271
       5.520000       1.756762       1.827050       0.182214
       5.530000       1.739309       1.807940       0.183529
       5.540000       1.718347       1.791868       0.185205
       5.550000       1.694192       1.779429       0.187198
       5.560000       1.667550       1.771012       0.189434
       5.570000       1.639323       1.766743       0.191822
       5.580000       1.610471       1.766458       0.194266
       5.590000       1.581961       1.769776       0.196677
       5.600000       1.554800       1.776209       0.198972
       5.610000       1.530036       1.785303       0.201082
       5.620000       1.508667       1.796706       0.202953
       5.630000       1.491447       1.810170       0.204545
       5.640000       1.478682       1.825465       0.205837
       5.650000       1.470107       1.842250       0.206826
       5.660000       1.464888       1.859922       0.207515
       5.670000       1.461772       1.877503       0.207912
       5.680000       1.459324       1.893622       0.208016
       5.690000       1.456201       1.906637       0.207813
       5.700000       1.451382       1.914875       0.207277
       5.710000       1.444310       1.916945       0.206375
       5.720000       1.434923       1.911992       0.205082
       5.730000       1.423567       1.899839       0.203389
       5.740000       1.410826       1.880977       0.201321
       5.750000       1.397307       1.856450       0.198940
       5.760000       1.383438       1.827687       0.196346
       5.770000       1.369344       1.796314       0.193663
       5.780000       1.354835       1.763984       0.191023
       5.790000       1.339496       1.732218       0.188548
       5.800000       1.322865       1.702297       0.186328
       5.810000       1.304626       1.675199       0.184415
       5.820000       1.284743       1.651559       0.182811
       5.830000       1.263504       1.631635       0.181469
       5.840000       1.241494       1.615276       0.180313
       5.850000       1.219521       1.601901       0.179258
       5.860000       1.198537       1.590528       0.178228
       5.870000       1.179545       1.579881       0.177178
       5.880000       1.163501       1.568581       0.176089
       5.890000       1.151242       1.555403       0.174967
       5.900000       1.143452       1.539537       0.173836
       5.910000       1.140665       1.520764       0.172731
       5.920000       1.143287       1.499476       0.171703
       5.930000       1.151609       1.476534       0.170810
       5.940000       1.165787       1.453045       0.170114
       5.950000       1.185801       1.430117       0.169669
       5.960000       1.211401       1.408698       0.169516
       5.970000       1.242073       1.389480       0.169679
       5.980000       1.277032       1.372883       0.170172
       5.990000       1.315271       1.359066       0.171009
       6.000000       1.355662       1.347966       0.172212
       6.010000       1.397090       1.339352       0.173815
       6.020000       1.438557       1.332908       0.175866
       6.030000       1.479195       1.328294       0.178413
       6.040000       1.518156       1.325166       0.181488
       6.050000       1.554454       1.323150       0.185085
       6.060000       1.586848       1.321815       0.189149
       6.070000       1.613874       1.320696       0.193561
       6.080000       1.634012       1.319396       0.198147
       6.090000       1.645921       1.317718       0.202694
       6.100000       1.648649       1.315773       0.206977
       6.110000       1.641774       1.314005       0.210800
       6.120000       1.625488       1.313106       0.214024
       6.130000       1.600639       1.313871       0.216584
       6.140000       1.568700       1.317054       0.218488
       6.150000       1.531658       1.323258       0.219810
       6.160000       1.491783       1.332912       0.220666
       6.170000       1.451337       1.346275       0.221206
       6.180000       1.412302       1.363455       0.221595
       6.190000       1.376198       1.384402       0.222006
       6.200000       1.344022       1.408859       0.222595
       6.210000       1.316285       1.436306       0.223495
       6.220000       1.293086       1.465943       0.224793
       6.230000       1.274186       1.496723       0.226519
       6.240000       1.259085       1.527446       0.228641
       6.250000       1.247106       1.556893       0.231065
       6.260000       1.237473       1.583945       0.233648
       6.270000       1.229376       1.607652       0.236228
       6.280000       1.221977       1.627215       0.238642
       6.290000       1.214406       1.641907       0.240759
       6.300000       1.205772       1.650996       0.242487
       6.310000       1.195243       1.653771       0.243780
       6.320000       1.182190       1.649709       0.244635
       6.330000       1.166324       1.638718       0.245081
       6.340000       1.147788       1.621368       0.245166
       6.350000       1.127148       1.598954       0.244941
       6.360000       1.105311       1.573351       0.244452
       6.370000       1.083365       1.546690       0.243733
       6.380000       1.062393       1.520957       0.242821
       6.390000       1.043301       1.497628       0.241765
       6.400000       1.026713       1.477463       0.240639
       6.410000       1.012976       1.460491       0.239546
       6.420000       1.002255       1.446191       0.238612
       6.430000       0.994692       1.433820       0.237984
       6.440000       0.990538       1.422765       0.237820
       6.450000       0.990221       1.412788       0.238271
       6.460000       0.994312       1.404073       0.239473
       6.470000       1.003427       1.397067       0.241523
       6.480000       1.018103       1.392231       0.244470
       6.490000       1.038684       1.389809       0.248297
       6.500000       1.065227       1.389733       0.252919
       6.510000       1.097417       1.391651       0.258174
       6.520000       1.134501       1.395031       0.263826
       6.530000       1.175229       1.399243       0.269578
       6.540000       1.217872       1.403573       0.275098
       6.550000       1.260332       1.407218       0.280047
       6.560000       1.300359       1.409303       0.284126
       6.570000       1.335843       1.408979       0.287100
       6.580000       1.365080       1.405603       0.288829
       6.590000       1.386922       1.398922       0.289269
       6.600000       1.400810       1.389217       0.288474
       6.610000       1.406700       1.377329       0.286583
       6.620000       1.404978       1.364553       0.283798
       6.630000       1.396373       1.352397       0.280368
       6.640000       1.381878       1.342270       0.276567
       6.650000       1.362640       1.335184       0.272677
       6.660000       1.339835       1.331551       0.268969
       6.670000       1.314525       1.331136       0.265687
       6.680000       1.287573       1.333162       0.263031
       6.690000       1.259618       1.336542       0.261149
       6.700000       1.231124       1.340176       0.260124
       6.710000       1.202432       1.343221       0.259979
       6.720000       1.173803       1.345248       0.260684
       6.730000       1.145422       1.346247       0.262164
       6.740000       1.117399       1.346498       0.264316
       6.750000       1.089803       1.346382       0.267018
       6.760000       1.062742       1.346223       0.270142
       6.770000       1.036461       1.346187       0.273559
       6.780000       1.011407       1.346257       0.277160
       6.790000       0.988227       1.346258       0.280864
       6.800000       0.967690       1.345928       0.284624
       6.810000       0.950572       1.345031       0.288433
       6.820000       0.937553       1.343491       0.292312
       6.830000       0.929157       1.341515       0.296303
       6.840000       0.925725       1.339629       0.300460
       6.850000       0.927411       1.338636       0.304826
       6.860000       0.934167       1.339469       0.309412
       6.870000       0.945716       1.343018       0.314183
       6.880000       0.961521       1.349963       0.319052
       6.890000       0.980777       1.360663       0.323888
       6.900000       1.002453       1.375096       0.328539
       6.910000       1.025379       1.392840       0.332853
       6.920000       1.048374       1.413072       0.336696
       6.930000       1.070367       1.434599       0.339964
       6.940000       1.090487       1.455950       0.342576
       6.950000       1.108106       1.475529       0.344467
       6.960000       1.122842       1.491842       0.345580
       6.970000       1.134548       1.503728       0.345855
       6.980000       1.143306       1.510556       0.345237
       6.990000       1.149416       1.512318       0.343686
       7.000000       1.153372       1.509604       0.341194
       7.010000       1.155800       1.503463       0.337800
       7.020000       1.157374       1.495183       0.333595
       7.030000       1.158730       1.486056       0.328720
       7.040000       1.160376       1.477173       0.323355
       7.050000       1.162622       1.469276       0.317705
       7.060000       1.165512       1.462688       0.311980
       7.070000       1.168784       1.457305       0.306381
       7.080000       1.171883       1.452648       0.301086
       7.090000       1.174090       1.447979       0.296246
       7.100000       1.174738       1.442479       0.291980
       7.110000       1.173457       1.435476       0.288383
       7.120000       1.170336       1.426655       0.285526
       7.130000       1.165917       1.416178       0.283458
       7.140000       1.161037       1.404649       0.282202
       7.150000       1.156574       1.392942       0.281750
       7.160000       1.153217       1.381938       0.282064
       7.170000       1.151329       1.372286       0.283078
       7.180000       1.150910       1.364248       0.284708
       7.190000       1.151655       1.357690       0.286863
       7.200000       1.153049       1.352184       0.289463
       7.210000       1.154471       1.347193       0.292446
       7.220000       1.155279       1.342241       0.295784
       7.230000       1.154875       1.337010       0.299474
       7.240000       1.152736       1.331341       0.303540
       7.250000       1.148448       1.325149       0.308006
       7.260000       1.141736       1.318341       0.312886
       7.270000       1.132503       1.310784       0.318150
       7.280000       1.120876       1.302343       0.323718
       7.290000       1.107224       1.292959       0.329441
       7.300000       1.092142       1.282720       0.335115
       7.310000       1.076397       1.271915       0.340498
       7.320000       1.060860       1.261073       0.345347
       7.330000       1.046415       1.250951       0.349457
       7.340000       1.033860       1.242454       0.352705
       7.350000       1.023810       1.236478       0.355069
       7.360000       1.016623       1.233725       0.356637
       7.370000       1.012369       1.234546       0.357587
       7.380000       1.010857       1.238868       0.358141
       7.390000       1.011693       1.246251       0.358527
       7.400000       1.014349       1.256041       0.358925
       7.410000       1.018246       1.267606       0.359441
       7.420000       1.022821       1.280570       0.360098
       7.430000       1.027579       1.294968       0.360837
       7.440000       1.032130       1.311267       0.361552
       7.450000       1.036212       1.330242       0.362119
       7.460000       1.039716       1.352749       0.362439
       7.470000       1.042740       1.379460       0.362463
       7.480000       1.045622       1.410642       0.362208
       7.490000       1.048936       1.446027       0.361748
       7.500000       1.053400       1.484797       0.361186
       7.510000       1.059710       1.525688       0.360632
       7.520000       1.068356       1.567173       0.360176
       7.530000       1.079461       1.607658       0.359881
       7.540000       1.092677       1.645641       0.359777
       7.550000       1.107196       1.679793       0.359875
       7.560000       1.121845       1.708986       0.360175
       7.570000       1.135301       1.732315       0.360685
       7.580000       1.146347       1.749138       0.361435
       7.590000       1.154134       1.759130       0.362489
       7.600000       1.158331       1.762302       0.363940
       7.610000       1.159145       1.758968       0.365902
       7.620000       1.157202       1.749670       0.368493
       7.630000       1.153327       1.735075       0.371817
       7.640000       1.148323       1.715883       0.375943
       7.650000       1.142821       1.692758       0.380898
       7.660000       1.137239       1.666303       0.386662
       7.670000       1.131872       1.637113       0.393173
       7.680000       1.127037       1.605869       0.400343
       7.690000       1.123192       1.573409       0.408072
       7.700000       1.120965       1.540705       0.416277
       7.710000       1.121066       1.508730       0.424902
       7.720000       1.124134       1.478257       0.433930
       7.730000       1.130597       1.449693       0.443383
       7.740000       1.140583       1.423025       0.453314
       7.750000       1.153932       1.397883       0.463806
       7.760000       1.170280       1.373733       0.474976
       7.770000       1.189179       1.350113       0.486965
       7.780000       1.210197       1.326864       0.499932
       7.790000       1.232958       1.304248       0.514035
       7.800000       1.257104       1.282924       0.529420
       7.810000       1.282223       1.263797       0.546214
       7.820000       1.307805       1.247809       0.564538
       7.830000       1.333270       1.235785       0.584514
       7.840000       1.358082       1.228362       0.606283
       7.850000       1.381907       1.226015       0.629992
       7.860000       1.404729       1.229128       0.655781
       7.870000       1.426871       1.238046       0.683759
       7.880000       1.448866       1.253073       0.713971
       7.890000       1.471238       1.274413       0.746374
       7.900000       1.494255       1.302060       0.780810
       7.910000       1.517764       1.335680       0.816998
       7.920000       1.541166       1.374513       0.854553
       7.930000       1.563541       1.417329       0.893018
       7.940000       1.583891       1.462453       0.931913
       7.950000       1.601391       1.507880       0.970766
       7.960000       1.615576       1.551477       1.009125
       7.970000       1.626411       1.591236       1.046539
       7.980000       1.634237       1.625522       1.082542
       7.990000       1.639650       1.653246       1.116649
       8.000000       1.643356       1.673923       1.148365
       8.010000       1.646051       1.687609       1.177222
       8.020000       1.648332       1.694786       1.202824
       8.030000       1.650635       1.696187       1.224906
       8.040000       1.653179       1.692633       1.243362
       8.050000       1.655940       1.684888       1.258263
       8.060000       1.658686       1.673596       1.269840
       8.070000       1.661116       1.659333       1.278450
       8.080000       1.663054       1.642758       1.284528
       8.090000       1.664638       1.624764       1.288533
       8.100000       1.666393       1.606539       1.290899
       8.110000       1.669162       1.589484       1.291972
       8.120000       1.673930       1.575021       1.291974
       8.130000       1.681621       1.564389       1.290975
       8.140000       1.692910       1.558488       1.288899
       8.150000       1.708095       1.557789       1.285555
       8.160000       1.727039       1.562310       1.280679
       8.170000       1.749195       1.571667       1.273992
       8.180000       1.773728       1.585188       1.265253
       8.190000       1.799713       1.602107       1.254328
       8.200000       1.826351       1.621761       1.241248
       8.210000       1.853110       1.643734       1.226256
       8.220000       1.879734       1.667841       1.209815
       8.230000       1.906085       1.693991       1.192585
       8.240000       1.931927       1.721969       1.175372
       8.250000       1.956752       1.751293       1.159075
       8.260000       1.979748       1.781174       1.144622
       8.270000       1.999942       1.810601       1.132895
       8.280000       2.016458       1.838496       1.124648
       8.290000       2.028804       1.863886       1.120407
       8.300000       2.037073       1.886081       1.120370
       8.310000       2.041979       1.904811       1.124343
       8.320000       2.044711       1.920273       1.131738
       8.330000       2.046653       1.933037       1.141641
       8.340000       2.049084       1.943845       1.152964
       8.350000       2.052980       1.953404       1.164630
       8.360000       2.058966       1.962284       1.175734
       8.370000       2.067407       1.970960       1.185642
       8.380000       2.078561       1.979948       1.193991
       8.390000       2.092716       1.989919       1.200628
       8.400000       2.110265       2.001716       1.205523
       8.410000       2.131690       2.016213       1.208717
       8.420000       2.157480       2.034080       1.210299
       8.430000       2.187968       2.055534       1.210425
       8.440000       2.223140       2.080174       1.209337
       8.450000       2.262446       2.106930       1.207381
       8.460000       2.304663       2.134158       1.204995
       8.470000       2.347893       2.159855       1.202663
       8.480000       2.389711       2.181955       1.200852
       8.490000       2.427464       2.198666       1.199948
       8.500000       2.458629       2.208726       1.200236
       8.510000       2.481136       2.211526       1.201922
       8.520000       2.493562       2.207077       1.205191
       8.530000       2.495202       2.195859       1.210260
       8.540000       2.486019       2.178630       1.217401
       8.550000       2.466541       2.156269       1.226917
       8.560000       2.437724       2.129667       1.239084
       8.570000       2.400845       2.099706       1.254084
       8.580000       2.357416       2.067283       1.271943
       8.590000       2.309119       2.033355       1.292504
       8.600000       2.257710       1.998936       1.315440
       8.610000       2.204900       1.965011       1.340297
       8.620000       2.152198       1.932378       1.366577
       8.630000       2.100795       1.901488       1.393807
       8.640000       2.051500       1.872352       1.421594
       8.650000       2.004756       1.844564       1.449671
       8.660000       1.960717       1.817470       1.477906
       8.670000       1.919360       1.790402       1.506281
       8.680000       1.880587       1.762935       1.534834
       8.690000       1.844277       1.735040       1.563567
       8.700000       1.810301       1.707114       1.592368
       8.710000       1.778511       1.679870       1.620966
       8.720000       1.748751       1.654172       1.648961
       8.730000       1.720883       1.630873       1.675902
       8.740000       1.694844       1.610716       1.701391
       8.750000       1.670674       1.594295       1.725158
       8.760000       1.648516       1.582044       1.747078
       8.770000       1.628559       1.574219       1.767126
       8.780000       1.610951       1.570870       1.785315
       8.790000       1.595715       1.571798       1.801638
       8.800000       1.582705       1.576526       1.816055
       8.810000       1.571591       1.584295       1.828526
       8.820000       1.561868       1.594056       1.839058
       8.830000       1.552844       1.604472       1.847751
       8.840000       1.543644       1.613942       1.854808
       8.850000       1.533258       1.620713       1.860499
       8.860000       1.520682       1.623125       1.865090
       8.870000       1.505135       1.619947       1.868763
       8.880000       1.486272       1.610699       1.871569
       8.890000       1.464279       1.595801       1.873464
       8.900000       1.439805       1.576487       1.874386
       8.910000       1.413742       1.554511       1.874367
       8.920000       1.386968       1.531765       1.873604
       8.930000       1.360147       1.509939       1.872480
       8.940000       1.333660       1.490293       1.871519
       8.950000       1.307646       1.473537       1.871290
       8.960000       1.282126       1.459809       1.872282
       8.970000       1.257134       1.448744       1.874775
       8.980000       1.232812       1.439625       1.878749
       8.990000       1.209439       1.431604       1.883854
       9.000000       1.187411       1.423935       1.889490
       9.010000       1.167172       1.416146       1.894949
       9.020000       1.149130       1.408102       1.899597
       9.030000       1.133574       1.399945       1.903017
       9.040000       1.120608       1.391957       1.905087
       9.050000       1.110119       1.384406       1.905957
       9.060000       1.101789       1.377425       1.905982
       9.070000       1.095145       1.370952       1.905630
       9.080000       1.089645       1.364732       1.905416
       9.090000       1.084765       1.358375       1.905838
       9.100000       1.080083       1.351448       1.907345
       9.110000       1.075338       1.343597       1.910304
       9.120000       1.070446       1.334632       1.914981
       9.130000       1.065477       1.324565       1.921543
       9.140000       1.060567       1.313551       1.930081
       9.150000       1.055821       1.301791       1.940673
       9.160000       1.051211       1.289436       1.953467
       9.170000       1.046528       1.276542       1.968765
       9.180000       1.041385       1.263096       1.987064
       9.190000       1.035279       1.249073       2.009035
       9.200000       1.027684       1.234473       2.035477
       9.210000       1.018167       1.219348       2.067273
       9.220000       1.006485       1.203789       2.105382
       9.230000       0.992657       1.187920       2.150857
       9.240000       0.976967       1.171888       2.204872
       9.250000       0.959897       1.155855       2.268727
       9.260000       0.942021       1.139971       2.343828
       9.270000       0.923873       1.124361       2.431630
       9.280000       0.905858       1.109107       2.533531
       9.290000       0.888208       1.094255       2.650702
       9.300000       0.870992       1.079831       2.783846
       9.310000       0.854174       1.065874       2.932884
       9.320000       0.837695       1.052457       3.096590
       9.330000       0.821545       1.039705       3.272224
       9.340000       0.805810       1.027794       3.455258
       9.350000       0.790675       1.016938       3.639327
       9.360000       0.776397       1.007366       3.816560
       9.370000       0.763258       0.999297       3.978357
       9.380000       0.751517       0.992907       4.116559
       9.390000       0.741365       0.988293       4.224726
       9.400000       0.732903       0.985462       4.299179
       9.410000       0.726122       0.984316       4.339465
       9.420000       0.720909       0.984676       4.348161
       9.430000       0.717062       0.986292       4.330112
       9.440000       0.714329       0.988875       4.291398
       9.450000       0.712461       0.992131       4.238290
       9.460000       0.711283       0.995820       4.176401
       9.470000       0.710754       0.999833       4.110130
       9.480000       0.711002       1.004248       4.042453
       9.490000       0.712299       1.009342       3.975022
       9.500000       0.714990       1.015530       3.908486
       9.510000       0.719389       1.023274       3.842834
       9.520000       0.725666       1.032979       3.777646
       9.530000       0.733772       1.044923       3.712233
       9.540000       0.743386       1.059227       3.645772
       9.550000       0.753924       1.075860       3.577538
       9.560000       0.764593       1.094689       3.507190
       9.570000       0.774499       1.115548       3.435002
       9.580000       0.782785       1.138298       3.361859
       9.590000       0.788779       1.162875       3.288969
       9.600000       0.792118       1.189304       3.217435
       9.610000       0.792809       1.217689       3.147867
       9.620000       0.791213       1.248193       3.080235
       9.630000       0.787951       1.281006       3.014016
       9.640000       0.783748       1.316279       2.948555
       9.650000       0.779272       1.354056       2.883503
       9.660000       0.774989       1.394194       2.819163
       9.670000       0.771097       1.436310       2.756603
       9.680000       0.767529       1.479773       2.697497
       9.690000       0.764029       1.523751       2.643754
       9.700000       0.760289       1.567305       2.597077
       9.710000       0.756070       1.609509       2.558576
       9.720000       0.751292       1.649531       2.528528
       9.730000       0.746043       1.686692       2.506296
       9.740000       0.740518       1.720487       2.490414
       9.750000       0.734926       1.750622       2.478819
       9.760000       0.729420       1.777066       2.469219
       9.770000       0.724066       1.800085       2.459542
       9.780000       0.718857       1.820225       2.448374
       9.790000       0.713759       1.838214       2.435227
       9.800000       0.708741       1.854813       2.420571
       9.810000       0.703793       1.870683       2.405618
       9.820000       0.698910       1.886290       2.391962
       9.830000       0.694057       1.901878       2.381215
       9.840000       0.689148       1.917486       2.374702
       9.850000       0.684036       1.932963       2.373241
       9.860000       0.678542       1.947990       2.376995
       9.870000       0.672500       1.962072       2.385405
       9.880000       0.665807       1.974535       2.397213
       9.890000       0.658448       1.984550       2.410587
       9.900000       0.650490       1.991225       2.423333
       9.910000       0.642047       1.993762       2.433190
       9.920000       0.633240       1.991647       2.438160
       9.930000       0.624169       1.984813       2.436838
       9.940000       0.614919       1.973716       2.428641
       9.950000       0.605569       1.959308       2.413870
       9.960000       0.596216       1.942924       2.393554
       9.970000       0.586984       1.926103       2.369143
       9.980000       0.578021       1.910406       2.342165
       9.990000       0.569493       1.897256       2.313961
      10.000000       0.561571       1.887807       2.285549
      10.010000       0.554408       1.882860       2.257628
      10.020000       0.548114       1.882782       2.230669
      10.030000       0.542739       1.887469       2.205051
      10.040000       0.538276       1.896359       2.181178
      10.050000       0.534679       1.908512       2.159543
      10.060000       0.531893       1.922749       2.140712
      10.070000       0.529873       1.937803       2.125226
      10.080000       0.528595       1.952446       2.113483
      10.090000       0.528036       1.965549       2.105655
      10.100000       0.528176       1.976056       2.101671
      10.110000       0.528988       1.982914       2.101296
      10.120000       0.530458       1.985034       2.104241
      10.130000       0.532592       1.981351       2.110272
      10.140000       0.535423       1.971020       2.119269
      10.150000       0.538998       1.953692       2.131215
      10.160000       0.543346       1.929712       2.146137
      10.170000       0.548446       1.900128       2.163999
      10.180000       0.554209       1.866473       2.184610
      10.190000       0.560463       1.830415       2.207552
      10.200000       0.566968       1.793437       2.232164
      10.210000       0.573441       1.756665       2.257593
      10.220000       0.579582       1.720889       2.282889
      10.230000       0.585104       1.686691       2.307109
      10.240000       0.589750       1.654587       2.329378
      10.250000       0.593317       1.625124       2.348915
      10.260000       0.595687       1.598915       2.365037
      10.270000       0.596872       1.576616       2.377207
      10.280000       0.597021       1.558861       2.385120
      10.290000       0.596409       1.546130       2.388826
      10.300000       0.595368       1.538611       2.388786
      10.310000       0.594219       1.536066       2.385858
      10.320000       0.593205       1.537760       2.381168
      10.330000       0.592457       1.542488       2.375944
      10.340000       0.591991       1.548693       2.371325
      10.350000       0.591738       1.554690       2.368203
      10.360000       0.591588       1.558918       2.367110
      10.370000       0.591440       1.560192       2.368181
      10.380000       0.591235       1.557844       2.371214
      10.390000       0.590965       1.551749       2.375822
      10.400000       0.590656       1.542220       2.381616
      10.410000       0.590344       1.529813       2.388326
      10.420000       0.590053       1.515109       2.395812
      10.430000       0.589777       1.498517       2.403945
      10.440000       0.589482       1.480161       2.412460
      10.450000       0.589109       1.459860       2.420851
      10.460000       0.588586       1.437220       2.428370
      10.470000       0.587857       1.411809       2.434132
      10.480000       0.586905       1.383375       2.437292
      10.490000       0.585769       1.352059       2.437257
      10.500000       0.584536       1.318508       2.433862
      10.510000       0.583294       1.283848       2.427478
      10.520000       0.582084       1.249525       2.418982
      10.530000       0.580861       1.217063       2.409574
      10.540000       0.579474       1.187841       2.400522
      10.550000       0.577686       1.162928       2.392892
      10.560000       0.575197       1.143025       2.387386
      10.570000       0.571701       1.128480       2.384287
      10.580000       0.566946       1.119349       2.383496
      10.590000       0.560804       1.115470       2.384587
      10.600000       0.553331       1.116509       2.386860
      10.610000       0.544787       1.121983       2.389375
      10.620000       0.535608       1.131262       2.390995
      10.630000       0.526341       1.143602       2.390460
      10.640000       0.517557       1.158214       2.386514
      10.650000       0.509769       1.174379       2.378079
      10.660000       0.503386       1.191551       2.364447
      10.670000       0.498687       1.209428       2.345436
      10.680000       0.495823       1.227934       2.321453
      10.690000       0.494822       1.247116       2.293441
      10.700000       0.495603       1.266999       2.262716
      10.710000       0.497988       1.287412       2.230746
      10.720000       0.501727       1.307866       2.198939
      10.730000       0.506523       1.327520       2.168476
      10.740000       0.512065       1.345247       2.140201
      10.750000       0.518061       1.359805       2.114591
      10.760000       0.524262       1.370046       2.091760
      10.770000       0.530461       1.375131       2.071509
      10.780000       0.536492       1.374695       2.053384
      10.790000       0.542202       1.368950       2.036737
      10.800000       0.547447       1.358683       2.020815
      10.810000       0.552083       1.345136       2.004874
      10.820000       0.555979       1.329780       1.988316
      10.830000       0.559027       1.314065       1.970801
      10.840000       0.561149       1.299205       1.952281
      10.850000       0.562314       1.286058       1.932969
      10.860000       0.562539       1.275072       1.913249
      10.870000       0.561893       1.266299       1.893595
      10.880000       0.560483       1.259421       1.874515
      10.890000       0.558439       1.253819       1.856521
      10.900000       0.555894       1.248661       1.840103
      10.910000       0.552983       1.243025       1.825698
      10.920000       0.549856       1.236046       1.813652
      10.930000       0.546692       1.227050       1.804185
      10.940000       0.543687       1.215654       1.797371
      10.950000       0.541021       1.201787       1.793148
      10.960000       0.538805       1.185649       1.791342
      10.970000       0.537042       1.167627       1.791699
      10.980000       0.535608       1.148178       1.793924
      10.990000       0.534277       1.127742       1.797707
      11.000000       0.532783       1.106677       1.802760
      11.010000       0.530899       1.085251       1.808844
      11.020000       0.528514       1.063672       1.815805
      11.030000       0.525675       1.042118       1.823574
      11.040000       0.522569       1.020740       1.832128
      11.050000       0.519449       0.999661       1.841414
      11.060000       0.516546       0.978957       1.851255
      11.070000       0.513993       0.958678       1.861303
      11.080000       0.511794       0.938891       1.871078
      11.090000       0.509838       0.919725       1.880100
      11.100000       0.507953       0.901392       1.888067
      11.110000       0.505985       0.884173       1.895006
      11.120000       0.503857       0.868391       1.901342
      11.130000       0.501605       0.854372       1.907839
      11.140000       0.499359       0.842428       1.915461
      11.150000       0.497295       0.832846       1.925191
      11.160000       0.495566       0.825872       1.937866
      11.170000       0.494256       0.821704       1.954054
      11.180000       0.493374       0.820489       1.974002
      11.190000       0.492879       0.822322       1.997673
      11.200000       0.492718       0.827258       2.024858
      11.210000       0.492860       0.835304       2.055319
      11.220000       0.493298       0.846403       2.088911
      11.230000       0.494036       0.860400       2.125624
      11.240000       0.495071       0.876998       2.165537
      11.250000       0.496364       0.895719       2.208730
      11.260000       0.497829       0.915893       2.255190
      11.270000       0.499337       0.936676       2.304775
      11.280000       0.500737       0.957124       2.357249
      11.290000       0.501902       0.976322       2.412377
      11.300000       0.502767       0.993537       2.470027
      11.310000       0.503365       1.008356       2.530225
      11.320000       0.503837       1.020741       2.593100
      11.330000       0.504422       1.030996       2.658734
      11.340000       0.505425       1.039630       2.726920
      11.350000       0.507178       1.047207       2.796929
      11.360000       0.510001       1.054208       2.867355
      11.370000       0.514173       1.060952       2.936110
      11.380000       0.519909       1.067562       3.000577
      11.390000       0.527355       1.073953       3.057899
      11.400000       0.536586       1.079841       3.105306
      11.410000       0.547608       1.084770       3.140398
      11.420000       0.560372       1.088172       3.161322
      11.430000       0.574774       1.089444       3.166845
      11.440000       0.590668       1.088047       3.156371
      11.450000       0.607871       1.083585       3.129943
      11.460000       0.626173       1.075882       3.088248
      11.470000       0.645340       1.065019       3.032610
      11.480000       0.665106       1.051325       2.964943
      11.490000       0.685164       1.035315       2.887643
      11.500000       0.705151       1.017598       2.803419
      11.510000       0.724660       0.998788       2.715088
      11.520000       0.743266       0.979438       2.625347
      11.530000       0.760577       0.960021       2.536554
      11.540000       0.776295       0.940931       2.450561
      11.550000       0.790268       0.922479       2.368606
      11.560000       0.802514       0.904874       2.291332
      11.570000       0.813216       0.888207       2.218880
      11.580000       0.822688       0.872444       2.151063
      11.590000       0.831312       0.857453       2.087540
      11.600000       0.839452       0.843047       2.027951
      11.610000       0.847381       0.829024       1.972004
      11.620000       0.855232       0.815190       1.919507
      11.630000       0.862980       0.801379       1.870375
      11.640000       0.870481       0.787477       1.824598
      11.650000       0.877537       0.773460       1.782211
      11.660000       0.883981       0.759430       1.743252
      11.670000       0.889743       0.745623       1.707738
      11.680000       0.894862       0.732385       1.675668
      11.690000       0.899434       0.720099       1.647044
      11.700000       0.903511       0.709109       1.621879
      11.710000       0.907026       0.699652       1.600183
      11.720000       0.909754       0.691831       1.581908
      11.730000       0.911360       0.685619       1.566891
      11.740000       0.911464       0.680902       1.554831
      11.750000       0.909715       0.677523       1.545334
      11.760000       0.905826       0.675323       1.537995
      11.770000       0.899611       0.674159       1.532492
      11.780000       0.891001       0.673908       1.528626
      11.790000       0.880078       0.674454       1.526313
      11.800000       0.867081       0.675682       1.525523
      11.810000       0.852381       0.677472       1.526197
      11.820000       0.836436       0.679709       1.528178
      11.830000       0.819738       0.682311       1.531166
      11.840000       0.802791       0.685259       1.534691
      11.850000       0.786112       0.688635       1.538147
      11.860000       0.770233       0.692643       1.540854
      11.870000       0.755694       0.697598       1.542173
      11.880000       0.742985       0.703903       1.541630
      11.890000       0.732469       0.711991       1.539006
      11.900000       0.724293       0.722283       1.534373
      11.910000       0.718334       0.735137       1.528046
      11.920000       0.714213       0.750825       1.520502
      11.930000       0.711368       0.769510       1.512265
      11.940000       0.709181       0.791229       1.503819
      11.950000       0.707125       0.815882       1.495537
      11.960000       0.704887       0.843236       1.487652
      11.970000       0.702429       0.872931       1.480244
      11.980000       0.699955       0.904510       1.473269
      11.990000       0.697812       0.937469       1.466617
      12.000000       0.696350       0.971311       1.460169
      12.010000       0.695790       1.005580       1.453849
      12.020000       0.696145       1.039859       1.447614
      12.030000       0.697192       1.073723       1.441403
      12.040000       0.698523       1.106669       1.435075
      12.050000       0.699620       1.138068       1.428375
      12.060000       0.699973       1.167167       1.420973
      12.070000       0.699182       1.193147       1.412542
      12.080000       0.697052       1.215207       1.402869
      12.090000       0.693624       1.232672       1.391929
      12.100000       0.689175       1.245068       1.379892
      12.110000       0.684146       1.252168       1.367067
      12.120000       0.679057       1.253998       1.353801
      12.130000       0.674412       1.250810       1.340374
      12.140000       0.670634       1.243049       1.326953
      12.150000       0.668010       1.231324       1.313594
      12.160000       0.666663       1.216376       1.300298
      12.170000       0.666554       1.199035       1.287062
      12.180000       0.667496       1.180151       1.273908
      12.190000       0.669204       1.160520       1.260852
      12.200000       0.671358       1.140831       1.247868
      12.210000       0.673665       1.121647       1.234849
      12.220000       0.675900       1.103440       1.221607
      12.230000       0.677928       1.086627       1.207904
      12.240000       0.679700       1.071589       1.193489
      12.250000       0.681246       1.058661       1.178140
      12.260000       0.682669       1.048078       1.161701
      12.270000       0.684152       1.039913       1.144101
      12.280000       0.685966       1.034021       1.125366
      12.290000       0.688457       1.030006       1.105600
      12.300000       0.692013       1.027218       1.084959
      12.310000       0.696999       1.024800       1.063626
      12.320000       0.703670       1.021767       1.041805
      12.330000       0.712109       1.017142       1.019730
      12.340000       0.722182       1.010115       0.997679
      12.350000       0.733531       1.000203       0.975983
      12.360000       0.745622       0.987351       0.954999
      12.370000       0.757831       0.971962       0.935075
      12.380000       0.769564       0.954802       0.916520
      12.390000       0.780374       0.936839       0.899573
      12.400000       0.790024       0.919026       0.884392
      12.410000       0.798478       0.902119       0.871048
      12.420000       0.805812       0.886551       0.859517
      12.430000       0.812100       0.872398       0.849692
      12.440000       0.817324       0.859425       0.841392
      12.450000       0.821335       0.847187       0.834390
      12.460000       0.823889       0.835158       0.828435
      12.470000       0.824740       0.822871       0.823267
      12.480000       0.823752       0.810019       0.818628
      12.490000       0.821009       0.796510       0.814261
      12.500000       0.816865       0.782463       0.809928
      12.510000       0.811929       0.768149       0.805427
      12.520000       0.806990       0.753906       0.800610
      12.530000       0.802900       0.740066       0.795387
      12.540000       0.800453       0.726890       0.789708
      12.550000       0.800289       0.714543       0.783524
      12.560000       0.802828       0.703076       0.776754
      12.570000       0.808241       0.692444       0.769268
      12.580000       0.816449       0.682517       0.760894
      12.590000       0.827151       0.673122       0.751470
      12.600000       0.839872       0.664082       0.740904
      12.610000       0.854035       0.655261       0.729244
      12.620000       0.869060       0.646607       0.716707
      12.630000       0.884457       0.638166       0.703655
      12.640000       0.899899       0.630080       0.690531
      12.650000       0.915245       0.622551       0.677768
      12.660000       0.930507       0.615796       0.665713
      12.670000       0.945765       0.609981       0.654591
      12.680000       0.961083       0.605183       0.644513
      12.690000       0.976455       0.601363       0.635513
      12.700000       0.991797       0.598375       0.627589
      12.710000       1.006986       0.595994       0.620733
      12.720000       1.021919       0.593962       0.614929
      12.730000       1.036563       0.592031       0.610142
      12.740000       1.050968       0.590007       0.606298
      12.750000       1.065248       0.587768       0.603273
      12.760000       1.079553       0.585272       0.600885
      12.770000       1.094048       0.582529       0.598890
      12.780000       1.108893       0.579566       0.596987
      12.790000       1.124220       0.576389       0.594833
      12.800000       1.140095       0.572973       0.592091
      12.810000       1.156480       0.569263       0.588499
      12.820000       1.173196       0.565209       0.583938
      12.830000       1.189934       0.560794       0.578468
      12.840000       1.206307       0.556058       0.572317
      12.850000       1.221954       0.551089       0.565822
      12.860000       1.236650       0.545992       0.559352
      12.870000       1.250367       0.540848       0.553226
      12.880000       1.263239       0.535666       0.547652
      12.890000       1.275457       0.530351       0.542709
      12.900000       1.287126       0.524702       0.538355
      12.910000       1.298167       0.518446       0.534469
      12.920000       1.308309       0.511303       0.530905
      12.930000       1.317170       0.503060       0.527540
      12.940000       1.324395       0.493637       0.524321
      12.950000       1.329775       0.483098       0.521276
      12.960000       1.333305       0.471643       0.518507
      12.970000       1.335161       0.459557       0.516157
      12.980000       1.335618       0.447168       0.514371
      12.990000       1.334953       0.434801       0.513267
      13.000000       1.333340       0.422751       0.512916
      13.010000       1.330754       0.411264       0.513337
      13.020000       1.326907       0.400521       0.514504
      13.030000       1.321253       0.390638       0.516335
      13.040000       1.313076       0.381669       0.518684
      13.050000       1.301669       0.373617       0.521340
      13.060000       1.286535       0.366450       0.524021
      13.070000       1.267554       0.360125       0.526404
      13.080000       1.245053       0.354602       0.528153
      13.090000       1.219752       0.349844       0.528955
      13.100000       1.192626       0.345820       0.528566
      13.110000       1.164732       0.342488       0.526843
      13.120000       1.137085       0.339791       0.523780
      13.130000       1.110590       0.337648       0.519526
      13.140000       1.086033       0.335961       0.514365
      13.150000       1.064061       0.334618       0.508683
      13.160000       1.045150       0.333496       0.502915
      13.170000       1.029558       0.332472       0.497483
      13.180000       1.017291       0.331427       0.492755
      13.190000       1.008139       0.330257       0.489016
      13.200000       1.001755       0.328898       0.486449
      13.210000       0.997772       0.327328       0.485136
      13.220000       0.995885       0.325583       0.485059
      13.230000       0.995874       0.323737       0.486121
      13.240000       0.997555       0.321892       0.488174
      13.250000       1.000717       0.320142       0.491050
      13.260000       1.005066       0.318557       0.494592
      13.270000       1.010238       0.317160       0.498678
      13.280000       1.015836       0.315922       0.503221
      13.290000       1.021478       0.314762       0.508152
      13.300000       1.026819       0.313565       0.513383
      13.310000       1.031532       0.312224       0.518767
      13.320000       1.035274       0.310674       0.524074
      13.330000       1.037654       0.308925       0.528996
      13.340000       1.038211       0.307068       0.533188
      13.350000       1.036411       0.305253       0.536328
      13.360000       1.031670       0.303651       0.538182
      13.370000       1.023438       0.302420       0.538647
      13.380000       1.011325       0.301683       0.537758
      13.390000       0.995249       0.301520       0.535672
      13.400000       0.975542       0.301968       0.532619
      13.410000       0.952963       0.303025       0.528860
      13.420000       0.928599       0.304658       0.524632
      13.430000       0.903674       0.306806       0.520121
      13.440000       0.879343       0.309389       0.515452
      13.450000       0.856513       0.312313       0.510693
      13.460000       0.835760       0.315479       0.505881
      13.470000       0.817330       0.318790       0.501052
      13.480000       0.801190       0.322155       0.496274
      13.490000       0.787117       0.325483       0.491657
      13.500000       0.774773       0.328681       0.487350
      13.510000       0.763781       0.331657       0.483517
      13.520000       0.753791       0.334332       0.480299
      13.530000       0.744545       0.336655       0.477782
      13.540000       0.735925       0.338607       0.475970
      13.550000       0.727981       0.340195       0.474777
      13.560000       0.720907       0.341435       0.474043
      13.570000       0.714986       0.342329       0.473550
      13.580000       0.710512       0.342842       0.473051
      13.590000       0.707713       0.342895       0.472283
      13.600000       0.706709       0.342381       0.470981
      13.610000       0.707494       0.341204       0.468890
      13.620000       0.709961       0.339319       0.465789
      13.630000       0.713945       0.336772       0.461520
      13.640000       0.719288       0.333692       0.456029
      13.650000       0.725880       0.330262       0.449387
      13.660000       0.733679       0.326660       0.441805
      13.670000       0.742675       0.323008       0.433604
      13.680000       0.752831       0.319347       0.425179
      13.690000       0.764013       0.315638       0.416941
      13.700000       0.775974       0.311797       0.409268
      13.710000       0.788371       0.307744       0.402468
      13.720000       0.800850       0.303435       0.396755
      13.730000       0.813135       0.298888       0.392245
      13.740000       0.825079       0.294170       0.388964
      13.750000       0.836655       0.289385       0.386855
      13.760000       0.847869       0.284648       0.385795
      13.770000       0.858657       0.280073       0.385597
      13.780000       0.868821       0.275773       0.386011
      13.790000       0.878045       0.271851       0.386731
      13.800000       0.885984       0.268397       0.387415
      13.810000       0.892396       0.265490       0.387716
      13.820000       0.897218       0.263186       0.387332
      13.830000       0.900554       0.261518       0.386058
      13.840000       0.902554       0.260501       0.383829
      13.850000       0.903253       0.260134       0.380745
      13.860000       0.902444       0.260414       0.377056
      13.870000       0.899649       0.261340       0.373119
      13.880000       0.894224       0.262928       0.369331
      13.890000       0.885540       0.265209       0.366056
      13.900000       0.873192       0.268225       0.363576
      13.910000       0.857156       0.272019       0.362063
      13.920000       0.837844       0.276616       0.361570
      13.930000       0.816054       0.282016       0.362043
      13.940000       0.792840       0.288189       0.363351
      13.950000       0.769331       0.295076       0.365307
      13.960000       0.746574       0.302607       0.367707
      13.970000       0.725426       0.310711       0.370352
      13.980000       0.706500       0.319323       0.373072
      13.990000       0.690161       0.328386       0.375736
      14.000000       0.676555       0.337838       0.378251
      14.010000       0.665649       0.347611       0.380559
      14.020000       0.657282       0.357629       0.382621
      14.030000       0.651206       0.367810       0.384412
      14.040000       0.647120       0.378078       0.385921
      14.050000       0.644711       0.388363       0.387159
      14.060000       0.643679       0.398590       0.388177
      14.070000       0.643766       0.408657       0.389072
      14.080000       0.644771       0.418411       0.389983
      14.090000       0.646558       0.427643       0.391075
      14.100000       0.649041       0.436097       0.392500
      14.110000       0.652168       0.443508       0.394357
      14.120000       0.655907       0.449648       0.396656
      14.130000       0.660222       0.454370       0.399286
      14.140000       0.665056       0.457637       0.402021
      14.150000       0.670309       0.459536       0.404548
      14.160000       0.675830       0.460263       0.406519
      14.170000       0.681419       0.460095       0.407628
      14.180000       0.686845       0.459342       0.407671
      14.190000       0.691881       0.458292       0.406581
      14.200000       0.696325       0.457172       0.404433
      14.210000       0.700010       0.456126       0.401402
      14.220000       0.702809       0.455205       0.397717
      14.230000       0.704637       0.454374       0.393614
      14.240000       0.705486       0.453531       0.389305
      14.250000       0.705467       0.452531       0.384973
      14.260000       0.704843       0.451230       0.380783
      14.270000       0.704030       0.449520       0.376887
      14.280000       0.703543       0.447357       0.373432
      14.290000       0.703922       0.444752       0.370549
      14.300000       0.705645       0.441758       0.368343
      14.310000       0.709055       0.438445       0.366881
      14.320000       0.714317       0.434890       0.366189
      14.330000       0.721397       0.431176       0.366261
      14.340000       0.730076       0.427406       0.367059
      14.350000       0.740006       0.423705       0.368519
      14.360000       0.750784       0.420224       0.370548
      14.370000       0.762043       0.417118       0.373031
      14.380000       0.773508       0.414522       0.375833
      14.390000       0.785006       0.412527       0.378818
      14.400000       0.796451       0.411173       0.381853
      14.410000       0.807803       0.410460       0.384817
      14.420000       0.819061       0.410372       0.387598
      14.430000       0.830271       0.410906       0.390086
      14.440000       0.841531       0.412085       0.392181
      14.450000       0.852962       0.413955       0.393797
      14.460000       0.864632       0.416572       0.394894
      14.470000       0.876440       0.419973       0.395502
      14.480000       0.888009       0.424152       0.395743
      14.490000       0.898645       0.429043       0.395821
      14.500000       0.907395       0.434507       0.395998
      14.510000       0.913208       0.440331       0.396550
      14.520000       0.915145       0.446247       0.397720
      14.530000       0.912571       0.451970       0.399695
      14.540000       0.905259       0.457242       0.402592
      14.550000       0.893390       0.461875       0.406464
      14.560000       0.877481       0.465765       0.411314
      14.570000       0.858263       0.468866       0.417103
      14.580000       0.836575       0.471152       0.423759
      14.590000       0.813273       0.472569       0.431186
      14.600000       0.789178       0.473022       0.439271
      14.610000       0.765033       0.472392       0.447894
      14.620000       0.741480       0.470579       0.456946
      14.630000       0.719046       0.467551       0.466329
      14.640000       0.698137       0.463377       0.475956
      14.650000       0.679059       0.458221       0.485730
      14.660000       0.662027       0.452325       0.495525
      14.670000       0.647199       0.445964       0.505180
      14.680000       0.634685       0.439417       0.514499
      14.690000       0.624556       0.432947       0.523291
      14.700000       0.616832       0.426793       0.531406
      14.710000       0.611458       0.421164       0.538768
      14.720000       0.608286       0.416229       0.545388
      14.730000       0.607070       0.412107       0.551352
      14.740000       0.607477       0.408855       0.556792
      14.750000       0.609115       0.406460       0.561847
      14.760000       0.611579       0.404854       0.566628
      14.770000       0.614495       0.403924       0.571198
      14.780000       0.617563       0.403544       0.575559
      14.790000       0.620576       0.403581       0.579654
      14.800000       0.623417       0.403910       0.583385
      14.810000       0.626030       0.404409       0.586630
      14.820000       0.628394       0.404960       0.589259
      14.830000       0.630503       0.405450       0.591144
      14.840000       0.632370       0.405787       0.592160
      14.850000       0.634052       0.405922       0.592189
      14.860000       0.635663       0.405866       0.591125
      14.870000       0.637387       0.405704       0.588887
      14.880000       0.639451       0.405587       0.585435
      14.890000       0.642082       0.405704       0.580784
      14.900000       0.645458       0.406242       0.575015
      14.910000       0.649672       0.407349       0.568274
      14.920000       0.654710       0.409107       0.560760
      14.930000       0.660457       0.411513       0.552711
      14.940000       0.666708       0.414474       0.544376
      14.950000       0.673185       0.417826       0.535999
      14.960000       0.679560       0.421355       0.527795
      14.970000       0.685459       0.424835       0.519937
      14.980000       0.690474       0.428067       0.512542
      14.990000       0.694163       0.430896       0.505675
      15.000000       0.696081       0.433227       0.499350
      15.010000       0.695839       0.435006       0.493540
      15.020000       0.693185       0.436208       0.488186
      15.030000       0.688087       0.436815       0.483203
      15.040000       0.680785       0.436808       0.478484
      15.050000       0.671791       0.436166       0.473912
      15.060000       0.661843       0.434875       0.469371
      15.070000       0.651805       0.432951       0.464752
      15.080000       0.642558       0.430455       0.459971
      15.090000       0.634875       0.427506       0.454969
      15.100000       0.629339       0.424281       0.449710
      15.110000       0.626283       0.421006       0.444171
      15.120000       0.625774       0.417933       0.438334
      15.130000       0.627640       0.415316       0.432176
      15.140000       0.631530       0.413379       0.425677
      15.150000       0.636994       0.412291       0.418831
      15.160000       0.643571       0.412150       0.411659
      15.170000       0.650848       0.412974       0.404207
      15.180000       0.658479       0.414700       0.396539
      15.190000       0.666153       0.417196       0.388717
      15.200000       0.673542       0.420286       0.380790
      15.210000       0.680263       0.423777       0.372797
      15.220000       0.685871       0.427494       0.364777
      15.230000       0.689906       0.431301       0.356795
      15.240000       0.691965       0.435120       0.348955
      15.250000       0.691763       0.438923       0.341401
      15.260000       0.689194       0.442726       0.334302
      15.270000       0.684347       0.446565       0.327835
      15.280000       0.677494       0.450476       0.322157
      15.290000       0.669047       0.454483       0.317389
      15.300000       0.659482       0.458582       0.313603
      15.310000       0.649269       0.462741       0.310825
      15.320000       0.638807       0.466901       0.309027
      15.330000       0.628413       0.470985       0.308145
      15.340000       0.618328       0.474926       0.308086
      15.350000       0.608763       0.478684       0.308746
      15.360000       0.599925       0.482268       0.310033
      15.370000       0.592017       0.485742       0.311878
      15.380000       0.585207       0.489211       0.314246
      15.390000       0.579580       0.492796       0.317143
      15.400000       0.575099       0.496598       0.320609
      15.410000       0.571602       0.500675       0.324713
      15.420000       0.568828       0.505035       0.329534
      15.430000       0.566477       0.509641       0.335146
      15.440000       0.564263       0.514439       0.341599
      15.450000       0.561956       0.519385       0.348905
      15.460000       0.559395       0.524476       0.357036
      15.470000       0.556493       0.529755       0.365923
      15.480000       0.553219       0.535301       0.375460
      15.490000       0.549586       0.541192       0.385502
      15.500000       0.545637       0.547462       0.395864
      15.510000       0.541432       0.554063       0.406314
      15.520000       0.537058       0.560843       0.416589
      15.530000       0.532621       0.567572       0.426413
      15.540000       0.528251       0.573993       0.435544
      15.550000       0.524078       0.579888       0.443818
      15.560000       0.520204       0.585144       0.451180
      15.570000       0.516686       0.589773       0.457695
      15.580000       0.513529       0.593908       0.463517
      15.590000       0.510716       0.597743       0.468843
      15.600000       0.508241       0.601474       0.473865
      15.610000       0.506138       0.605230       0.478729
      15.620000       0.504478       0.609033       0.483519
      15.630000       0.503349       0.612791       0.488262
      15.640000       0.502820       0.616318       0.492945
      15.650000       0.502920       0.619386       0.497534
      15.660000       0.503627       0.621773       0.501988
      15.670000       0.504875       0.623315       0.506268
      15.680000       0.506550       0.623937       0.510325
      15.690000       0.508484       0.623657       0.514092
      15.700000       0.510444       0.622552       0.517477
      15.710000       0.512142       0.620723       0.520379
      15.720000       0.513266       0.618254       0.522717
      15.730000       0.513551       0.615220       0.524470
      15.740000       0.512846       0.611705       0.525716
      15.750000       0.511160       0.607840       0.526641
      15.760000       0.508660       0.603824       0.527519
      15.770000       0.505615       0.599910       0.528670
      15.780000       0.502312       0.596377       0.530412
      15.790000       0.498981       0.593488       0.533019
      15.800000       0.495758       0.591457       0.536716
      15.810000       0.492681       0.590424       0.541670
      15.820000       0.489729       0.590446       0.548002
      15.830000       0.486868       0.591503       0.555793
      15.840000       0.484097       0.593515       0.565072
      15.850000       0.481495       0.596369       0.575807
      15.860000       0.479238       0.599931       0.587882
      15.870000       0.477602       0.604053       0.601077
      15.880000       0.476928       0.608572       0.615056
      15.890000       0.477576       0.613306       0.629368
      15.900000       0.479867       0.618063       0.643478
      15.910000       0.484017       0.622646       0.656805
      15.920000       0.490096       0.626861       0.668777
      15.930000       0.497995       0.630523       0.678882
      15.940000       0.507410       0.633472       0.686707
      15.950000       0.517867       0.635590       0.691969
      15.960000       0.528772       0.636829       0.694530
      15.970000       0.539491       0.637230       0.694403
      15.980000       0.549431       0.636921       0.691743
      15.990000       0.558098       0.636104       0.686825
      16.000000       0.565115       0.635017       0.680013
      16.010000       0.570212       0.633898       0.671715
      16.020000       0.573207       0.632952       0.662347
      16.030000       0.573999       0.632341       0.652293
      16.040000       0.572577       0.632191       0.641872
      16.050000       0.569027       0.632608       0.631309
      16.060000       0.563527       0.633695       0.620729
      16.070000       0.556336       0.635555       0.610152
      16.080000       0.547752       0.638275       0.599532
      16.090000       0.538086       0.641904       0.588796
      16.100000       0.527642       0.646418       0.577899
      16.110000       0.516707       0.651705       0.566869
      16.120000       0.505550       0.657553       0.555816
      16.130000       0.494415       0.663644       0.544910
      16.140000       0.483507       0.669571       0.534327
      16.150000       0.472984       0.674854       0.524187
      16.160000       0.462957       0.678967       0.514517
      16.170000       0.453501       0.681384       0.505245
      16.180000       0.444658       0.681637       0.496223
      16.190000       0.436452       0.679387       0.487275
      16.200000       0.428890       0.674501       0.478250
      16.210000       0.421975       0.667110       0.469062
      16.220000       0.415721       0.657616       0.459714
      16.230000       0.410166       0.646651       0.450304
      16.240000       0.405380       0.634978       0.440994
      16.250000       0.401455       0.623384       0.431983
      16.260000       0.398485       0.612570       0.423466
      16.270000       0.396541       0.603079       0.415597
      16.280000       0.395638       0.595267       0.408477
      16.290000       0.395736       0.589295       0.402148
      16.300000       0.396737       0.585147       0.396595
      16.310000       0.398512       0.582657       0.391751
      16.320000       0.400918       0.581542       0.387499
      16.330000       0.403816       0.581454       0.383685
      16.340000       0.407073       0.582030       0.380124
      16.350000       0.410555       0.582953       0.376627
      16.360000       0.414126       0.583992       0.373022
      16.370000       0.417646       0.585010       0.369181
      16.380000       0.420992       0.585934       0.365033
      16.390000       0.424069       0.586714       0.360564
      16.400000       0.426823       0.587269       0.355804
      16.410000       0.429227       0.587459       0.350804
      16.420000       0.431259       0.587085       0.345615
      16.430000       0.432892       0.585914       0.340264
      16.440000       0.434098       0.583728       0.334747
      16.450000       0.434880       0.580363       0.329029
      16.460000       0.435303       0.575748       0.323059
      16.470000       0.435500       0.569915       0.316795
      16.480000       0.435650       0.563003       0.310227
      16.490000       0.435931       0.555251       0.303408
      16.500000       0.436479       0.546980       0.296460
      16.510000       0.437360       0.538573       0.289564
      16.520000       0.438574       0.530431       0.282940
      16.530000       0.440084       0.522921       0.276806
      16.540000       0.441853       0.516322       0.271347
      16.550000       0.443877       0.510792       0.266689
      16.560000       0.446193       0.506369       0.262889
      16.570000       0.448865       0.502983       0.259936
      16.580000       0.451949       0.500488       0.257758
      16.590000       0.455463       0.498698       0.256233
      16.600000       0.459359       0.497404       0.255195
      16.610000       0.463514       0.496401       0.254448
      16.620000       0.467727       0.495495       0.253776
      16.630000       0.471734       0.494520       0.252962
      16.640000       0.475228       0.493347       0.251807
      16.650000       0.477912       0.491901       0.250159
      16.660000       0.479540       0.490173       0.247928
      16.670000       0.479968       0.488217       0.245099
      16.680000       0.479164       0.486129       0.241722
      16.690000       0.477203       0.484013       0.237899
      16.700000       0.474232       0.481934       0.233764
      16.710000       0.470449       0.479899       0.229463
      16.720000       0.466077       0.477842       0.225138
      16.730000       0.461349       0.475636       0.220913
      16.740000       0.456484       0.473120       0.216889
      16.750000       0.451665       0.470127       0.213136
      16.760000       0.447013       0.466533       0.209690
      16.770000       0.442586       0.462288       0.206558
      16.780000       0.438395       0.457445       0.203717
      16.790000       0.434435       0.452168       0.201128
      16.800000       0.430718       0.446713       0.198745
      16.810000       0.427282       0.441388       0.196514
      16.820000       0.424180       0.436507       0.194384
      16.830000       0.421453       0.432336       0.192304
      16.840000       0.419105       0.429054       0.190235
      16.850000       0.417090       0.426731       0.188146
      16.860000       0.415310       0.425317       0.186025
      16.870000       0.413636       0.424649       0.183878
      16.880000       0.411922       0.424476       0.181730
      16.890000       0.410025       0.424494       0.179621
      16.900000       0.407812       0.424396       0.177601
      16.910000       0.405170       0.423922       0.175721
      16.920000       0.402028       0.422891       0.174022
      16.930000       0.398380       0.421211       0.172529
      16.940000       0.394303       0.418872       0.171249
      16.950000       0.389960       0.415910       0.170175
      16.960000       0.385570       0.412381       0.169291
      16.970000       0.381376       0.408338       0.168573
      16.980000       0.377594       0.403825       0.167995
      16.990000       0.374388       0.398896       0.167526
      17.000000       0.371856       0.393633       0.167131
      17.010000       0.370032       0.388167       0.166768
      17.020000       0.368905       0.382666       0.166398
      17.030000       0.368434       0.377307       0.165987
      17.040000       0.368565       0.372233       0.165515
      17.050000       0.369234       0.367527       0.164986
      17.060000       0.370357       0.363201       0.164425
      17.070000       0.371826       0.359220       0.163878
      17.080000       0.373509       0.355535       0.163396
      17.090000       0.375268       0.352116       0.163029
      17.100000       0.376981       0.348971       0.162807
      17.110000       0.378562       0.346145       0.162740
      17.120000       0.379964       0.343694       0.162807
      17.130000       0.381178       0.341659       0.162961
      17.140000       0.382215       0.340041       0.163136
      17.150000       0.383109       0.338791       0.163260
      17.160000       0.383903       0.337816       0.163269
      17.170000       0.384653       0.336999       0.163115
      17.180000       0.385410       0.336223       0.162780
      17.190000       0.386211       0.335393       0.162270
      17.200000       0.387072       0.334445       0.161614
      17.210000       0.387984       0.333360       0.160850
      17.220000       0.388914       0.332154       0.160013
      17.230000       0.389811       0.330872       0.159132
      17.240000       0.390611       0.329566       0.158230
      17.250000       0.391248       0.328275       0.157326
      17.260000       0.391666       0.327006       0.156439
      17.270000       0.391848       0.325725       0.155587
      17.280000       0.391833       0.324367       0.154788
      17.290000       0.391736       0.322855       0.154052
      17.300000       0.391742       0.321121       0.153381
      17.310000       0.392077       0.319124       0.152766
      17.320000       0.392971       0.316852       0.152193
      17.330000       0.394607       0.314316       0.151641
      17.340000       0.397100       0.311525       0.151083
      17.350000       0.400485       0.308476       0.150496
      17.360000       0.404725       0.305154       0.149856
      17.370000       0.409737       0.301542       0.149150
      17.380000       0.415416       0.297647       0.148374
      17.390000       0.421648       0.293522       0.147538
      17.400000       0.428317       0.289258       0.146660
      17.410000       0.435281       0.284969       0.145757
      17.420000       0.442345       0.280769       0.144836
      17.430000       0.449234       0.276742       0.143891
      17.440000       0.455577       0.272930       0.142908
      17.450000       0.460932       0.269337       0.141873
      17.460000       0.464826       0.265932       0.140783
      17.470000       0.466839       0.262668       0.139649
      17.480000       0.466676       0.259498       0.138500
      17.490000       0.464242       0.256377       0.137367
      17.500000       0.459656       0.253273       0.136276
      17.510000       0.453221       0.250162       0.135237
      17.520000       0.445358       0.247028       0.134240
      17.530000       0.436529       0.243868       0.133265
      17.540000       0.427190       0.240691       0.132287
      17.550000       0.417759       0.237528       0.131290
      17.560000       0.408610       0.234434       0.130270
      17.570000       0.400068       0.231489       0.129238
      17.580000       0.392398       0.228794       0.128214
      17.590000       0.385794       0.226454       0.127223
      17.600000       0.380368       0.224557       0.126287
      17.610000       0.376143       0.223148       0.125430
      17.620000       0.373054       0.222210       0.124675
      17.630000       0.370958       0.221659       0.124042
      17.640000       0.369656       0.221353       0.123552
      17.650000       0.368918       0.221116       0.123218
      17.660000       0.368509       0.220776       0.123041
      17.670000       0.368218       0.220195       0.123000
      17.680000       0.367885       0.219294       0.123056
      17.690000       0.367416       0.218056       0.123151
      17.700000       0.366788       0.216518       0.123224
      17.710000       0.366032       0.214751       0.123217
      17.720000       0.365216       0.212842       0.123091
      17.730000       0.364414       0.210875       0.122829
      17.740000       0.363707       0.208931       0.122444
      17.750000       0.363175       0.207080       0.121965
      17.760000       0.362911       0.205376       0.121433
      17.770000       0.363009       0.203858       0.120886
      17.780000       0.363554       0.202544       0.120351
      17.790000       0.364599       0.201430       0.119839
      17.800000       0.366138       0.200497       0.119338
      17.810000       0.368105       0.199715       0.118825
      17.820000       0.370380       0.199047       0.118269
      17.830000       0.372807       0.198452       0.117650
      17.840000       0.375229       0.197888       0.116961
      17.850000       0.377509       0.197315       0.116222
      17.860000       0.379549       0.196705       0.115466
      17.870000       0.381292       0.196037       0.114735
      17.880000       0.382713       0.195308       0.114063
      17.890000       0.383808       0.194525       0.113474
      17.900000       0.384590       0.193700       0.112975
      17.910000       0.385094       0.192846       0.112559
      17.920000       0.385377       0.191966       0.112211
      17.930000       0.385519       0.191058       0.111909
      17.940000       0.385610       0.190114       0.111626
      17.950000       0.385734       0.189128       0.111335
      17.960000       0.385951       0.188102       0.111003
      17.970000       0.386287       0.187049       0.110601
      17.980000       0.386720       0.185993       0.110105
      17.990000       0.387183       0.184966       0.109506
      18.000000       0.387584       0.184000       0.108815
      18.010000       0.387837       0.183127       0.108062
      18.020000       0.387900       0.182373       0.107292
      18.030000       0.387792       0.181758       0.106554
      18.040000       0.387593       0.181302       0.105890
      18.050000       0.387414       0.181026       0.105329
      18.060000       0.387357       0.180959       0.104886
      18.070000       0.387482       0.181135       0.104564
      18.080000       0.387782       0.181585       0.104363
      18.090000       0.388177       0.182333       0.104281
      18.100000       0.388523       0.183384       0.104321
      18.110000       0.388642       0.184725       0.104488
      18.120000       0.388364       0.186321       0.104792
      18.130000       0.387578       0.188120       0.105238
      18.140000       0.386264       0.190050       0.105828
      18.150000       0.384500       0.192026       0.106553
      18.160000       0.382430       0.193950       0.107392
      18.170000       0.380212       0.195710       0.108306
      18.180000       0.377969       0.197190       0.109245
      18.190000       0.375758       0.198278       0.110147
      18.200000       0.373563       0.198879       0.110944
      18.210000       0.371312       0.198936       0.111572
      18.220000       0.368905       0.198434       0.111981
      18.230000       0.366250       0.197404       0.112139
      18.240000       0.363289       0.195912       0.112035
      18.250000       0.360014       0.194037       0.111680
      18.260000       0.356457       0.191856       0.111097
      18.270000       0.352664       0.189427       0.110316
      18.280000       0.348667       0.186792       0.109370
      18.290000       0.344481       0.183980       0.108287
      18.300000       0.340108       0.181032       0.107089
      18.310000       0.335562       0.178005       0.105794
      18.320000       0.330900       0.174981       0.104414
      18.330000       0.326228       0.172054       0.102963
      18.340000       0.321707       0.169322       0.101456
      18.350000       0.317532       0.166869       0.099913
      18.360000       0.313905       0.164755       0.098360
      18.370000       0.311018       0.163008       0.096823
      18.380000       0.309029       0.161628       0.095330
      18.390000       0.308062       0.160591       0.093901
      18.400000       0.308198       0.159858       0.092552
      18.410000       0.309466       0.159378       0.091292
      18.420000       0.311843       0.159092       0.090119
      18.430000       0.315233       0.158939       0.089031
      18.440000       0.319472       0.158858       0.088022
      18.450000       0.324322       0.158796       0.087088
      18.460000       0.329497       0.158717       0.086231
      18.470000       0.334681       0.158608       0.085459
      18.480000       0.339570       0.158478       0.084784
      18.490000       0.343891       0.158346       0.084220
      18.500000       0.347425       0.158235       0.083780
      18.510000       0.350011       0.158158       0.083472
      18.520000       0.351539       0.158114       0.083299
      18.530000       0.351946       0.158088       0.083255
      18.540000       0.351211       0.158056       0.083328
      18.550000       0.349359       0.157995       0.083495
      18.560000       0.346460       0.157886       0.083729
      18.570000       0.342619       0.157725       0.083994
      18.580000       0.337961       0.157522       0.084254
      18.590000       0.332609       0.157300       0.084477
      18.600000       0.326679       0.157092       0.084644
      18.610000       0.320283       0.156936       0.084754
      18.620000       0.313543       0.156863       0.084820
      18.630000       0.306601       0.156895       0.084867
      18.640000       0.299621       0.157041       0.084918
      18.650000       0.292779       0.157294       0.084990
      18.660000       0.286248       0.157633       0.085086
      18.670000       0.280185       0.158033       0.085198
      18.680000       0.274717       0.158463       0.085308
      18.690000       0.269936       0.158894       0.085397
      18.700000       0.265891       0.159297       0.085449
      18.710000       0.262589       0.159651       0.085446
      18.720000       0.259994       0.159941       0.085376
      18.730000       0.258038       0.160167       0.085232
      18.740000       0.256632       0.160340       0.085009
      18.750000       0.255686       0.160479       0.084711
      18.760000       0.255123       0.160610       0.084347
      18.770000       0.254881       0.160750       0.083930
      18.780000       0.254911       0.160909       0.083469
      18.790000       0.255161       0.161086       0.082973
      18.800000       0.255569       0.161271       0.082443
      18.810000       0.256054       0.161444       0.081877
      18.820000       0.256527       0.161584       0.081276
      18.830000       0.256892       0.161666       0.080645
      18.840000       0.257061       0.161668       0.080000
      18.850000       0.256968       0.161576       0.079367
      18.860000       0.256579       0.161382       0.078778
      18.870000       0.255899       0.161089       0.078270
      18.880000       0.254977       0.160705       0.077875
      18.890000       0.253885       0.160243       0.077621
      18.900000       0.252699       0.159711       0.077526
      18.910000       0.251476       0.159120       0.077597
      18.920000       0.250241       0.158481       0.077834
      18.930000       0.248983       0.157814       0.078227
      18.940000       0.247670       0.157144       0.078756
      18.950000       0.246256       0.156501       0.079398
      18.960000       0.244692       0.155914       0.080119
      18.970000       0.242924       0.155404       0.080881
      18.980000       0.240896       0.154984       0.081641
      18.990000       0.238557       0.154660       0.082360
      19.000000       0.235875       0.154431       0.083007
      19.010000       0.232854       0.154290       0.083570
      19.020000       0.229539       0.154227       0.084055
      19.030000       0.226014       0.154226       0.084483
      19.040000       0.222382       0.154266       0.084891
      19.050000       0.218753       0.154319       0.085316
      19.060000       0.215224       0.154359       0.085793
      19.070000       0.211875       0.154361       0.086350
      19.080000       0.208761       0.154301       0.087004
      19.090000       0.205926       0.154166       0.087764
      19.100000       0.203401       0.153949       0.088631
      19.110000       0.201217       0.153654       0.089598
      19.120000       0.199398       0.153289       0.090650
      19.130000       0.197957       0.152870       0.091764
      19.140000       0.196878       0.152413       0.092914
      19.150000       0.196110       0.151932       0.094074
      19.160000       0.195568       0.151443       0.095225
      19.170000       0.195136       0.150960       0.096362
      19.180000       0.194698       0.150496       0.097497
      19.190000       0.194150       0.150058       0.098654
      19.200000       0.193426       0.149650       0.099865
      19.210000       0.192499       0.149270       0.101162
      19.220000       0.191389       0.148915       0.102570
      19.230000       0.190147       0.148579       0.104104
      19.240000       0.188846       0.148254       0.105762
      19.250000       0.187565       0.147930       0.107529
      19.260000       0.186376       0.147594       0.109378
      19.270000       0.185336       0.147226       0.111279
      19.280000       0.184484       0.146805       0.113208
      19.290000       0.183848       0.146313       0.115155
      19.300000       0.183444       0.145738       0.117123
      19.310000       0.183278       0.145083       0.119125
      19.320000       0.183347       0.144367       0.121173
      19.330000       0.183627       0.143618       0.123268
      19.340000       0.184069       0.142868       0.125399
      19.350000       0.184602       0.142148       0.127543
      19.360000       0.185135       0.141479       0.129676
      19.370000       0.185583       0.140880       0.131773
      19.380000       0.185883       0.140360       0.133822
      19.390000       0.186016       0.139926       0.135816
      19.400000       0.186010       0.139583       0.137756
      19.410000       0.185930       0.139328       0.139642
      19.420000       0.185855       0.139152       0.141480
      19.430000       0.185856       0.139034       0.143278
      19.440000       0.185973       0.138943       0.145056
      19.450000       0.186217       0.138838       0.146846
      19.460000       0.186576       0.138671       0.148690
      19.470000       0.187036       0.138394       0.150629
      19.480000       0.187593       0.137969       0.152694
      19.490000       0.188256       0.137381       0.154890
      19.500000       0.189043       0.136639       0.157181
      19.510000       0.189958       0.135782       0.159493
      19.520000       0.190984       0.134868       0.161719
      19.530000       0.192079       0.133968       0.163739
      19.540000       0.193182       0.133147       0.165443
      19.550000       0.194229       0.132455       0.166759
      19.560000       0.195162       0.131919       0.167671
      19.570000       0.195931       0.131534       0.168216
      19.580000       0.196479       0.131275       0.168479
      19.590000       0.196738       0.131097       0.168568
      19.600000       0.196625       0.130949       0.168590
      19.610000       0.196054       0.130782       0.168629
      19.620000       0.194964       0.130559       0.168738
      19.630000       0.193340       0.130261       0.168940
      19.640000       0.191228       0.129887       0.169231
      19.650000       0.188727       0.129452       0.169599
      19.660000       0.185967       0.128977       0.170041
      19.670000       0.183083       0.128488       0.170569
      19.680000       0.180187       0.128002       0.171217
      19.690000       0.177356       0.127527       0.172034
      19.700000       0.174635       0.127059       0.173065
      19.710000       0.172038       0.126582       0.174346
      19.720000       0.169561       0.126079       0.175897
      19.730000       0.167187       0.125532       0.177720
      19.740000       0.164890       0.124928       0.179815
      19.750000       0.162642       0.124268       0.182180
      19.760000       0.160422       0.123561       0.184817
      19.770000       0.158220       0.122828       0.187728
      19.780000       0.156046       0.122096       0.190910
      19.790000       0.153927       0.121393       0.194348
      19.800000       0.151899       0.120736       0.198009
      19.810000       0.149998       0.120133       0.201834
      19.820000       0.148253       0.119578       0.205739
      19.830000       0.146681       0.119057       0.209618
      19.840000       0.145284       0.118552       0.213356
      19.850000       0.144056       0.118041       0.216848
      19.860000       0.142983       0.117504       0.220019
      19.870000       0.142046       0.116918       0.222831
      19.880000       0.141220       0.116262       0.225285
      19.890000       0.140472       0.115517       0.227413
      19.900000       0.139765       0.114673       0.229262
      19.910000       0.139057       0.113730       0.230890
      19.920000       0.138317       0.112701       0.232358
      19.930000       0.137534       0.111606       0.233724
      19.940000       0.136723       0.110473       0.235040
      19.950000       0.135927       0.109330       0.236339
      19.960000       0.135208       0.108201       0.237633
      19.970000       0.134634       0.107105       0.238918
      19.980000       0.134266       0.106054       0.240172
      19.990000       0.134145       0.105051       0.241360
      20.000000       0.134288       0.104098       0.242439
