  # energy grid [eV]     epsr_x  epsr_y  epsr_z
       0.000000            NaN            NaN            NaN
       0.010000 -208969.654784  -65738.668152       7.258346
       0.020000  -52217.536173  -16426.441047       5.291885
       0.030000  -23189.498236   -7294.597127       3.897018
       0.040000  -13029.838167   -4098.511532       3.069847
       0.050000   -8327.531016   -2619.247450       2.585123
       0.060000   -5773.362070   -1815.770379       2.293912
       0.070000   -4233.457221   -1331.381187       2.114773
       0.080000   -3234.192137   -1017.087748       2.003330
       0.090000   -2549.315740    -801.719155       1.934409
       0.100000   -2059.679700    -647.798164       1.893001
       0.110000   -1697.701136    -534.069350       1.869707
       0.120000   -1422.730857    -447.749393       1.858365
       0.130000   -1209.123202    -380.772760       1.854779
       0.140000   -1040.035760    -327.839794       1.856003
       0.150000    -904.017052    -285.342174       1.859948
       0.160000    -793.040302    -250.744242       1.865149
       0.170000    -701.329574    -222.214978       1.870640
       0.180000    -624.639195    -198.403762       1.875859
       0.190000    -559.798900    -178.300110       1.880546
       0.200000    -504.415778    -161.142052       1.884636
       0.210000    -456.669309    -146.352455       1.888121
       0.220000    -415.163857    -133.492139       1.890937
       0.230000    -378.819611    -122.224313       1.892886
       0.240000    -346.791505    -112.287684       1.893619
       0.250000    -318.409398    -103.476477       1.892681
       0.260000    -293.134324     -95.625914       1.889603
       0.270000    -270.526664     -88.601812       1.884030
       0.280000    -250.223013     -82.293193       1.875847
       0.290000    -231.919342     -76.607048       1.865250
       0.300000    -215.358776     -71.464631       1.852749
       0.310000    -200.322758     -66.798817       1.839059
       0.320000    -186.624724     -62.552141       1.824945
       0.330000    -174.105642     -58.675309       1.811077
       0.340000    -162.630877     -55.125986       1.797952
       0.350000    -152.087887     -51.867783       1.785898
       0.360000    -142.384342     -48.869369       1.775127
       0.370000    -133.446415     -46.103698       1.765795
       0.380000    -125.217177     -43.547319       1.758042
       0.390000    -117.655073     -41.179792       1.752001
       0.400000    -110.732382     -38.983202       1.747783
       0.410000    -104.433341     -36.941767       1.745450
       0.420000     -98.751471     -35.041517       1.744980
       0.430000     -93.685636     -33.270050       1.746254
       0.440000     -89.234602     -31.616321       1.749063
       0.450000     -85.390539     -30.070468       1.753134
       0.460000     -82.132638     -28.623665       1.758171
       0.470000     -79.422433     -27.267979       1.763884
       0.480000     -77.201995     -25.996238       1.770014
       0.490000     -75.395190     -24.801905       1.776356
       0.500000     -73.911675     -23.678966       1.782761
       0.510000     -72.653748     -22.621843       1.789144
       0.520000     -71.526363     -21.625346       1.795471
       0.530000     -70.449303     -20.684677       1.801748
       0.540000     -69.368090     -19.795454       1.808001
       0.550000     -68.259335     -18.953729       1.814257
       0.560000     -67.128079     -18.155989       1.820532
       0.570000     -65.997921     -17.399102       1.826826
       0.580000     -64.897288     -16.680248       1.833124
       0.590000     -63.846006     -15.996850       1.839397
       0.600000     -62.846080     -15.346516       1.845609
       0.610000     -61.879368     -14.727019       1.851714
       0.620000     -60.912673     -14.136293       1.857666
       0.630000     -59.907889     -13.572449       1.863409
       0.640000     -58.832815     -13.033771       1.868883
       0.650000     -57.668442     -12.518715       1.874015
       0.660000     -56.410932     -12.025887       1.878722
       0.670000     -55.069167     -11.554015       1.882912
       0.680000     -53.660139     -11.101932       1.886483
       0.690000     -52.204299     -10.668553       1.889336
       0.700000     -50.722030     -10.252866       1.891385
       0.710000     -49.231525      -9.853920       1.892567
       0.720000     -47.747836      -9.470818       1.892862
       0.730000     -46.282709      -9.102719       1.892294
       0.740000     -44.844858      -8.748826       1.890931
       0.750000     -43.440424      -8.408392       1.888886
       0.760000     -42.073469      -8.080710       1.886309
       0.770000     -40.746443      -7.765116       1.883392
       0.780000     -39.460573      -7.460983       1.880360
       0.790000     -38.216189      -7.167721       1.877450
       0.800000     -37.012971      -6.884775       1.874874
       0.810000     -35.850150      -6.611620       1.872780
       0.820000     -34.726652      -6.347760       1.871226
       0.830000     -33.641211      -6.092731       1.870183
       0.840000     -32.592452      -5.846089       1.869560
       0.850000     -31.578946      -5.607420       1.869241
       0.860000     -30.599245      -5.376329       1.869127
       0.870000     -29.651894      -5.152442       1.869156
       0.880000     -28.735426      -4.935407       1.869320
       0.890000     -27.848338      -4.724888       1.869654
       0.900000     -26.989059      -4.520569       1.870213
       0.910000     -26.155932      -4.322149       1.871052
       0.920000     -25.347222      -4.129341       1.872213
       0.930000     -24.561177      -3.941875       1.873715
       0.940000     -23.796108      -3.759495       1.875557
       0.950000     -23.050494      -3.581959       1.877718
       0.960000     -22.323055      -3.409038       1.880165
       0.970000     -21.612789      -3.240518       1.882849
       0.980000     -20.918981      -3.076201       1.885708
       0.990000     -20.241200      -2.915902       1.888674
       1.000000     -19.579307      -2.759459       1.891672
       1.010000     -18.933487      -2.606726       1.894624
       1.020000     -18.304309      -2.457584       1.897447
       1.030000     -17.692819      -2.311944       1.900060
       1.040000     -17.100660      -2.169748       1.902383
       1.050000     -16.530208      -2.030983       1.904346
       1.060000     -15.984699      -1.895683       1.905900
       1.070000     -15.468329      -1.763934       1.907027
       1.080000     -14.986240      -1.635880       1.907752
       1.090000     -14.544331      -1.511712       1.908146
       1.100000     -14.148781      -1.391652       1.908316
       1.110000     -13.805230      -1.275918       1.908381
       1.120000     -13.517637      -1.164669       1.908448
       1.130000     -13.287057      -1.057947       1.908589
       1.140000     -13.110703      -0.955618       1.908839
       1.150000     -12.981774      -0.857343       1.909206
       1.160000     -12.890268      -0.762597       1.909689
       1.170000     -12.824643      -0.670731       1.910296
       1.180000     -12.773802      -0.581078       1.911052
       1.190000     -12.728794      -0.493067       1.911989
       1.200000     -12.683694      -0.406317       1.913135
       1.210000     -12.635497      -0.320686       1.914496
       1.220000     -12.583239      -0.236271       1.916046
       1.230000     -12.526937      -0.153377       1.917726
       1.240000     -12.467001      -0.072482       1.919448
       1.250000     -12.404292       0.005791       1.921107
       1.260000     -12.340527       0.080701       1.922591
       1.270000     -12.278385       0.151474       1.923794
       1.280000     -12.220998       0.217445       1.924629
       1.290000     -12.171085       0.278257       1.925050
       1.300000     -12.130311       0.334071       1.925052
       1.310000     -12.099380       0.385677       1.924681
       1.320000     -12.078760       0.434437       1.924016
       1.330000     -12.069459       0.482020       1.923140
       1.340000     -12.073230       0.529999       1.922116
       1.350000     -12.092063       0.579455       1.920964
       1.360000     -12.127400       0.630721       1.919665
       1.370000     -12.179687       0.683334       1.918176
       1.380000     -12.248494       0.736175       1.916471
       1.390000     -12.332905       0.787727       1.914568
       1.400000     -12.431635       0.836407       1.912553
       1.410000     -12.542647       0.880932       1.910571
       1.420000     -12.662511       0.920664       1.908809
       1.430000     -12.785985       0.955875       1.907451
       1.440000     -12.906030       0.987814       1.906640
       1.450000     -13.014222       1.018491       1.906460
       1.460000     -13.101448       1.050202       1.906925
       1.470000     -13.158879       1.084951       1.907991
       1.480000     -13.179205       1.123961       1.909579
       1.490000     -13.157810       1.167443       1.911584
       1.500000     -13.093458       1.214649       1.913898
       1.510000     -12.988202       1.264128       1.916408
       1.520000     -12.846630       1.314088       1.919010
       1.530000     -12.674789       1.362781       1.921598
       1.540000     -12.479171       1.408868       1.924071
       1.550000     -12.265962       1.451717       1.926323
       1.560000     -12.040604       1.491555       1.928254
       1.570000     -11.807622       1.529390       1.929766
       1.580000     -11.570621       1.566691       1.930775
       1.590000     -11.332377       1.604882       1.931222
       1.600000     -11.094965       1.644848       1.931091
       1.610000     -10.859898       1.686618       1.930412
       1.620000     -10.628243       1.729307       1.929264
       1.630000     -10.400729       1.771315       1.927768
       1.640000     -10.177827       1.810696       1.926066
       1.650000      -9.959817       1.845621       1.924309
       1.660000      -9.746837       1.874857       1.922641
       1.670000      -9.538923       1.898169       1.921197
       1.680000      -9.336038       1.916525       1.920095
       1.690000      -9.138095       1.931964       1.919429
       1.700000      -8.944975       1.947124       1.919266
       1.710000      -8.756544       1.964568       1.919639
       1.720000      -8.572665       1.986167       1.920545
       1.730000      -8.393208       2.012783       1.921948
       1.740000      -8.218063       2.044309       1.923788
       1.750000      -8.047139       2.079965       1.925987
       1.760000      -7.880378       2.118646       1.928459
       1.770000      -7.717755       2.159164       1.931119
       1.780000      -7.559279       2.200327       1.933879
       1.790000      -7.404991       2.240907       1.936654
       1.800000      -7.254948       2.279623       1.939358
       1.810000      -7.109199       2.315233       1.941902
       1.820000      -6.967745       2.346736       1.944194
       1.830000      -6.830499       2.373610       1.946140
       1.840000      -6.697247       2.395992       1.947652
       1.850000      -6.567637       2.414722       1.948655
       1.860000      -6.441205       2.431272       1.949103
       1.870000      -6.317449       2.447558       1.948997
       1.880000      -6.195916       2.465648       1.948390
       1.890000      -6.076284       2.487363       1.947393
       1.900000      -5.958416       2.513847       1.946160
       1.910000      -5.842361       2.545249       1.944863
       1.920000      -5.728308       2.580647       1.943661
       1.930000      -5.616505       2.618280       1.942678
       1.940000      -5.507165       2.655995       1.941986
       1.950000      -5.400380       2.691783       1.941612
       1.960000      -5.296091       2.724247       1.941546
       1.970000      -5.194125       2.752865       1.941769
       1.980000      -5.094285       2.777994       1.942264
       1.990000      -4.996468       2.800616       1.943023
       2.000000      -4.900751       2.821942       1.944046
       2.010000      -4.807384       2.842988       1.945332
       2.020000      -4.716718       2.864248       1.946861
       2.030000      -4.629070       2.885472       1.948595
       2.040000      -4.544616       2.905576       1.950467
       2.050000      -4.463346       2.922662       1.952398
       2.060000      -4.385134       2.934125       1.954299
       2.070000      -4.309875       2.936807       1.956089
       2.080000      -4.237629       2.927086       1.957707
       2.090000      -4.168677       2.900831       1.959129
       2.100000      -4.103457       2.853217       1.960377
       2.110000      -4.042420       2.778546       1.961515
       2.120000      -3.985877       2.670368       1.962641
       2.130000      -3.933951       2.522134       1.963856
       2.140000      -3.886640       2.328500       1.965242
       2.150000      -3.843967       2.087102       1.966842
       2.160000      -3.806092       1.800356       1.968646
       2.170000      -3.773321       1.476628       1.970602
       2.180000      -3.746020       1.130070       1.972620
       2.190000      -3.724514       0.778840       1.974592
       2.200000      -3.709062       0.442050       1.976407
       2.210000      -3.699928       0.136466       1.977964
       2.220000      -3.697470      -0.125951       1.979189
       2.230000      -3.702170      -0.339014       1.980050
       2.240000      -3.714558      -0.501881       1.980561
       2.250000      -3.735072      -0.617697       1.980784
       2.260000      -3.763874      -0.691942       1.980807
       2.270000      -3.800660      -0.730943       1.980735
       2.280000      -3.844461      -0.740857       1.980675
       2.290000      -3.893486      -0.727190       1.980726
       2.300000      -3.945075      -0.694774       1.980983
       2.310000      -3.995819      -0.647961       1.981533
       2.320000      -4.041890      -0.590836       1.982448
       2.330000      -4.079557      -0.527303       1.983769
       2.340000      -4.105752      -0.461034       1.985499
       2.350000      -4.118534      -0.395297       1.987598
       2.360000      -4.117273      -0.332729       1.989985
       2.370000      -4.102534      -0.275103       1.992546
       2.380000      -4.075736      -0.223156       1.995140
       2.390000      -4.038745      -0.176538       1.997608
       2.400000      -3.993510      -0.133931       1.999779
       2.410000      -3.941834      -0.093333       2.001481
       2.420000      -3.885257      -0.052449       2.002547
       2.430000      -3.825036      -0.009133       2.002840
       2.440000      -3.762179       0.038241       2.002270
       2.450000      -3.697504       0.090539       2.000826
       2.460000      -3.631690       0.147817       1.998593
       2.470000      -3.565318       0.209446       1.995759
       2.480000      -3.498883       0.274338       1.992596
       2.490000      -3.432800       0.341215       1.989407
       2.500000      -3.367402       0.408863       1.986474
       2.510000      -3.302932       0.476340       1.983996
       2.520000      -3.239538       0.543130       1.982064
       2.530000      -3.177277       0.609206       1.980656
       2.540000      -3.116132       0.674982       1.979653
       2.550000      -3.056031       0.741153       1.978883
       2.560000      -2.996884       0.808459       1.978157
       2.570000      -2.938609       0.877464       1.977312
       2.580000      -2.881156       0.948410       1.976241
       2.590000      -2.824510       1.021172       1.974907
       2.600000      -2.768690       1.095295       1.973347
       2.610000      -2.713742       1.170065       1.971660
       2.620000      -2.659734       1.244578       1.969995
       2.630000      -2.606747       1.317798       1.968529
       2.640000      -2.554877       1.388610       1.967450
       2.650000      -2.504229       1.455877       1.966929
       2.660000      -2.454916       1.518525       1.967087
       2.670000      -2.407053       1.575654       1.967978
       2.680000      -2.360741       1.626666       1.969577
       2.690000      -2.316057       1.671342       1.971788
       2.700000      -2.273035       1.709819       1.974463
       2.710000      -2.231652       1.742407       1.977422
       2.720000      -2.191816       1.769254       1.980475
       2.730000      -2.153368       1.789948       1.983430
       2.740000      -2.116092       1.803201       1.986113
       2.750000      -2.079748       1.806724       1.988368
       2.760000      -2.044098       1.797377       1.990073
       2.770000      -2.008941       1.771549       1.991141
       2.780000      -1.974113       1.725732       1.991529
       2.790000      -1.939486       1.657137       1.991238
       2.800000      -1.904954       1.564215       1.990313
       2.810000      -1.870433       1.446948       1.988836
       2.820000      -1.835879       1.306891       1.986918
       2.830000      -1.801308       1.147042       1.984693
       2.840000      -1.766805       0.971718       1.982310
       2.850000      -1.732511       0.786484       1.979922
       2.860000      -1.698589       0.598064       1.977676
       2.870000      -1.665183       0.414073       1.975692
       2.880000      -1.632367       0.242410       1.974060
       2.890000      -1.600133       0.090350       1.972824
       2.900000      -1.568386      -0.036446       1.971991
       2.910000      -1.536988      -0.134669       1.971537
       2.920000      -1.505812      -0.203597       1.971421
       2.930000      -1.474786      -0.244790       1.971585
       2.940000      -1.443923      -0.261432       1.971961
       2.950000      -1.413302      -0.257573       1.972468
       2.960000      -1.383035      -0.237472       1.973017
       2.970000      -1.353210      -0.205136       1.973524
       2.980000      -1.323847      -0.164076       1.973923
       2.990000      -1.294879      -0.117212       1.974181
       3.000000      -1.266174      -0.066905       1.974299
       3.010000      -1.237589      -0.015032       1.974309
       3.020000      -1.209028       0.036932       1.974260
       3.030000      -1.180499       0.087862       1.974209
       3.040000      -1.152126       0.136969       1.974211
       3.050000      -1.124136       0.183809       1.974311
       3.060000      -1.096823       0.228273       1.974541
       3.070000      -1.070498       0.270538       1.974919
       3.080000      -1.045447       0.310967       1.975446
       3.090000      -1.021890       0.349994       1.976113
       3.100000      -0.999970       0.388008       1.976894
       3.110000      -0.979761       0.425261       1.977749
       3.120000      -0.961315       0.461823       1.978621
       3.130000      -0.944720       0.497580       1.979433
       3.140000      -0.930131       0.532297       1.980102
       3.150000      -0.917769       0.565709       1.980540
       3.160000      -0.907863       0.597639       1.980679
       3.170000      -0.900580       0.628064       1.980483
       3.180000      -0.895962       0.657124       1.979967
       3.190000      -0.893883       0.685066       1.979201
       3.200000      -0.894039       0.712172       1.978307
       3.210000      -0.895935       0.738709       1.977436
       3.220000      -0.898876       0.764935       1.976731
       3.230000      -0.901982       0.791141       1.976292
       3.240000      -0.904249       0.817688       1.976148
       3.250000      -0.904676       0.844990       1.976252
       3.260000      -0.902414       0.873440       1.976493
       3.270000      -0.896908       0.903315       1.976723
       3.280000      -0.887965       0.934704       1.976788
       3.290000      -0.875746       0.967489       1.976562
       3.300000      -0.860690       1.001396       1.975958
       3.310000      -0.843398       1.036076       1.974951
       3.320000      -0.824528       1.071192       1.973581
       3.330000      -0.804701       1.106485       1.971962
       3.340000      -0.784437       1.141800       1.970269
       3.350000      -0.764114       1.177071       1.968709
       3.360000      -0.743959       1.212275       1.967475
       3.370000      -0.724057       1.247386       1.966705
       3.380000      -0.704382       1.282349       1.966449
       3.390000      -0.684836       1.317080       1.966676
       3.400000      -0.665289       1.351495       1.967291
       3.410000      -0.645600       1.385546       1.968170
       3.420000      -0.625641       1.419238       1.969189
       3.430000      -0.605313       1.452612       1.970248
       3.440000      -0.584556       1.485681       1.971284
       3.450000      -0.563364       1.518358       1.972273
       3.460000      -0.541787       1.550390       1.973234
       3.470000      -0.519924       1.581337       1.974229
       3.480000      -0.497906       1.610608       1.975354
       3.490000      -0.475872       1.637536       1.976724
       3.500000      -0.453950       1.661472       1.978439
       3.510000      -0.432235       1.681889       1.980564
       3.520000      -0.410777       1.698448       1.983106
       3.530000      -0.389576       1.711033       1.986013
       3.540000      -0.368592       1.719725       1.989181
       3.550000      -0.347760       1.724738       1.992474
       3.560000      -0.327011       1.726339       1.995737
       3.570000      -0.306292       1.724782       1.998821
       3.580000      -0.285574       1.720279       2.001583
       3.590000      -0.264853       1.712969       2.003911
       3.600000      -0.244151       1.702892       2.005723
       3.610000      -0.223507       1.689964       2.006985
       3.620000      -0.202974       1.673980       2.007716
       3.630000      -0.182613       1.654660       2.007981
       3.640000      -0.162492       1.631709       2.007870
       3.650000      -0.142671       1.604846       2.007471
       3.660000      -0.123207       1.573796       2.006843
       3.670000      -0.104141       1.538277       2.006005
       3.680000      -0.085499       1.498002       2.004948
       3.690000      -0.067287       1.452767       2.003666
       3.700000      -0.049493       1.402573       2.002194
       3.710000      -0.032088       1.347782       2.000636
       3.720000      -0.015029       1.289267       1.999172
       3.730000       0.001740       1.228504       1.998023
       3.740000       0.018279       1.167584       1.997403
       3.750000       0.034657       1.109088       1.997464
       3.760000       0.050936       1.055799       1.998256
       3.770000       0.067169       1.010285       1.999724
       3.780000       0.083392       0.974480       2.001724
       3.790000       0.099618       0.949402       2.004051
       3.800000       0.115845       0.935112       2.006479
       3.810000       0.132065       0.930881       2.008785
       3.820000       0.148283       0.935485       2.010778
       3.830000       0.164520       0.947499       2.012312
       3.840000       0.180817       0.965509       2.013296
       3.850000       0.197229       0.988232       2.013700
       3.860000       0.213808       1.014550       2.013562
       3.870000       0.230590       1.043493       2.012984
       3.880000       0.247580       1.074209       2.012129
       3.890000       0.264752       1.105950       2.011194
       3.900000       0.282043       1.138068       2.010383
       3.910000       0.299362       1.170036       2.009861
       3.920000       0.316598       1.201472       2.009741
       3.930000       0.333625       1.232139       2.010071
       3.940000       0.350313       1.261926       2.010859
       3.950000       0.366545       1.290809       2.012098
       3.960000       0.382232       1.318810       2.013782
       3.970000       0.397334       1.345978       2.015915
       3.980000       0.411880       1.372406       2.018490
       3.990000       0.425974       1.398250       2.021475
       4.000000       0.439781       1.423736       2.024792
       4.010000       0.453496       1.449123       2.028314
       4.020000       0.467297       1.474637       2.031868
       4.030000       0.481307       1.500393       2.035254
       4.040000       0.495568       1.526347       2.038260
       4.050000       0.510042       1.552291       2.040685
       4.060000       0.524629       1.577900       2.042354
       4.070000       0.539191       1.602800       2.043147
       4.080000       0.553579       1.626640       2.043012
       4.090000       0.567661       1.649154       2.041988
       4.100000       0.581332       1.670181       2.040208
       4.110000       0.594530       1.689668       2.037878
       4.120000       0.607229       1.707653       2.035245
       4.130000       0.619432       1.724239       2.032542
       4.140000       0.631153       1.739576       2.029956
       4.150000       0.642420       1.753855       2.027610
       4.160000       0.653280       1.767313       2.025571
       4.170000       0.663817       1.780248       2.023871
       4.180000       0.674160       1.793045       2.022525
       4.190000       0.684477       1.806169       2.021537
       4.200000       0.694951       1.820130       2.020898
       4.210000       0.705746       1.835407       2.020588
       4.220000       0.716989       1.852364       2.020573
       4.230000       0.728758       1.871171       2.020809
       4.240000       0.741085       1.891787       2.021241
       4.250000       0.753966       1.913971       2.021812
       4.260000       0.767372       1.937342       2.022475
       4.270000       0.781258       1.961427       2.023208
       4.280000       0.795567       1.985708       2.024029
       4.290000       0.810241       2.009635       2.024993
       4.300000       0.825221       2.032616       2.026176
       4.310000       0.840451       2.054022       2.027654
       4.320000       0.855879       2.073184       2.029481
       4.330000       0.871453       2.089438       2.031677
       4.340000       0.887128       2.102187       2.034228
       4.350000       0.902877       2.110999       2.037082
       4.360000       0.918696       2.115713       2.040163
       4.370000       0.934606       2.116491       2.043363
       4.380000       0.950635       2.113777       2.046547
       4.390000       0.966799       2.108136       2.049554
       4.400000       0.983080       2.100034       2.052206
       4.410000       0.999420       2.089656       2.054321
       4.420000       1.015729       2.076845       2.055737
       4.430000       1.031901       2.061199       2.056337
       4.440000       1.047837       2.042311       2.056068
       4.450000       1.063454       2.020057       2.054960
       4.460000       1.078698       1.994847       2.053115
       4.470000       1.093519       1.967718       2.050698
       4.480000       1.107853       1.940228       2.047905
       4.490000       1.121595       1.914155       2.044925
       4.500000       1.134584       1.891137       2.041918
       4.510000       1.146611       1.872362       2.038992
       4.520000       1.157456       1.858417       2.036208
       4.530000       1.166946       1.849293       2.033593
       4.540000       1.175023       1.844496       2.031156
       4.550000       1.181791       1.843204       2.028889
       4.560000       1.187525       1.844431       2.026771
       4.570000       1.192623       1.847161       2.024762
       4.580000       1.197503       1.850442       2.022806
       4.590000       1.202496       1.853448       2.020852
       4.600000       1.207770       1.855500       2.018860
       4.610000       1.213307       1.856075       2.016805
       4.620000       1.218952       1.854805       2.014669
       4.630000       1.224504       1.851473       2.012429
       4.640000       1.229834       1.846004       2.010046
       4.650000       1.234993       1.838468       2.007482
       4.660000       1.240263       1.829067       2.004721
       4.670000       1.246122       1.818134       2.001794
       4.680000       1.253136       1.806106       1.998789
       4.690000       1.261808       1.793480       1.995846
       4.700000       1.272455       1.780760       1.993131
       4.710000       1.285156       1.768411       1.990809
       4.720000       1.299785       1.756871       1.989012
       4.730000       1.316088       1.746623       1.987814
       4.740000       1.333775       1.738303       1.987213
       4.750000       1.352585       1.732754       1.987125
       4.760000       1.372316       1.730973       1.987392
       4.770000       1.392815       1.733929       1.987816
       4.780000       1.413947       1.742351       1.988194
       4.790000       1.435568       1.756569       1.988365
       4.800000       1.457523       1.776486       1.988241
       4.810000       1.479666       1.801657       1.987828
       4.820000       1.501893       1.831423       1.987216
       4.830000       1.524184       1.865052       1.986556
       4.840000       1.546609       1.901820       1.986015
       4.850000       1.569306       1.941056       1.985741
       4.860000       1.592413       1.982130       1.985837
       4.870000       1.615987       2.024442       1.986351
       4.880000       1.639944       2.067384       1.987282
       4.890000       1.664026       2.110315       1.988602
       4.900000       1.687819       2.152537       1.990261
       4.910000       1.710803       2.193280       1.992197
       4.920000       1.732420       2.231709       1.994348
       4.930000       1.752154       2.266942       1.996650
       4.940000       1.769586       2.298107       1.999043
       4.950000       1.784430       2.324407       2.001471
       4.960000       1.796521       2.345205       2.003877
       4.970000       1.805771       2.360111       2.006197
       4.980000       1.812123       2.369059       2.008357
       4.990000       1.815523       2.372333       2.010274
       5.000000       1.815929       2.370545       2.011860
       5.010000       1.813358       2.364511       2.013036
       5.020000       1.807937       2.355094       2.013742
       5.030000       1.799946       2.343037       2.013952
       5.040000       1.789818       2.328835       2.013676
       5.050000       1.778090       2.312683       2.012960
       5.060000       1.765309       2.294503       2.011874
       5.070000       1.751979       2.274079       2.010495
       5.080000       1.738578       2.251301       2.008888
       5.090000       1.725646       2.226445       2.007081
       5.100000       1.713859       2.200373       2.005071
       5.110000       1.704003       2.174527       2.002837
       5.120000       1.696834       2.150679       2.000367
       5.130000       1.692878       2.130537       1.997686
       5.140000       1.692293       2.115367       1.994867
       5.150000       1.694817       2.105777       1.992028
       5.160000       1.699821       2.101714       1.989318
       5.170000       1.706397       2.102635       1.986897
       5.180000       1.713494       2.107731       1.984920
       5.190000       1.720079       2.116116       1.983518
       5.200000       1.725317       2.126900       1.982785
       5.210000       1.728760       2.139159       1.982762
       5.220000       1.730450       2.151867       1.983436
       5.230000       1.730899       2.163897       1.984744
       5.240000       1.730922       2.174145       1.986592
       5.250000       1.731365       2.181751       1.988867
       5.260000       1.732843       2.186328       1.991457
       5.270000       1.735566       2.188063       1.994261
       5.280000       1.739319       2.187616       1.997197
       5.290000       1.743529       2.185814       2.000206
       5.300000       1.747402       2.183265       2.003257
       5.310000       1.750063       2.180062       2.006344
       5.320000       1.750672       2.175673       2.009487
       5.330000       1.748493       2.169060       2.012708
       5.340000       1.742911       2.158923       2.016020
       5.350000       1.733394       2.144006       2.019411
       5.360000       1.719461       2.123375       2.022840
       5.370000       1.700683       2.096630       2.026242
       5.380000       1.676750       2.064009       2.029544
       5.390000       1.647575       2.026357       2.032688
       5.400000       1.613393       1.984960       2.035648
       5.410000       1.574827       1.941316       2.038442
       5.420000       1.532864       1.896929       2.041126
       5.430000       1.488765       1.853169       2.043782
       5.440000       1.443899       1.811229       2.046489
       5.450000       1.399552       1.772120       2.049308
       5.460000       1.356728       1.736687       2.052268
       5.470000       1.315981       1.705611       2.055381
       5.480000       1.277351       1.679383       2.058639
       5.490000       1.240448       1.658278       2.062030
       5.500000       1.204715       1.642345       2.065532
       5.510000       1.169762       1.631414       2.069100
       5.520000       1.135638       1.625129       2.072666
       5.530000       1.102901       1.622974       2.076138
       5.540000       1.072455       1.624286       2.079417
       5.550000       1.045272       1.628246       2.082405
       5.560000       1.022133       1.633903       2.085029
       5.570000       1.003525       1.640242       2.087241
       5.580000       0.989662       1.646301       2.089022
       5.590000       0.980566       1.651285       2.090379
       5.600000       0.976074       1.654624       2.091338
       5.610000       0.975760       1.655943       2.091939
       5.620000       0.978840       1.654960       2.092233
       5.630000       0.984142       1.651363       2.092281
       5.640000       0.990210       1.644713       2.092142
       5.650000       0.995533       1.634412       2.091870
       5.660000       0.998807       1.619755       2.091508
       5.670000       0.999176       1.600085       2.091084
       5.680000       0.996365       1.575004       2.090617
       5.690000       0.990679       1.544612       2.090122
       5.700000       0.982882       1.509642       2.089626
       5.710000       0.973996       1.471453       2.089173
       5.720000       0.965053       1.431865       2.088828
       5.730000       0.956886       1.392884       2.088682
       5.740000       0.949976       1.356427       2.088834
       5.750000       0.944422       1.324099       2.089384
       5.760000       0.940011       1.297049       2.090407
       5.770000       0.936390       1.275911       2.091944
       5.780000       0.933262       1.260798       2.093988
       5.790000       0.930564       1.251359       2.096488
       5.800000       0.928563       1.246870       2.099354
       5.810000       0.927827       1.246330       2.102474
       5.820000       0.929109       1.248552       2.105729
       5.830000       0.933194       1.252242       2.109020
       5.840000       0.940761       1.256094       2.112285
       5.850000       0.952293       1.258923       2.115507
       5.860000       0.968023       1.259815       2.118708
       5.870000       0.987902       1.258298       2.121938
       5.880000       1.011618       1.254458       2.125253
       5.890000       1.038638       1.248970       2.128709
       5.900000       1.068282       1.242975       2.132351
       5.910000       1.099775       1.237838       2.136219
       5.920000       1.132278       1.234848       2.140338
       5.930000       1.164879       1.234955       2.144721
       5.940000       1.196582       1.238640       2.149358
       5.950000       1.226309       1.245912       2.154220
       5.960000       1.252937       1.256413       2.159268
       5.970000       1.275367       1.269545       2.164459
       5.980000       1.292614       1.284593       2.169757
       5.990000       1.303914       1.300828       2.175133
       6.000000       1.308784       1.317583       2.180566
       6.010000       1.307025       1.334319       2.186029
       6.020000       1.298628       1.350642       2.191473
       6.030000       1.283638       1.366286       2.196824
       6.040000       1.262043       1.381067       2.201971
       6.050000       1.233796       1.394865       2.206774
       6.060000       1.198966       1.407657       2.211083
       6.070000       1.157955       1.419597       2.214755
       6.080000       1.111652       1.431061       2.217688
       6.090000       1.061472       1.442629       2.219844
       6.100000       1.009272       1.454961       2.221265
       6.110000       0.957195       1.468631       2.222073
       6.120000       0.907504       1.483973       2.222450
       6.130000       0.862378       1.501000       2.222608
       6.140000       0.823695       1.519418       2.222758
       6.150000       0.792800       1.538704       2.223083
       6.160000       0.770341       1.558193       2.223731
       6.170000       0.756217       1.577141       2.224800
       6.180000       0.749674       1.594744       2.226340
       6.190000       0.749505       1.610134       2.228347
       6.200000       0.754271       1.622392       2.230763
       6.210000       0.762488       1.630606       2.233481
       6.220000       0.772749       1.633973       2.236357
       6.230000       0.783797       1.631907       2.239221
       6.240000       0.794585       1.624134       2.241905
       6.250000       0.804307       1.610717       2.244263
       6.260000       0.812401       1.592015       2.246197
       6.270000       0.818517       1.568577       2.247670
       6.280000       0.822485       1.541049       2.248709
       6.290000       0.824320       1.510127       2.249391
       6.300000       0.824282       1.476630       2.249829
       6.310000       0.822932       1.441633       2.250147
       6.320000       0.821139       1.406576       2.250467
       6.330000       0.819999       1.373230       2.250893
       6.340000       0.820671       1.343485       2.251503
       6.350000       0.824198       1.319007       2.252352
       6.360000       0.831336       1.300884       2.253479
       6.370000       0.842453       1.289394       2.254925
       6.380000       0.857505       1.283981       2.256739
       6.390000       0.876111       1.283439       2.258980
       6.400000       0.897711       1.286237       2.261708
       6.410000       0.921737       1.290912       2.264976
       6.420000       0.947750       1.296396       2.268811
       6.430000       0.975482       1.302184       2.273209
       6.440000       1.004769       1.308293       2.278121
       6.450000       1.035420       1.315030       2.283454
       6.460000       1.067081       1.322672       2.289063
       6.470000       1.099140       1.331218       2.294758
       6.480000       1.130701       1.340300       2.300317
       6.490000       1.160610       1.349273       2.305492
       6.500000       1.187507       1.357402       2.310034
       6.510000       1.209903       1.364028       2.313714
       6.520000       1.226289       1.368653       2.316343
       6.530000       1.235281       1.370947       2.317805
       6.540000       1.235819       1.370724       2.318073
       6.550000       1.227372       1.367971       2.317229
       6.560000       1.210094       1.362930       2.315456
       6.570000       1.184841       1.356186       2.313021
       6.580000       1.153055       1.348692       2.310243
       6.590000       1.116532       1.341680       2.307466
       6.600000       1.077188       1.336470       2.305020
       6.610000       1.036879       1.334216       2.303199
       6.620000       0.997286       1.335639       2.302241
       6.630000       0.959847       1.340841       2.302320
       6.640000       0.925689       1.349262       2.303536
       6.650000       0.895576       1.359801       2.305916
       6.660000       0.869894       1.371067       2.309420
       6.670000       0.848694       1.381691       2.313942
       6.680000       0.831805       1.390620       2.319324
       6.690000       0.818951       1.397318       2.325367
       6.700000       0.809850       1.401814       2.331855
       6.710000       0.804245       1.404597       2.338573
       6.720000       0.801913       1.406390       2.345321
       6.730000       0.802660       1.407892       2.351931
       6.740000       0.806355       1.409591       2.358268
       6.750000       0.812974       1.411694       2.364238
       6.760000       0.822633       1.414168       2.369786
       6.770000       0.835550       1.416841       2.374897
       6.780000       0.851950       1.419521       2.379595
       6.790000       0.871939       1.422103       2.383929
       6.800000       0.895403       1.424648       2.387961
       6.810000       0.921970       1.427437       2.391754
       6.820000       0.951038       1.430944       2.395350
       6.830000       0.981833       1.435736       2.398766
       6.840000       1.013467       1.442311       2.401982
       6.850000       1.044981       1.450922       2.404936
       6.860000       1.075362       1.461456       2.407534
       6.870000       1.103588       1.473403       2.409663
       6.880000       1.128679       1.485905       2.411219
       6.890000       1.149789       1.497865       2.412132
       6.900000       1.166309       1.508073       2.412377
       6.910000       1.177945       1.515325       2.411982
       6.920000       1.184754       1.518550       2.411009
       6.930000       1.187117       1.516943       2.409547
       6.940000       1.185657       1.510112       2.407690
       6.950000       1.181151       1.498199       2.405533
       6.960000       1.174450       1.481918       2.403171
       6.970000       1.166424       1.462492       2.400710
       6.980000       1.157907       1.441486       2.398273
       6.990000       1.149646       1.420554       2.396015
       7.000000       1.142234       1.401175       2.394113
       7.010000       1.136047       1.384438       2.392760
       7.020000       1.131212       1.370903       2.392144
       7.030000       1.127606       1.360590       2.392428
       7.040000       1.124885       1.353054       2.393737
       7.050000       1.122540       1.347524       2.396145
       7.060000       1.119972       1.343082       2.399674
       7.070000       1.116617       1.338836       2.404296
       7.080000       1.112106       1.334083       2.409943
       7.090000       1.106422       1.328462       2.416518
       7.100000       1.099967       1.322042       2.423910
       7.110000       1.093490       1.315324       2.431995
       7.120000       1.087866       1.309118       2.440644
       7.130000       1.083812       1.304303       2.449719
       7.140000       1.081669       1.301566       2.459080
       7.150000       1.081321       1.301190       2.468583
       7.160000       1.082263       1.302991       2.478098
       7.170000       1.083764       1.306395       2.487514
       7.180000       1.085050       1.310634       2.496749
       7.190000       1.085456       1.314977       2.505756
       7.200000       1.084515       1.318916       2.514518
       7.210000       1.081993       1.322247       2.523044
       7.220000       1.077880       1.325035       2.531350
       7.230000       1.072361       1.327496       2.539447
       7.240000       1.065789       1.329863       2.547318
       7.250000       1.058657       1.332321       2.554914
       7.260000       1.051582       1.335019       2.562143
       7.270000       1.045277       1.338143       2.568886
       7.280000       1.040492       1.341981       2.575009
       7.290000       1.037944       1.346939       2.580397
       7.300000       1.038221       1.353517       2.584979
       7.310000       1.041713       1.362246       2.588760
       7.320000       1.048557       1.373599       2.591840
       7.330000       1.058612       1.387871       2.594406
       7.340000       1.071460       1.405062       2.596715
       7.350000       1.086452       1.424796       2.599054
       7.360000       1.102792       1.446355       2.601690
       7.370000       1.119652       1.468801       2.604825
       7.380000       1.136271       1.491181       2.608565
       7.390000       1.152039       1.512744       2.612913
       7.400000       1.166537       1.533102       2.617786
       7.410000       1.179559       1.552286       2.623046
       7.420000       1.191095       1.570666       2.628544
       7.430000       1.201303       1.588749       2.634156
       7.440000       1.210471       1.606916       2.639819
       7.450000       1.218992       1.625192       2.645545
       7.460000       1.227335       1.643111       2.651410
       7.470000       1.236005       1.659718       2.657539
       7.480000       1.245458       1.673703       2.664065
       7.490000       1.255970       1.683615       2.671099
       7.500000       1.267512       1.688109       2.678706
       7.510000       1.279680       1.686158       2.686907
       7.520000       1.291721       1.677193       2.695682
       7.530000       1.302648       1.661117       2.704996
       7.540000       1.311427       1.638250       2.714812
       7.550000       1.317199       1.609225       2.725106
       7.560000       1.319491       1.574924       2.735880
       7.570000       1.318363       1.536425       2.747160
       7.580000       1.314438       1.494975       2.758990
       7.590000       1.308785       1.451917       2.771416
       7.600000       1.302700       1.408587       2.784466
       7.610000       1.297427       1.366202       2.798137
       7.620000       1.293934       1.325786       2.812384
       7.630000       1.292793       1.288132       2.827123
       7.640000       1.294201       1.253815       2.842238
       7.650000       1.298109       1.223253       2.857599
       7.660000       1.304407       1.196789       2.873080
       7.670000       1.313056       1.174763       2.888579
       7.680000       1.324131       1.157514       2.904032
       7.690000       1.337733       1.145292       2.919427
       7.700000       1.353851       1.138116       2.934795
       7.710000       1.372229       1.135666       2.950203
       7.720000       1.392328       1.137294       2.965735
       7.730000       1.413386       1.142157       2.981480
       7.740000       1.434548       1.149436       2.997521
       7.750000       1.455016       1.158556       3.013929
       7.760000       1.474161       1.169340       3.030761
       7.770000       1.491554       1.182033       3.048042
       7.780000       1.506928       1.197195       3.065758
       7.790000       1.520093       1.215481       3.083857
       7.800000       1.530871       1.237397       3.102251
       7.810000       1.539088       1.263122       3.120835
       7.820000       1.544650       1.292473       3.139496
       7.830000       1.547636       1.324973       3.158110
       7.840000       1.548370       1.359980       3.176530
       7.850000       1.547387       1.396795       3.194562
       7.860000       1.545299       1.434693       3.211955
       7.870000       1.542589       1.472896       3.228386
       7.880000       1.539418       1.510507       3.243471
       7.890000       1.535544       1.546447       3.256775
       7.900000       1.530383       1.579442       3.267847
       7.910000       1.523208       1.608077       3.276262
       7.920000       1.513415       1.630904       3.281667
       7.930000       1.500754       1.646611       3.283811
       7.940000       1.485452       1.654210       3.282548
       7.950000       1.468179       1.653217       3.277821
       7.960000       1.449893       1.643782       3.269627
       7.970000       1.431625       1.626717       3.258008
       7.980000       1.414281       1.603398       3.243050
       7.990000       1.398520       1.575563       3.224907
       8.000000       1.384703       1.545073       3.203835
       8.010000       1.372921       1.513688       3.180209
       8.020000       1.363040       1.482910       3.154530
       8.030000       1.354760       1.453901       3.127400
       8.040000       1.347699       1.427482       3.099475
       8.050000       1.341499       1.404212       3.071403
       8.060000       1.335974       1.384532       3.043765
       8.070000       1.331222       1.368915       3.017026
       8.080000       1.327642       1.357922       2.991510
       8.090000       1.325806       1.352126       2.967380
       8.100000       1.326250       1.351929       2.944648
       8.110000       1.329249       1.357374       2.923188
       8.120000       1.334676       1.368039       2.902791
       8.130000       1.341982       1.383065       2.883215
       8.140000       1.350263       1.401262       2.864258
       8.150000       1.358400       1.421266       2.845810
       8.160000       1.365235       1.441712       2.827890
       8.170000       1.369769       1.461401       2.810670
       8.180000       1.371322       1.479446       2.794481
       8.190000       1.369621       1.495338       2.779798
       8.200000       1.364748       1.508899       2.767203
       8.210000       1.356975       1.520118       2.757313
       8.220000       1.346540       1.528930       2.750699
       8.230000       1.333488       1.535071       2.747806
       8.240000       1.317657       1.538068       2.748897
       8.250000       1.298829       1.537373       2.754007
       8.260000       1.276970       1.532553       2.762922
       8.270000       1.252449       1.523461       2.775158
       8.280000       1.226132       1.510329       2.789959
       8.290000       1.199306       1.493790       2.806335
       8.300000       1.173445       1.474810       2.823130
       8.310000       1.149885       1.454543       2.839159
       8.320000       1.129541       1.434104       2.853361
       8.330000       1.112752       1.414363       2.864958
       8.340000       1.099320       1.395828       2.873568
       8.350000       1.088689       1.378688       2.879219
       8.360000       1.080178       1.362969       2.882288
       8.370000       1.073161       1.348677       2.883349
       8.380000       1.067132       1.335847       2.883039
       8.390000       1.061671       1.324450       2.881947
       8.400000       1.056326       1.314214       2.880589
       8.410000       1.050480       1.304462       2.879418
       8.420000       1.043240       1.294059       2.878861
       8.430000       1.033369       1.281508       2.879331
       8.440000       1.019311       1.265177       2.881222
       8.450000       0.999319       1.243578       2.884875
       8.460000       0.971679       1.215656       2.890529
       8.470000       0.935023       1.181011       2.898285
       8.480000       0.888624       1.140008       2.908098
       8.490000       0.832599       1.093727       2.919812
       8.500000       0.767936       1.043768       2.933224
       8.510000       0.696355       0.991956       2.948149
       8.520000       0.620058       0.940062       2.964443
       8.530000       0.541453       0.889600       2.981981
       8.540000       0.462920       0.841744       3.000600
       8.550000       0.386632       0.797343       3.020044
       8.560000       0.314467       0.756994       3.039931
       8.570000       0.247960       0.721120       3.059760
       8.580000       0.188282       0.690022       3.078955
       8.590000       0.136212       0.663852       3.096938
       8.600000       0.092090       0.642540       3.113211
       8.610000       0.055801       0.625712       3.127418
       8.620000       0.026812       0.612678       3.139374
       8.630000       0.004282       0.602525       3.149061
       8.640000      -0.012791       0.594308       3.156589
       8.650000      -0.025411       0.587287       3.162145
       8.660000      -0.034466       0.581111       3.165923
       8.670000      -0.040674       0.575893       3.168053
       8.680000      -0.044592       0.572136       3.168548
       8.690000      -0.046659       0.570539       3.167291
       8.700000      -0.047236       0.571754       3.164078
       8.710000      -0.046622       0.576195       3.158715
       8.720000      -0.045037       0.583944       3.151113
       8.730000      -0.042614       0.594762       3.141351
       8.740000      -0.039419       0.608159       3.129677
       8.750000      -0.035505       0.623462       3.116443
       8.760000      -0.030988       0.639865       3.102015
       8.770000      -0.026117       0.656446       3.086707
       8.780000      -0.021291       0.672191       3.070756
       8.790000      -0.017032       0.686040       3.054353
       8.800000      -0.013912       0.696943       3.037696
       8.810000      -0.012498       0.703936       3.021029
       8.820000      -0.013295       0.706207       3.004648
       8.830000      -0.016703       0.703190       2.988871
       8.840000      -0.022930       0.694697       2.973971
       8.850000      -0.031882       0.681094       2.960121
       8.860000      -0.043057       0.663422       2.947364
       8.870000      -0.055544       0.643378       2.935649
       8.880000      -0.068154       0.623089       2.924910
       8.890000      -0.079679       0.604709       2.915165
       8.900000      -0.089167       0.589996       2.906566
       8.910000      -0.096094       0.580005       2.899394
       8.920000      -0.100378       0.574987       2.893973
       8.930000      -0.102248       0.574475       2.890568
       8.940000      -0.102054       0.577480       2.889278
       8.950000      -0.100089       0.582734       2.889966
       8.960000      -0.096502       0.588928       2.892243
       8.970000      -0.091285       0.594939       2.895519
       8.980000      -0.084346       0.600007       2.899119
       8.990000      -0.075602       0.603826       2.902449
       9.000000      -0.065073       0.606513       2.905154
       9.010000      -0.052942       0.608456       2.907216
       9.020000      -0.039568       0.610118       2.908958
       9.030000      -0.025471       0.611844       2.910959
       9.040000      -0.011268       0.613759       2.913907
       9.050000       0.002411       0.615755       2.918458
       9.060000       0.015016       0.617554       2.925143
       9.070000       0.026153       0.618819       2.934328
       9.080000       0.035634       0.619267       2.946217
       9.090000       0.043470       0.618765       2.960869
       9.100000       0.049844       0.617380       2.978229
       9.110000       0.055036       0.615373       2.998166
       9.120000       0.059336       0.613129       3.020512
       9.130000       0.062943       0.611033       3.045126
       9.140000       0.065904       0.609368       3.071942
       9.150000       0.068101       0.608266       3.101024
       9.160000       0.069299       0.607747       3.132564
       9.170000       0.069244       0.607790       3.166844
       9.180000       0.067767       0.608411       3.204142
       9.190000       0.064876       0.609687       3.244653
       9.200000       0.060803       0.611738       3.288438
       9.210000       0.056005       0.614704       3.335424
       9.220000       0.051111       0.618711       3.385411
       9.230000       0.046811       0.623863       3.438066
       9.240000       0.043733       0.630234       3.492881
       9.250000       0.042326       0.637857       3.549101
       9.260000       0.042796       0.646721       3.605632
       9.270000       0.045117       0.656781       3.660939
       9.280000       0.049092       0.667982       3.712934
       9.290000       0.054452       0.680282       3.758873
       9.300000       0.060954       0.693674       3.795301
       9.310000       0.068448       0.708191       3.818076
       9.320000       0.076907       0.723893       3.822518
       9.330000       0.086401       0.740845       3.803742
       9.340000       0.097042       0.759081       3.757214
       9.350000       0.108922       0.778590       3.679501
       9.360000       0.122057       0.799288       3.569129
       9.370000       0.136363       0.821020       3.427303
       9.380000       0.151651       0.843555       3.258232
       9.390000       0.167651       0.866610       3.068840
       9.400000       0.184040       0.889878       2.867850
       9.410000       0.200486       0.913071       2.664473
       9.420000       0.216686       0.935957       2.467075
       9.430000       0.232411       0.958379       2.282148
       9.440000       0.247541       0.980289       2.113790
       9.450000       0.262086       1.001763       1.963683
       9.460000       0.276174       1.023021       1.831465
       9.470000       0.290003       1.044398       1.715343
       9.480000       0.303759       1.066270       1.612793
       9.490000       0.317514       1.088952       1.521184
       9.500000       0.331156       1.112604       1.438191
       9.510000       0.344356       1.137185       1.361962
       9.520000       0.356601       1.162466       1.291127
       9.530000       0.367265       1.188091       1.224800
       9.540000       0.375714       1.213650       1.162635
       9.550000       0.381431       1.238761       1.104863
       9.560000       0.384124       1.263135       1.052199
       9.570000       0.383813       1.286593       1.005539
       9.580000       0.380860       1.309056       0.965550
       9.590000       0.375935       1.330504       0.932332
       9.600000       0.369913       1.350920       0.905348
       9.610000       0.363722       1.370248       0.883641
       9.620000       0.358172       1.388345       0.866254
       9.630000       0.353812       1.404953       0.852631
       9.640000       0.350857       1.419662       0.842862
       9.650000       0.349192       1.431926       0.837643
       9.660000       0.348457       1.441096       0.837997
       9.670000       0.348186       1.446508       0.844823
       9.680000       0.347956       1.447591       0.858469
       9.690000       0.347507       1.443973       0.878456
       9.700000       0.346798       1.435549       0.903447
       9.710000       0.345979       1.422497       0.931435
       9.720000       0.345299       1.405234       0.960063
       9.730000       0.344990       1.384364       0.987013
       9.740000       0.345179       1.360634       1.010382
       9.750000       0.345861       1.334900       1.029007
       9.760000       0.346936       1.308076       1.042677
       9.770000       0.348266       1.281035       1.052152
       9.780000       0.349738       1.254477       1.058962
       9.790000       0.351281       1.228817       1.064997
       9.800000       0.352857       1.204142       1.072020
       9.810000       0.354433       1.180247       1.081257
       9.820000       0.355953       1.156729       1.093175
       9.830000       0.357336       1.133083       1.107445
       9.840000       0.358498       1.108786       1.123054
       9.850000       0.359389       1.083339       1.138476
       9.860000       0.360037       1.056297       1.151899
       9.870000       0.360557       1.027305       1.161488
       9.880000       0.361135       0.996158       1.165655
       9.890000       0.361983       0.962894       1.163317
       9.900000       0.363287       0.927896       1.154098
       9.910000       0.365178       0.891943       1.138443
       9.920000       0.367733       0.856176       1.117614
       9.930000       0.370993       0.821960       1.093532
       9.940000       0.374994       0.790679       1.068470
       9.950000       0.379783       0.763516       1.044657
       9.960000       0.385411       0.741276       1.023910
       9.970000       0.391923       0.724280       1.007408
       9.980000       0.399341       0.712341       0.995673
       9.990000       0.407649       0.704804       0.988702
      10.000000       0.416783       0.700625       0.986187
      10.010000       0.426629       0.698467       0.987728
      10.020000       0.437028       0.696817       0.992975
      10.030000       0.447803       0.694123       1.001689
      10.040000       0.458790       0.688958       1.013710
      10.050000       0.469865       0.680166       1.028863
      10.060000       0.480944       0.666954       1.046846
      10.070000       0.491970       0.648909       1.067167
      10.080000       0.502898       0.625944       1.089156
      10.090000       0.513680       0.598200       1.112057
      10.100000       0.524267       0.565962       1.135155
      10.110000       0.534619       0.529652       1.157883
      10.120000       0.544708       0.489912       1.179856
      10.130000       0.554509       0.447745       1.200838
      10.140000       0.563977       0.404600       1.220645
      10.150000       0.573027       0.362296       1.239048
      10.160000       0.581519       0.322766       1.255695
      10.170000       0.589271       0.287694       1.270085
      10.180000       0.596083       0.258198       1.281605
      10.190000       0.601771       0.234723       1.289608
      10.200000       0.606201       0.217147       1.293538
      10.210000       0.609318       0.205026       1.293029
      10.220000       0.611149       0.197835       1.287971
      10.230000       0.611806       0.195113       1.278507
      10.240000       0.611480       0.196483       1.264997
      10.250000       0.610442       0.201590       1.247974
      10.260000       0.609028       0.210016       1.228144
      10.270000       0.607613       0.221186       1.206405
      10.280000       0.606543       0.234293       1.183851
      10.290000       0.606073       0.248256       1.161688
      10.300000       0.606314       0.261757       1.141090
      10.310000       0.607229       0.273352       1.123009
      10.320000       0.608666       0.281656       1.108028
      10.330000       0.610415       0.285554       1.096277
      10.340000       0.612267       0.284393       1.087451
      10.350000       0.614065       0.278112       1.080883
      10.360000       0.615734       0.267251       1.075691
      10.370000       0.617268       0.252828       1.070959
      10.380000       0.618709       0.236117       1.065913
      10.390000       0.620108       0.218389       1.060040
      10.400000       0.621490       0.200685       1.053082
      10.410000       0.622850       0.183677       1.044922
      10.420000       0.624150       0.167648       1.035420
      10.430000       0.625340       0.152576       1.024316
      10.440000       0.626374       0.138302       1.011239
      10.450000       0.627228       0.124733       0.995829
      10.460000       0.627910       0.112014       0.977907
      10.470000       0.628470       0.100649       0.957627
      10.480000       0.628983       0.091505       0.935543
      10.490000       0.629521       0.085694       0.912588
      10.500000       0.630103       0.084343       0.889937
      10.510000       0.630675       0.088338       0.868779
      10.520000       0.631112       0.098114       0.850052
      10.530000       0.631252       0.113568       0.834219
      10.540000       0.630952       0.134109       0.821180
      10.550000       0.630133       0.158788       0.810328
      10.560000       0.628829       0.186468       0.800726
      10.570000       0.627211       0.215970       0.791296
      10.580000       0.625597       0.246171       0.780971
      10.590000       0.624429       0.276049       0.768789
      10.600000       0.624211       0.304690       0.753952
      10.610000       0.625422       0.331291       0.735880
      10.620000       0.628425       0.355197       0.714282
      10.630000       0.633404       0.375944       0.689243
      10.640000       0.640339       0.393314       0.661286
      10.650000       0.649031       0.407337       0.631394
      10.660000       0.659149       0.418232       0.600936
      10.670000       0.670282       0.426278       0.571503
      10.680000       0.681983       0.431674       0.544672
      10.690000       0.693806       0.434414       0.521763
      10.700000       0.705331       0.434242       0.503648
      10.710000       0.716195       0.430693       0.490672
      10.720000       0.726103       0.423229       0.482664
      10.730000       0.734857       0.411432       0.479038
      10.740000       0.742346       0.395193       0.478927
      10.750000       0.748547       0.374854       0.481327
      10.760000       0.753495       0.351241       0.485234
      10.770000       0.757256       0.325612       0.489740
      10.780000       0.759904       0.299503       0.494110
      10.790000       0.761515       0.274524       0.497843
      10.800000       0.762174       0.252107       0.500736
      10.810000       0.761982       0.233273       0.502902
      10.820000       0.761071       0.218487       0.504752
      10.830000       0.759600       0.207644       0.506888
      10.840000       0.757755       0.200162       0.509965
      10.850000       0.755734       0.195141       0.514561
      10.860000       0.753743       0.191525       0.521108
      10.870000       0.751970       0.188240       0.529872
      10.880000       0.750568       0.184317       0.540966
      10.890000       0.749652       0.178999       0.554365
      10.900000       0.749301       0.171827       0.569917
      10.910000       0.749577       0.162698       0.587341
      10.920000       0.750526       0.151869       0.606241
      10.930000       0.752159       0.139893       0.626149
      10.940000       0.754427       0.127507       0.646569
      10.950000       0.757196       0.115484       0.667027
      10.960000       0.760256       0.104504       0.687116
      10.970000       0.763355       0.095072       0.706516
      10.980000       0.766270       0.087484       0.725006
      10.990000       0.768865       0.081857       0.742463
      11.000000       0.771146       0.078185       0.758859
      11.010000       0.773263       0.076418       0.774244
      11.020000       0.775470       0.076497       0.788706
      11.030000       0.778039       0.078369       0.802322
      11.040000       0.781168       0.081971       0.815090
      11.050000       0.784920       0.087233       0.826914
      11.060000       0.789210       0.094099       0.837643
      11.070000       0.793857       0.102563       0.847185
      11.080000       0.798652       0.112680       0.855635
      11.090000       0.803445       0.124547       0.863376
      11.100000       0.808190       0.138255       0.871071
      11.110000       0.812955       0.153848       0.879547
      11.120000       0.817897       0.171289       0.889606
      11.130000       0.823187       0.190468       0.901831
      11.140000       0.828947       0.211198       0.916453
      11.150000       0.835204       0.233235       0.933314
      11.160000       0.841889       0.256275       0.951909
      11.170000       0.848879       0.279971       0.971502
      11.180000       0.856048       0.303943       0.991281
      11.190000       0.863311       0.327788       1.010515
      11.200000       0.870628       0.351080       1.028659
      11.210000       0.877991       0.373355       1.045377
      11.220000       0.885396       0.394106       1.060471
      11.230000       0.892817       0.412774       1.073767
      11.240000       0.900207       0.428776       1.085007
      11.250000       0.907501       0.441551       1.093804
      11.260000       0.914644       0.450638       1.099677
      11.270000       0.921626       0.455767       1.102132
      11.280000       0.928507       0.456945       1.100748
      11.290000       0.935433       0.454512       1.095210
      11.300000       0.942618       0.449119       1.085258
      11.310000       0.950316       0.441617       1.070562
      11.320000       0.958771       0.432891       1.050555
      11.330000       0.968173       0.423670       1.024319
      11.340000       0.978624       0.414414       0.990565
      11.350000       0.990118       0.405271       0.947762
      11.360000       1.002551       0.396130       0.894390
      11.370000       1.015730       0.386692       0.829263
      11.380000       1.029400       0.376563       0.751828
      11.390000       1.043265       0.365331       0.662354
      11.400000       1.057011       0.352632       0.561958
      11.410000       1.070325       0.338234       0.452496
      11.420000       1.082901       0.322092       0.336367
      11.430000       1.094457       0.304391       0.216317
      11.440000       1.104733       0.285542       0.095275
      11.450000       1.113503       0.266156      -0.023773
      11.460000       1.120567       0.246969      -0.137905
      11.470000       1.125754       0.228751      -0.244411
      11.480000       1.128912       0.212197      -0.340960
      11.490000       1.129918       0.197836      -0.425758
      11.500000       1.128700       0.185986      -0.497676
      11.510000       1.125270       0.176764      -0.556317
      11.520000       1.119759       0.170129      -0.602008
      11.530000       1.112431       0.165929      -0.635710
      11.540000       1.103673       0.163940      -0.658859
      11.550000       1.093952       0.163871      -0.673141
      11.560000       1.083750       0.165379      -0.680252
      11.570000       1.073492       0.168102      -0.681699
      11.580000       1.063482       0.171708      -0.678682
      11.590000       1.053859       0.175936      -0.672067
      11.600000       1.044584       0.180622      -0.662435
      11.610000       1.035475       0.185700      -0.650159
      11.620000       1.026269       0.191186      -0.635488
      11.630000       1.016706       0.197180      -0.618619
      11.640000       1.006604       0.203860      -0.599750
      11.650000       0.995900       0.211468      -0.579112
      11.660000       0.984653       0.220271      -0.556973
      11.670000       0.972985       0.230493      -0.533617
      11.680000       0.960991       0.242248      -0.509325
      11.690000       0.948663       0.255496      -0.484373
      11.700000       0.935871       0.270044      -0.459054
      11.710000       0.922413       0.285588      -0.433715
      11.720000       0.908115       0.301782      -0.408768
      11.730000       0.892911       0.318299      -0.384657
      11.740000       0.876886       0.334881      -0.361779
      11.750000       0.860269       0.351354      -0.340407
      11.760000       0.843404       0.367615      -0.320656
      11.770000       0.826730       0.383610      -0.302516
      11.780000       0.810750       0.399313      -0.285928
      11.790000       0.795997       0.414716      -0.270880
      11.800000       0.782975       0.429831      -0.257457
      11.810000       0.772102       0.444701      -0.245858
      11.820000       0.763676       0.459423      -0.236367
      11.830000       0.757876       0.474152      -0.229291
      11.840000       0.754782       0.489103      -0.224882
      11.850000       0.754388       0.504520      -0.223246
      11.860000       0.756587       0.520637      -0.224269
      11.870000       0.761137       0.537618      -0.227578
      11.880000       0.767626       0.555515      -0.232579
      11.890000       0.775473       0.574239      -0.238546
      11.900000       0.783984       0.593561      -0.244755
      11.910000       0.792451       0.613126      -0.250603
      11.920000       0.800282       0.632479      -0.255696
      11.930000       0.807111       0.651088      -0.259869
      11.940000       0.812862       0.668379      -0.263164
      11.950000       0.817734       0.683764      -0.265775
      11.960000       0.822118       0.696680      -0.267988
      11.970000       0.826451       0.706628      -0.270104
      11.980000       0.831067       0.713211      -0.272378
      11.990000       0.836089       0.716155      -0.274979
      12.000000       0.841397       0.715299      -0.277993
      12.010000       0.846668       0.710550      -0.281461
      12.020000       0.851482       0.701825      -0.285448
      12.030000       0.855438       0.689014      -0.290066
      12.040000       0.858271       0.671991      -0.295457
      12.050000       0.859925       0.650672      -0.301719
      12.060000       0.860584       0.625108      -0.308824
      12.070000       0.860645       0.595553      -0.316571
      12.080000       0.860647       0.562508      -0.324607
      12.090000       0.861168       0.526708      -0.332507
      12.100000       0.862708       0.489063      -0.339890
      12.110000       0.865608       0.450577      -0.346515
      12.120000       0.870003       0.412264      -0.352321
      12.130000       0.875821       0.375081      -0.357401
      12.140000       0.882821       0.339885      -0.361922
      12.150000       0.890643       0.307397      -0.366045
      12.160000       0.898868       0.278176      -0.369884
      12.170000       0.907084       0.252576      -0.373508
      12.180000       0.914951       0.230731      -0.376986
      12.190000       0.922251       0.212568      -0.380423
      12.200000       0.928905       0.197865      -0.383966
      12.210000       0.934969       0.186311      -0.387763
      12.220000       0.940594       0.177562      -0.391922
      12.230000       0.945988       0.171243      -0.396468
      12.240000       0.951378       0.166924      -0.401326
      12.250000       0.956994       0.164081      -0.406328
      12.260000       0.963049       0.162081      -0.411228
      12.270000       0.969734       0.160192      -0.415735
      12.280000       0.977184       0.157636      -0.419552
      12.290000       0.985437       0.153671      -0.422409
      12.300000       0.994389       0.147685      -0.424084
      12.310000       1.003762       0.139299      -0.424396
      12.320000       1.013124       0.128453      -0.423189
      12.330000       1.021931       0.115467      -0.420328
      12.340000       1.029613       0.101028      -0.415705
      12.350000       1.035669       0.086108      -0.409274
      12.360000       1.039762       0.071802      -0.401073
      12.370000       1.041789       0.059120      -0.391241
      12.380000       1.041896       0.048798      -0.380005
      12.390000       1.040426       0.041160      -0.367665
      12.400000       1.037810       0.036095      -0.354567
      12.410000       1.034434       0.033129      -0.341079
      12.420000       1.030554       0.031571      -0.327572
      12.430000       1.026286       0.030688      -0.314385
      12.440000       1.021658       0.029858      -0.301809
      12.450000       1.016714       0.028686      -0.290070
      12.460000       1.011617       0.027052      -0.279326
      12.470000       1.006707       0.025096      -0.269679
      12.480000       1.002513       0.023149      -0.261175
      12.490000       0.999673       0.021621      -0.253812
      12.500000       0.998828       0.020891      -0.247530
      12.510000       1.000484       0.021221      -0.242217
      12.520000       1.004907       0.022714      -0.237734
      12.530000       1.012075       0.025320      -0.233942
      12.540000       1.021675       0.028871      -0.230729
      12.550000       1.033159       0.033128      -0.228026
      12.560000       1.045821       0.037831      -0.225785
      12.570000       1.058884       0.042739      -0.223942
      12.580000       1.071588       0.047673      -0.222366
      12.590000       1.083268       0.052538      -0.220827
      12.600000       1.093421       0.057336      -0.218989
      12.610000       1.101761       0.062155      -0.216454
      12.620000       1.108231       0.067141      -0.212841
      12.630000       1.112977       0.072447      -0.207870
      12.640000       1.116276       0.078186      -0.201428
      12.650000       1.118431       0.084379      -0.193578
      12.660000       1.119678       0.090937      -0.184518
      12.670000       1.120136       0.097669      -0.174518
      12.680000       1.119813       0.104309      -0.163851
      12.690000       1.118662       0.110574      -0.152758
      12.700000       1.116649       0.116218      -0.141433
      12.710000       1.113807       0.121071      -0.130048
      12.720000       1.110242       0.125060      -0.118777
      12.730000       1.106111       0.128212      -0.107803
      12.740000       1.101564       0.130633      -0.097323
      12.750000       1.096705       0.132466      -0.087529
      12.760000       1.091581       0.133853      -0.078596
      12.770000       1.086166       0.134898      -0.070657
      12.780000       1.080368       0.135652      -0.063782
      12.790000       1.074015       0.136126      -0.057934
      12.800000       1.066861       0.136324      -0.052942
      12.810000       1.058613       0.136273      -0.048500
      12.820000       1.048982       0.136038      -0.044206
      12.830000       1.037765       0.135713      -0.039641
      12.840000       1.024913       0.135394      -0.034459
      12.850000       1.010565       0.135136      -0.028453
      12.860000       0.994999       0.134924      -0.021588
      12.870000       0.978517       0.134672      -0.013978
      12.880000       0.961318       0.134231      -0.005841
      12.890000       0.943414       0.133445       0.002572
      12.900000       0.924643       0.132208       0.011038
      12.910000       0.904766       0.130520       0.019414
      12.920000       0.883609       0.128528       0.027655
      12.930000       0.861178       0.126508       0.035804
      12.940000       0.837690       0.124824       0.043964
      12.950000       0.813511       0.123848       0.052248
      12.960000       0.789043       0.123902       0.060732
      12.970000       0.764604       0.125211       0.069430
      12.980000       0.740343       0.127892       0.078281
      12.990000       0.716217       0.131956       0.087161
      13.000000       0.692005       0.137328       0.095909
      13.010000       0.667370       0.143867       0.104340
      13.020000       0.641978       0.151388       0.112259
      13.030000       0.615647       0.159685       0.119468
      13.040000       0.588500       0.168553       0.125775
      13.050000       0.561040       0.177812       0.131019
      13.060000       0.534131       0.187312       0.135098
      13.070000       0.508863       0.196938       0.137998
      13.080000       0.486343       0.206598       0.139814
      13.090000       0.467492       0.216210       0.140749
      13.100000       0.452912       0.225692       0.141115
      13.110000       0.442851       0.234955       0.141305
      13.120000       0.437254       0.243908       0.141756
      13.130000       0.435840       0.252472       0.142894
      13.140000       0.438154       0.260579       0.145074
      13.150000       0.443594       0.268189       0.148533
      13.160000       0.451424       0.275285       0.153363
      13.170000       0.460829       0.281880       0.159513
      13.180000       0.470999       0.288021       0.166812
      13.190000       0.481230       0.293794       0.175000
      13.200000       0.490998       0.299311       0.183765
      13.210000       0.499970       0.304702       0.192774
      13.220000       0.507936       0.310086       0.201714
      13.230000       0.514725       0.315550       0.210314
      13.240000       0.520131       0.321133       0.218366
      13.250000       0.523905       0.326819       0.225736
      13.260000       0.525800       0.332550       0.232345
      13.270000       0.525625       0.338242       0.238154
      13.280000       0.523282       0.343807       0.243120
      13.290000       0.518753       0.349188       0.247175
      13.300000       0.512059       0.354383       0.250211
      13.310000       0.503233       0.359460       0.252094
      13.320000       0.492305       0.364548       0.252707
      13.330000       0.479322       0.369804       0.252009
      13.340000       0.464388       0.375370       0.250071
      13.350000       0.447712       0.381332       0.247101
      13.360000       0.429681       0.387704       0.243418
      13.370000       0.410929       0.394434       0.239401
      13.380000       0.392349       0.401421       0.235430
      13.390000       0.375038       0.408535       0.231825
      13.400000       0.360145       0.415639       0.228810
      13.410000       0.348667       0.422597       0.226503
      13.420000       0.341263       0.429284       0.224923
      13.430000       0.338141       0.435589       0.224027
      13.440000       0.339060       0.441423       0.223741
      13.450000       0.343431       0.446723       0.224001
      13.460000       0.350481       0.451447       0.224771
      13.470000       0.359403       0.455577       0.226055
      13.480000       0.369474       0.459105       0.227876
      13.490000       0.380128       0.462036       0.230255
      13.500000       0.390979       0.464387       0.233171
      13.510000       0.401830       0.466199       0.236540
      13.520000       0.412664       0.467534       0.240208
      13.530000       0.423608       0.468475       0.243959
      13.540000       0.434884       0.469099       0.247545
      13.550000       0.446723       0.469470       0.250729
      13.560000       0.459289       0.469616       0.253308
      13.570000       0.472616       0.469537       0.255142
      13.580000       0.486589       0.469218       0.256158
      13.590000       0.500964       0.468663       0.256353
      13.600000       0.515421       0.467924       0.255794
      13.610000       0.529630       0.467122       0.254622
      13.620000       0.543310       0.466436       0.253063
      13.630000       0.556262       0.466061       0.251421
      13.640000       0.568377       0.466158       0.250064
      13.650000       0.579597       0.466804       0.249379
      13.660000       0.589857       0.467983       0.249717
      13.670000       0.599035       0.469603       0.251344
      13.680000       0.606927       0.471547       0.254403
      13.690000       0.613285       0.473724       0.258895
      13.700000       0.617887       0.476106       0.264695
      13.710000       0.620610       0.478735       0.271576
      13.720000       0.621473       0.481708       0.279246
      13.730000       0.620622       0.485142       0.287381
      13.740000       0.618240       0.489141       0.295658
      13.750000       0.614457       0.493776       0.303770
      13.760000       0.609281       0.499082       0.311442
      13.770000       0.602616       0.505066       0.318434
      13.780000       0.594350       0.511710       0.324556
      13.790000       0.584463       0.518977       0.329695
      13.800000       0.573099       0.526810       0.333834
      13.810000       0.560553       0.535137       0.337074
      13.820000       0.547163       0.543874       0.339644
      13.830000       0.533168       0.552936       0.341877
      13.840000       0.518608       0.562243       0.344175
      13.850000       0.503336       0.571729       0.346937
      13.860000       0.487135       0.581345       0.350494
      13.870000       0.469902       0.591054       0.355045
      13.880000       0.451825       0.600829       0.360632
      13.890000       0.433460       0.610635       0.367145
      13.900000       0.415698       0.620421       0.374360
      13.910000       0.399625       0.630112       0.381982
      13.920000       0.386319       0.639608       0.389700
      13.930000       0.376654       0.648796       0.397225
      13.940000       0.371161       0.657561       0.404322
      13.950000       0.369971       0.665807       0.410829
      13.960000       0.372859       0.673457       0.416657
      13.970000       0.379324       0.680455       0.421792
      13.980000       0.388702       0.686756       0.426270
      13.990000       0.400270       0.692317       0.430166
      14.000000       0.413315       0.697093       0.433569
      14.010000       0.427198       0.701035       0.436569
      14.020000       0.441375       0.704104       0.439253
      14.030000       0.455413       0.706271       0.441703
      14.040000       0.468995       0.707513       0.444013
      14.050000       0.481914       0.707802       0.446284
      14.060000       0.494062       0.707093       0.448618
      14.070000       0.505413       0.705325       0.451103
      14.080000       0.515988       0.702432       0.453782
      14.090000       0.525834       0.698384       0.456628
      14.100000       0.534988       0.693217       0.459533
      14.110000       0.543467       0.687065       0.462309
      14.120000       0.551254       0.680160       0.464715
      14.130000       0.558302       0.672816       0.466505
      14.140000       0.564531       0.665386       0.467482
      14.150000       0.569848       0.658221       0.467556
      14.160000       0.574166       0.651614       0.466777
      14.170000       0.577438       0.645763       0.465345
      14.180000       0.579681       0.640747       0.463567
      14.190000       0.580981       0.636529       0.461804
      14.200000       0.581487       0.632984       0.460395
      14.210000       0.581395       0.629931       0.459609
      14.220000       0.580941       0.627173       0.459621
      14.230000       0.580414       0.624532       0.460515
      14.240000       0.580159       0.621881       0.462313
      14.250000       0.580558       0.619166       0.465000
      14.260000       0.581972       0.616414       0.468542
      14.270000       0.584670       0.613720       0.472887
      14.280000       0.588752       0.611215       0.477956
      14.290000       0.594120       0.609027       0.483644
      14.300000       0.600482       0.607263       0.489814
      14.310000       0.607391       0.606004       0.496310
      14.320000       0.614312       0.605312       0.502972
      14.330000       0.620700       0.605247       0.509645
      14.340000       0.626076       0.605859       0.516184
      14.350000       0.630099       0.607185       0.522456
      14.360000       0.632602       0.609228       0.528347
      14.370000       0.633574       0.611940       0.533767
      14.380000       0.633109       0.615223       0.538659
      14.390000       0.631336       0.618948       0.543004
      14.400000       0.628371       0.622978       0.546812
      14.410000       0.624302       0.627199       0.550121
      14.420000       0.619192       0.631530       0.552985
      14.430000       0.613074       0.635917       0.555481
      14.440000       0.605911       0.640314       0.557717
      14.450000       0.597546       0.644654       0.559843
      14.460000       0.587659       0.648832       0.562053
      14.470000       0.575780       0.652697       0.564572
      14.480000       0.561385       0.656062       0.567617
      14.490000       0.544058       0.658720       0.571357
      14.500000       0.523666       0.660472       0.575874
      14.510000       0.500484       0.661155       0.581149
      14.520000       0.475222       0.660681       0.587075
      14.530000       0.448921       0.659057       0.593478
      14.540000       0.422785       0.656384       0.600151
      14.550000       0.397990       0.652828       0.606883
      14.560000       0.375543       0.648567       0.613472
      14.570000       0.356203       0.643752       0.619733
      14.580000       0.340465       0.638485       0.625506
      14.590000       0.328581       0.632837       0.630655
      14.600000       0.320594       0.626893       0.635075
      14.610000       0.316380       0.620789       0.638694
      14.620000       0.315682       0.614741       0.641464
      14.630000       0.318156       0.609022       0.643352
      14.640000       0.323406       0.603928       0.644318
      14.650000       0.331021       0.599723       0.644313
      14.660000       0.340591       0.596606       0.643284
      14.670000       0.351723       0.594691       0.641201
      14.680000       0.364029       0.594011       0.638085
      14.690000       0.377115       0.594536       0.634029
      14.700000       0.390570       0.596180       0.629194
      14.710000       0.403969       0.598815       0.623786
      14.720000       0.416894       0.602265       0.618008
      14.730000       0.428969       0.606324       0.612025
      14.740000       0.439898       0.610766       0.605932
      14.750000       0.449493       0.615368       0.599747
      14.760000       0.457690       0.619938       0.593421
      14.770000       0.464547       0.624326       0.586862
      14.780000       0.470213       0.628432       0.579959
      14.790000       0.474885       0.632198       0.572612
      14.800000       0.478767       0.635595       0.564752
      14.810000       0.482039       0.638623       0.556351
      14.820000       0.484852       0.641305       0.547418
      14.830000       0.487345       0.643702       0.537995
      14.840000       0.489660       0.645912       0.528154
      14.850000       0.491947       0.648070       0.517996
      14.860000       0.494344       0.650333       0.507661
      14.870000       0.496942       0.652844       0.497322
      14.880000       0.499745       0.655699       0.487188
      14.890000       0.502652       0.658917       0.477490
      14.900000       0.505463       0.662430       0.468457
      14.910000       0.507905       0.666092       0.460296
      14.920000       0.509678       0.669700       0.453169
      14.930000       0.510490       0.673030       0.447176
      14.940000       0.510088       0.675868       0.442350
      14.950000       0.508279       0.678048       0.438655
      14.960000       0.504938       0.679478       0.435995
      14.970000       0.500013       0.680149       0.434227
      14.980000       0.493538       0.680126       0.433181
      14.990000       0.485656       0.679526       0.432672
      15.000000       0.476657       0.678482       0.432527
      15.010000       0.467002       0.677127       0.432583
      15.020000       0.457322       0.675574       0.432706
      15.030000       0.448362       0.673922       0.432782
      15.040000       0.440884       0.672268       0.432732
      15.050000       0.435559       0.670719       0.432510
      15.060000       0.432853       0.669406       0.432105
      15.070000       0.432953       0.668485       0.431544
      15.080000       0.435739       0.668128       0.430875
      15.090000       0.440807       0.668502       0.430161
      15.100000       0.447537       0.669748       0.429466
      15.110000       0.455180       0.671951       0.428846
      15.120000       0.462959       0.675126       0.428351
      15.130000       0.470170       0.679209       0.428034
      15.140000       0.476246       0.684059       0.427962
      15.150000       0.480804       0.689472       0.428216
      15.160000       0.483632       0.695208       0.428887
      15.170000       0.484641       0.701012       0.430053
      15.180000       0.483799       0.706644       0.431774
      15.190000       0.481079       0.711911       0.434086
      15.200000       0.476452       0.716683       0.437014
      15.210000       0.469917       0.720906       0.440591
      15.220000       0.461564       0.724598       0.444871
      15.230000       0.451627       0.727828       0.449924
      15.240000       0.440493       0.730694       0.455822
      15.250000       0.428686       0.733291       0.462612
      15.260000       0.416804       0.735691       0.470294
      15.270000       0.405455       0.737934       0.478818
      15.280000       0.395172       0.740025       0.488077
      15.290000       0.386356       0.741939       0.497928
      15.300000       0.379233       0.743640       0.508201
      15.310000       0.373867       0.745090       0.518719
      15.320000       0.370199       0.746271       0.529318
      15.330000       0.368104       0.747198       0.539860
      15.340000       0.367441       0.747925       0.550245
      15.350000       0.368073       0.748546       0.560417
      15.360000       0.369848       0.749169       0.570365
      15.370000       0.372567       0.749891       0.580110
      15.380000       0.375961       0.750768       0.589690
      15.390000       0.379695       0.751800       0.599150
      15.400000       0.383412       0.752930       0.608515
      15.410000       0.386794       0.754066       0.617783
      15.420000       0.389617       0.755111       0.626913
      15.430000       0.391777       0.755991       0.635819
      15.440000       0.393289       0.756673       0.644378
      15.450000       0.394254       0.757166       0.652443
      15.460000       0.394823       0.757505       0.659856
      15.470000       0.395164       0.757711       0.666460
      15.480000       0.395436       0.757763       0.672110
      15.490000       0.395784       0.757574       0.676673
      15.500000       0.396328       0.756991       0.680038
      15.510000       0.397170       0.755831       0.682138
      15.520000       0.398399       0.753931       0.682971
      15.530000       0.400075       0.751205       0.682621
      15.540000       0.402225       0.747688       0.681271
      15.550000       0.404824       0.743533       0.679182
      15.560000       0.407801       0.738974       0.676654
      15.570000       0.411063       0.734258       0.673968
      15.580000       0.414525       0.729577       0.671333
      15.590000       0.418142       0.725014       0.668864
      15.600000       0.421909       0.720529       0.666577
      15.610000       0.425833       0.715980       0.664421
      15.620000       0.429899       0.711175       0.662308
      15.630000       0.434044       0.705934       0.660150
      15.640000       0.438153       0.700142       0.657876
      15.650000       0.442078       0.693787       0.655444
      15.660000       0.445658       0.686963       0.652833
      15.670000       0.448732       0.679855       0.650033
      15.680000       0.451148       0.672690       0.647037
      15.690000       0.452769       0.665693       0.643849
      15.700000       0.453499       0.659042       0.640504
      15.710000       0.453323       0.652863       0.637087
      15.720000       0.452345       0.647248       0.633750
      15.730000       0.450802       0.642294       0.630710
      15.740000       0.449040       0.638118       0.628209
      15.750000       0.447435       0.634856       0.626467
      15.760000       0.446314       0.632621       0.625628
      15.770000       0.445879       0.631469       0.625731
      15.780000       0.446185       0.631368       0.626706
      15.790000       0.447172       0.632196       0.628399
      15.800000       0.448722       0.633753       0.630596
      15.810000       0.450727       0.635788       0.633047
      15.820000       0.453133       0.638030       0.635479
      15.830000       0.455962       0.640222       0.637589
      15.840000       0.459309       0.642141       0.639045
      15.850000       0.463309       0.643606       0.639485
      15.860000       0.468093       0.644471       0.638524
      15.870000       0.473732       0.644620       0.635775
      15.880000       0.480192       0.643961       0.630887
      15.890000       0.487298       0.642434       0.623585
      15.900000       0.494726       0.640018       0.613719
      15.910000       0.502029       0.636731       0.601288
      15.920000       0.508666       0.632635       0.586452
      15.930000       0.514067       0.627839       0.569521
      15.940000       0.517695       0.622505       0.550926
      15.950000       0.519126       0.616847       0.531187
      15.960000       0.518104       0.611118       0.510868
      15.970000       0.514580       0.605582       0.490535
      15.980000       0.508691       0.600477       0.470714
      15.990000       0.500715       0.595979       0.451849
      16.000000       0.491012       0.592177       0.434277
      16.010000       0.479981       0.589079       0.418208
      16.020000       0.468039       0.586624       0.403728
      16.030000       0.455619       0.584718       0.390804
      16.040000       0.443160       0.583250       0.379307
      16.050000       0.431092       0.582109       0.369046
      16.060000       0.419799       0.581170       0.359806
      16.070000       0.409598       0.580283       0.351398
      16.080000       0.400715       0.579249       0.343695
      16.090000       0.393295       0.577817       0.336657
      16.100000       0.387414       0.575697       0.330326
      16.110000       0.383094       0.572577       0.324787
      16.120000       0.380306       0.568159       0.320112
      16.130000       0.378974       0.562193       0.316307
      16.140000       0.378986       0.554506       0.313286
      16.150000       0.380200       0.545039       0.310879
      16.160000       0.382475       0.533874       0.308879
      16.170000       0.385670       0.521262       0.307099
      16.180000       0.389663       0.507635       0.305419
      16.190000       0.394345       0.493598       0.303818
      16.200000       0.399632       0.479885       0.302370
      16.210000       0.405460       0.467272       0.301217
      16.220000       0.411793       0.456464       0.300531
      16.230000       0.418604       0.447988       0.300467
      16.240000       0.425860       0.442114       0.301121
      16.250000       0.433493       0.438835       0.302510
      16.260000       0.441392       0.437895       0.304567
      16.270000       0.449396       0.438857       0.307160
      16.280000       0.457314       0.441174       0.310115
      16.290000       0.464954       0.444267       0.313238
      16.300000       0.472146       0.447579       0.316335
      16.310000       0.478761       0.450624       0.319226
      16.320000       0.484715       0.453021       0.321756
      16.330000       0.489956       0.454524       0.323808
      16.340000       0.494455       0.455027       0.325323
      16.350000       0.498196       0.454548       0.326300
      16.360000       0.501186       0.453179       0.326805
      16.370000       0.503462       0.451029       0.326949
      16.380000       0.505095       0.448175       0.326869
      16.390000       0.506185       0.444638       0.326696
      16.400000       0.506839       0.440392       0.326536
      16.410000       0.507150       0.435408       0.326454
      16.420000       0.507197       0.429695       0.326475
      16.430000       0.507061       0.423341       0.326598
      16.440000       0.506845       0.416529       0.326815
      16.450000       0.506689       0.409528       0.327132
      16.460000       0.506742       0.402666       0.327591
      16.470000       0.507126       0.396288       0.328278
      16.480000       0.507891       0.390725       0.329321
      16.490000       0.509005       0.386263       0.330868
      16.500000       0.510366       0.383107       0.333055
      16.510000       0.511842       0.381358       0.335970
      16.520000       0.513313       0.380982       0.339631
      16.530000       0.514701       0.381814       0.343967
      16.540000       0.515976       0.383578       0.348839
      16.550000       0.517137       0.385937       0.354050
      16.560000       0.518171       0.388550       0.359379
      16.570000       0.519027       0.391106       0.364604
      16.580000       0.519598       0.393361       0.369518
      16.590000       0.519728       0.395141       0.373944
      16.600000       0.519233       0.396341       0.377746
      16.610000       0.517931       0.396924       0.380836
      16.620000       0.515674       0.396905       0.383185
      16.630000       0.512379       0.396352       0.384828
      16.640000       0.508060       0.395375       0.385869
      16.650000       0.502845       0.394113       0.386467
      16.660000       0.496968       0.392713       0.386822
      16.670000       0.490734       0.391292       0.387141
      16.680000       0.484472       0.389913       0.387612
      16.690000       0.478482       0.388565       0.388388
      16.700000       0.473012       0.387178       0.389572
      16.710000       0.468243       0.385648       0.391214
      16.720000       0.464288       0.383876       0.393319
      16.730000       0.461191       0.381801       0.395853
      16.740000       0.458927       0.379434       0.398751
      16.750000       0.457409       0.376864       0.401928
      16.760000       0.456511       0.374266       0.405290
      16.770000       0.456107       0.371874       0.408747
      16.780000       0.456098       0.369943       0.412221
      16.790000       0.456425       0.368705       0.415651
      16.800000       0.457056       0.368318       0.418997
      16.810000       0.457959       0.368829       0.422234
      16.820000       0.459076       0.370163       0.425358
      16.830000       0.460312       0.372130       0.428376
      16.840000       0.461544       0.374453       0.431314
      16.850000       0.462643       0.376811       0.434208
      16.860000       0.463506       0.378877       0.437104
      16.870000       0.464070       0.380363       0.440047
      16.880000       0.464319       0.381063       0.443080
      16.890000       0.464287       0.380880       0.446231
      16.900000       0.464051       0.379831       0.449508
      16.910000       0.463736       0.378041       0.452899
      16.920000       0.463511       0.375701       0.456373
      16.930000       0.463582       0.373027       0.459888
      16.940000       0.464157       0.370218       0.463395
      16.950000       0.465407       0.367433       0.466854
      16.960000       0.467429       0.364789       0.470227
      16.970000       0.470229       0.362375       0.473488
      16.980000       0.473725       0.360276       0.476612
      16.990000       0.477772       0.358588       0.479584
      17.000000       0.482194       0.357416       0.482393
      17.010000       0.486817       0.356845       0.485039
      17.020000       0.491484       0.356917       0.487536
      17.030000       0.496063       0.357601       0.489916
      17.040000       0.500446       0.358798       0.492222
      17.050000       0.504533       0.360374       0.494503
      17.060000       0.508235       0.362197       0.496802
      17.070000       0.511477       0.364171       0.499143
      17.080000       0.514220       0.366253       0.501527
      17.090000       0.516471       0.368439       0.503929
      17.100000       0.518282       0.370741       0.506300
      17.110000       0.519738       0.373151       0.508579
      17.120000       0.520936       0.375625       0.510704
      17.130000       0.521964       0.378076       0.512628
      17.140000       0.522902       0.380390       0.514322
      17.150000       0.523810       0.382455       0.515789
      17.160000       0.524732       0.384187       0.517061
      17.170000       0.525688       0.385545       0.518191
      17.180000       0.526673       0.386536       0.519245
      17.190000       0.527660       0.387209       0.520285
      17.200000       0.528608       0.387637       0.521358
      17.210000       0.529475       0.387904       0.522494
      17.220000       0.530228       0.388078       0.523703
      17.230000       0.530852       0.388203       0.524986
      17.240000       0.531359       0.388281       0.526339
      17.250000       0.531793       0.388280       0.527759
      17.260000       0.532239       0.388145       0.529240
      17.270000       0.532821       0.387821       0.530771
      17.280000       0.533687       0.387278       0.532336
      17.290000       0.534974       0.386520       0.533912
      17.300000       0.536775       0.385587       0.535475
      17.310000       0.539101       0.384544       0.536999
      17.320000       0.541867       0.383454       0.538465
      17.330000       0.544905       0.382367       0.539860
      17.340000       0.547993       0.381312       0.541179
      17.350000       0.550891       0.380313       0.542426
      17.360000       0.553372       0.379401       0.543616
      17.370000       0.555242       0.378636       0.544771
      17.380000       0.556343       0.378101       0.545917
      17.390000       0.556538       0.377885       0.547076
      17.400000       0.555689       0.378052       0.548260
      17.410000       0.553645       0.378624       0.549466
      17.420000       0.550241       0.379570       0.550686
      17.430000       0.545327       0.380821       0.551908
      17.440000       0.538814       0.382287       0.553131
      17.450000       0.530725       0.383880       0.554371
      17.460000       0.521247       0.385531       0.555650
      17.470000       0.510742       0.387197       0.556996
      17.480000       0.499730       0.388862       0.558423
      17.490000       0.488819       0.390530       0.559930
      17.500000       0.478611       0.392217       0.561498
      17.510000       0.469613       0.393948       0.563099
      17.520000       0.462187       0.395755       0.564707
      17.530000       0.456534       0.397678       0.566308
      17.540000       0.452723       0.399762       0.567904
      17.550000       0.450719       0.402057       0.569514
      17.560000       0.450407       0.404604       0.571161
      17.570000       0.451603       0.407428       0.572869
      17.580000       0.454066       0.410524       0.574654
      17.590000       0.457504       0.413836       0.576520
      17.600000       0.461601       0.417265       0.578466
      17.610000       0.466032       0.420667       0.580486
      17.620000       0.470492       0.423883       0.582566
      17.630000       0.474724       0.426762       0.584688
      17.640000       0.478538       0.429199       0.586825
      17.650000       0.481823       0.431157       0.588940
      17.660000       0.484551       0.432671       0.590985
      17.670000       0.486772       0.433842       0.592912
      17.680000       0.488596       0.434808       0.594678
      17.690000       0.490170       0.435714       0.596261
      17.700000       0.491643       0.436688       0.597662
      17.710000       0.493139       0.437820       0.598907
      17.720000       0.494745       0.439164       0.600044
      17.730000       0.496512       0.440742       0.601130
      17.740000       0.498464       0.442550       0.602219
      17.750000       0.500610       0.444563       0.603349
      17.760000       0.502935       0.446740       0.604541
      17.770000       0.505391       0.449027       0.605789
      17.780000       0.507888       0.451364       0.607075
      17.790000       0.510295       0.453694       0.608368
      17.800000       0.512460       0.455966       0.609644
      17.810000       0.514232       0.458143       0.610888
      17.820000       0.515499       0.460198       0.612106
      17.830000       0.516201       0.462117       0.613322
      17.840000       0.516343       0.463900       0.614574
      17.850000       0.515979       0.465557       0.615895
      17.860000       0.515198       0.467114       0.617308
      17.870000       0.514102       0.468599       0.618815
      17.880000       0.512786       0.470046       0.620397
      17.890000       0.511340       0.471480       0.622024
      17.900000       0.509849       0.472916       0.623663
      17.910000       0.508392       0.474358       0.625281
      17.920000       0.507035       0.475809       0.626853
      17.930000       0.505822       0.477268       0.628361
      17.940000       0.504760       0.478745       0.629794
      17.950000       0.503819       0.480257       0.631150
      17.960000       0.502936       0.481827       0.632435
      17.970000       0.502025       0.483482       0.633668
      17.980000       0.501001       0.485243       0.634882
      17.990000       0.499799       0.487123       0.636120
      18.000000       0.498405       0.489124       0.637428
      18.010000       0.496862       0.491238       0.638847
      18.020000       0.495259       0.493451       0.640398
      18.030000       0.493695       0.495749       0.642083
      18.040000       0.492239       0.498119       0.643887
      18.050000       0.490900       0.500549       0.645780
      18.060000       0.489619       0.503023       0.647733
      18.070000       0.488284       0.505513       0.649718
      18.080000       0.486754       0.507976       0.651716
      18.090000       0.484902       0.510353       0.653711
      18.100000       0.482645       0.512574       0.655694
      18.110000       0.479977       0.514563       0.657649
      18.120000       0.476984       0.516247       0.659560
      18.130000       0.473825       0.517559       0.661399
      18.140000       0.470695       0.518441       0.663132
      18.150000       0.467766       0.518854       0.664721
      18.160000       0.465141       0.518771       0.666124
      18.170000       0.462830       0.518192       0.667303
      18.180000       0.460766       0.517145       0.668230
      18.190000       0.458840       0.515694       0.668892
      18.200000       0.456942       0.513939       0.669296
      18.210000       0.455000       0.512007       0.669473
      18.220000       0.452996       0.510037       0.669470
      18.230000       0.450972       0.508157       0.669350
      18.240000       0.449012       0.506470       0.669175
      18.250000       0.447212       0.505041       0.669007
      18.260000       0.445651       0.503901       0.668892
      18.270000       0.444378       0.503063       0.668863
      18.280000       0.443416       0.502537       0.668942
      18.290000       0.442792       0.502344       0.669140
      18.300000       0.442555       0.502517       0.669460
      18.310000       0.442785       0.503094       0.669908
      18.320000       0.443586       0.504100       0.670487
      18.330000       0.445060       0.505536       0.671205
      18.340000       0.447277       0.507369       0.672073
      18.350000       0.450255       0.509536       0.673098
      18.360000       0.453949       0.511953       0.674287
      18.370000       0.458253       0.514525       0.675636
      18.380000       0.463012       0.517159       0.677139
      18.390000       0.468034       0.519774       0.678777
      18.400000       0.473096       0.522302       0.680532
      18.410000       0.477952       0.524695       0.682381
      18.420000       0.482342       0.526918       0.684305
      18.430000       0.486000       0.528954       0.686292
      18.440000       0.488683       0.530806       0.688333
      18.450000       0.490192       0.532497       0.690426
      18.460000       0.490398       0.534066       0.692574
      18.470000       0.489259       0.535555       0.694776
      18.480000       0.486819       0.537001       0.697029
      18.490000       0.483199       0.538423       0.699324
      18.500000       0.478573       0.539825       0.701644
      18.510000       0.473143       0.541191       0.703968
      18.520000       0.467128       0.542505       0.706271
      18.530000       0.460748       0.543752       0.708524
      18.540000       0.454228       0.544929       0.710702
      18.550000       0.447783       0.546048       0.712781
      18.560000       0.441611       0.547131       0.714745
      18.570000       0.435877       0.548209       0.716585
      18.580000       0.430707       0.549313       0.718308
      18.590000       0.426191       0.550468       0.719935
      18.600000       0.422399       0.551687       0.721497
      18.610000       0.419396       0.552967       0.723029
      18.620000       0.417245       0.554289       0.724559
      18.630000       0.415999       0.555622       0.726100
      18.640000       0.415686       0.556931       0.727650
      18.650000       0.416294       0.558180       0.729195
      18.660000       0.417770       0.559338       0.730713
      18.670000       0.420017       0.560386       0.732188
      18.680000       0.422908       0.561316       0.733608
      18.690000       0.426291       0.562128       0.734970
      18.700000       0.429999       0.562832       0.736280
      18.710000       0.433867       0.563447       0.737548
      18.720000       0.437741       0.563997       0.738787
      18.730000       0.441496       0.564512       0.740014
      18.740000       0.445039       0.565015       0.741250
      18.750000       0.448315       0.565521       0.742514
      18.760000       0.451294       0.566032       0.743821
      18.770000       0.453957       0.566536       0.745183
      18.780000       0.456282       0.567016       0.746603
      18.790000       0.458239       0.567449       0.748083
      18.800000       0.459798       0.567819       0.749624
      18.810000       0.460937       0.568113       0.751233
      18.820000       0.461654       0.568326       0.752924
      18.830000       0.461973       0.568464       0.754714
      18.840000       0.461948       0.568541       0.756624
      18.850000       0.461661       0.568576       0.758671
      18.860000       0.461211       0.568597       0.760860
      18.870000       0.460701       0.568627       0.763188
      18.880000       0.460216       0.568685       0.765637
      18.890000       0.459803       0.568787       0.768182
      18.900000       0.459469       0.568944       0.770789
      18.910000       0.459179       0.569166       0.773424
      18.920000       0.458884       0.569469       0.776050
      18.930000       0.458532       0.569864       0.778633
      18.940000       0.458088       0.570362       0.781144
      18.950000       0.457538       0.570959       0.783557
      18.960000       0.456879       0.571643       0.785852
      18.970000       0.456128       0.572394       0.788020
      18.980000       0.455320       0.573185       0.790067
      18.990000       0.454516       0.573991       0.792012
      19.000000       0.453805       0.574787       0.793891
      19.010000       0.453292       0.575551       0.795748
      19.020000       0.453080       0.576259       0.797627
      19.030000       0.453251       0.576892       0.799568
      19.040000       0.453851       0.577437       0.801593
      19.050000       0.454890       0.577884       0.803710
      19.060000       0.456343       0.578234       0.805912
      19.070000       0.458164       0.578497       0.808181
      19.080000       0.460300       0.578687       0.810494
      19.090000       0.462693       0.578829       0.812825
      19.100000       0.465289       0.578946       0.815150
      19.110000       0.468029       0.579064       0.817442
      19.120000       0.470846       0.579202       0.819684
      19.130000       0.473655       0.579374       0.821859
      19.140000       0.476361       0.579589       0.823966
      19.150000       0.478869       0.579850       0.826014
      19.160000       0.481105       0.580157       0.828027
      19.170000       0.483034       0.580505       0.830032
      19.180000       0.484665       0.580887       0.832060
      19.190000       0.486058       0.581290       0.834129
      19.200000       0.487300       0.581700       0.836246
      19.210000       0.488498       0.582107       0.838402
      19.220000       0.489749       0.582499       0.840574
      19.230000       0.491133       0.582867       0.842730
      19.240000       0.492697       0.583204       0.844836
      19.250000       0.494457       0.583501       0.846861
      19.260000       0.496401       0.583755       0.848784
      19.270000       0.498495       0.583963       0.850601
      19.280000       0.500697       0.584133       0.852325
      19.290000       0.502961       0.584284       0.853971
      19.300000       0.505237       0.584445       0.855557
      19.310000       0.507474       0.584647       0.857086
      19.320000       0.509613       0.584920       0.858548
      19.330000       0.511592       0.585282       0.859926
      19.340000       0.513355       0.585738       0.861200
      19.350000       0.514864       0.586282       0.862358
      19.360000       0.516111       0.586899       0.863402
      19.370000       0.517133       0.587568       0.864342
      19.380000       0.518002       0.588272       0.865198
      19.390000       0.518813       0.588987       0.865988
      19.400000       0.519652       0.589690       0.866729
      19.410000       0.520579       0.590355       0.867436
      19.420000       0.521611       0.590955       0.868125
      19.430000       0.522723       0.591460       0.868815
      19.440000       0.523867       0.591849       0.869523
      19.450000       0.524992       0.592109       0.870259
      19.460000       0.526063       0.592246       0.871019
      19.470000       0.527060       0.592283       0.871773
      19.480000       0.527979       0.592267       0.872466
      19.490000       0.528810       0.592256       0.873025
      19.500000       0.529523       0.592317       0.873369
      19.510000       0.530075       0.592506       0.873432
      19.520000       0.530408       0.592860       0.873183
      19.530000       0.530472       0.593386       0.872643
      19.540000       0.530236       0.594063       0.871881
      19.550000       0.529689       0.594844       0.871015
      19.560000       0.528837       0.595669       0.870180
      19.570000       0.527687       0.596474       0.869507
      19.580000       0.526249       0.597204       0.869094
      19.590000       0.524534       0.597825       0.868993
      19.600000       0.522581       0.598321       0.869209
      19.610000       0.520465       0.598703       0.869709
      19.620000       0.518303       0.598997       0.870443
      19.630000       0.516240       0.599238       0.871359
      19.640000       0.514424       0.599463       0.872421
      19.650000       0.512969       0.599701       0.873614
      19.660000       0.511944       0.599967       0.874945
      19.670000       0.511356       0.600264       0.876433
      19.680000       0.511171       0.600578       0.878089
      19.690000       0.511324       0.600894       0.879909
      19.700000       0.511748       0.601193       0.881867
      19.710000       0.512376       0.601464       0.883922
      19.720000       0.513155       0.601706       0.886024
      19.730000       0.514046       0.601928       0.888128
      19.740000       0.515024       0.602149       0.890196
      19.750000       0.516083       0.602391       0.892196
      19.760000       0.517234       0.602677       0.894092
      19.770000       0.518497       0.603023       0.895844
      19.780000       0.519900       0.603433       0.897400
      19.790000       0.521460       0.603898       0.898701
      19.800000       0.523182       0.604396       0.899680
      19.810000       0.525051       0.604902       0.900274
      19.820000       0.527039       0.605388       0.900433
      19.830000       0.529111       0.605836       0.900132
      19.840000       0.531230       0.606233       0.899390
      19.850000       0.533363       0.606573       0.898263
      19.860000       0.535481       0.606855       0.896841
      19.870000       0.537561       0.607084       0.895229
      19.880000       0.539582       0.607273       0.893530
      19.890000       0.541532       0.607443       0.891829
      19.900000       0.543409       0.607620       0.890190
      19.910000       0.545232       0.607837       0.888658
      19.920000       0.547036       0.608123       0.887253
      19.930000       0.548874       0.608499       0.885977
      19.940000       0.550802       0.608980       0.884811
      19.950000       0.552866       0.609566       0.883722
      19.960000       0.555088       0.610251       0.882672
      19.970000       0.557462       0.611022       0.881625
      19.980000       0.559954       0.611863       0.880553
      19.990000       0.562507       0.612756       0.879443
      20.000000       0.565058       0.613690       0.878300
