  # energy grid [eV]     epsr_x  epsr_y  epsr_z
       0.000000            NaN            NaN            NaN
       0.010000 -220283.797078 -179584.847110       4.294367
       0.020000  -55006.867043  -44883.039099       3.012029
       0.030000  -24414.745891  -19941.720636       2.666911
       0.040000  -13717.358355  -11214.383942       2.516441
       0.050000   -8771.445653   -7176.004963       2.425476
       0.060000   -6087.464807   -4982.866566       2.354861
       0.070000   -4470.296699   -3660.714436       2.290251
       0.080000   -3421.116494   -2802.673348       2.226179
       0.090000   -2701.853375   -2214.414789       2.161292
       0.100000   -2187.248111   -1793.614134       2.096446
       0.110000   -1806.307688   -1482.232573       2.033566
       0.120000   -1516.361166   -1245.360986       1.974802
       0.130000   -1290.509310   -1060.980026       1.921920
       0.140000   -1111.112409    -914.643599       1.876020
       0.150000    -966.211373    -796.555216       1.837524
       0.160000    -847.464294    -699.881125       1.806347
       0.170000    -748.907482    -619.736542       1.782095
       0.180000    -666.185205    -552.554668       1.764210
       0.190000    -596.055996    -495.681792       1.752048
       0.200000    -536.067495    -447.110440       1.744909
       0.210000    -484.336954    -405.299277       1.742058
       0.220000    -439.399762    -369.048970       1.742755
       0.230000    -400.102909    -337.414987       1.746286
       0.240000    -365.528798    -309.645276       1.751994
       0.250000    -334.939999    -285.135042       1.759303
       0.260000    -307.738673    -263.393448       1.767726
       0.270000    -283.436420    -244.018781       1.776866
       0.280000    -261.631640    -226.679706       1.786407
       0.290000    -241.992353    -211.100942       1.796106
       0.300000    -224.243096    -197.052225       1.805780
       0.310000    -208.154881    -184.339695       1.815296
       0.320000    -193.537560    -172.799151       1.824556
       0.330000    -180.234098    -162.290726       1.833487
       0.340000    -168.116313    -152.694678       1.842029
       0.350000    -157.081636    -143.908034       1.850126
       0.360000    -147.050298    -135.841910       1.857716
       0.370000    -137.962311    -128.419305       1.864732
       0.380000    -129.773580    -121.573290       1.871102
       0.390000    -122.450712    -115.245484       1.876748
       0.400000    -115.964419    -109.384767       1.881589
       0.410000    -110.282051    -103.946217       1.885539
       0.420000    -105.360372     -98.890214       1.888506
       0.430000    -101.140052     -94.181691       1.890399
       0.440000     -97.543167     -89.789515       1.891148
       0.450000     -94.474547     -85.685961       1.890728
       0.460000     -91.827242     -81.846275       1.889197
       0.470000     -89.491725     -78.248294       1.886709
       0.480000     -87.367406     -74.872131       1.883503
       0.490000     -85.373796     -71.699897       1.879860
       0.500000     -83.457915     -68.715468       1.876038
       0.510000     -81.595228     -65.904276       1.872224
       0.520000     -79.783478     -63.253139       1.868514
       0.530000     -78.031446     -60.750100       1.864942
       0.540000     -76.346566     -58.384296       1.861525
       0.550000     -74.725724     -56.145839       1.858313
       0.560000     -73.152197     -54.025716       1.855418
       0.570000     -71.599210     -52.015691       1.852996
       0.580000     -70.037921     -50.108235       1.851217
       0.590000     -68.446098     -48.296446       1.850209
       0.600000     -66.814069     -46.573993       1.850035
       0.610000     -65.146222     -44.935059       1.850679
       0.620000     -63.458401     -43.374288       1.852060
       0.630000     -61.772786     -41.886747       1.854057
       0.640000     -60.112010     -40.467885       1.856531
       0.650000     -58.493921     -39.113495       1.859348
       0.660000     -56.927986     -37.819686       1.862388
       0.670000     -55.414065     -36.582856       1.865553
       0.680000     -53.943834     -35.399661       1.868776
       0.690000     -52.504373     -34.267002       1.872016
       0.700000     -51.082540     -33.181993       1.875258
       0.710000     -49.668517     -32.141954       1.878507
       0.720000     -48.257509     -31.144384       1.881777
       0.730000     -46.849560     -30.186954       1.885083
       0.740000     -45.448209     -29.267491       1.888432
       0.750000     -44.058821     -28.383962       1.891824
       0.760000     -42.687184     -27.534468       1.895247
       0.770000     -41.338579     -26.717230       1.898681
       0.780000     -40.017310     -25.930582       1.902099
       0.790000     -38.726559     -25.172961       1.905468
       0.800000     -37.468444     -24.442902       1.908750
       0.810000     -36.244168     -23.739025       1.911899
       0.820000     -35.054204     -23.060037       1.914863
       0.830000     -33.898464     -22.404719       1.917578
       0.840000     -32.776453     -21.771924       1.919973
       0.850000     -31.687390     -21.160571       1.921969
       0.860000     -30.630300     -20.569644       1.923484
       0.870000     -29.604081     -19.998184       1.924445
       0.880000     -28.607548     -19.445287       1.924797
       0.890000     -27.639471     -18.910104       1.924521
       0.900000     -26.698623     -18.391836       1.923643
       0.910000     -25.783843     -17.889733       1.922243
       0.920000     -24.894135     -17.403095       1.920453
       0.930000     -24.028794     -16.931273       1.918442
       0.940000     -23.187550     -16.473665       1.916398
       0.950000     -22.370712     -16.029727       1.914491
       0.960000     -21.579302     -15.598971       1.912853
       0.970000     -20.815183     -15.180969       1.911551
       0.980000     -20.081170     -14.775362       1.910588
       0.990000     -19.381098     -14.381861       1.909914
       1.000000     -18.719804     -14.000249       1.909450
       1.010000     -18.102942     -13.630370       1.909117
       1.020000     -17.536539     -13.272118       1.908848
       1.030000     -17.026221     -12.925394       1.908597
       1.040000     -16.576145     -12.590062       1.908337
       1.050000     -16.187813     -12.265885       1.908047
       1.060000     -15.859142     -11.952468       1.907710
       1.070000     -15.584198     -11.649229       1.907316
       1.080000     -15.353832     -11.355403       1.906870
       1.090000     -15.157122     -11.070100       1.906404
       1.100000     -14.983155     -10.792397       1.905982
       1.110000     -14.822554     -10.521434       1.905689
       1.120000     -14.668303     -10.256490       1.905618
       1.130000     -14.515774      -9.997017       1.905842
       1.140000     -14.362257      -9.742635       1.906398
       1.150000     -14.206476      -9.493123       1.907282
       1.160000     -14.048386      -9.248403       1.908447
       1.170000     -13.889172      -9.008550       1.909819
       1.180000     -13.731074      -8.773795       1.911303
       1.190000     -13.576864      -8.544518       1.912801
       1.200000     -13.429157      -8.321228       1.914218
       1.210000     -13.290013      -8.104527       1.915477
       1.220000     -13.161088      -7.895060       1.916526
       1.230000     -13.044169      -7.693430       1.917346
       1.240000     -12.941601      -7.500083       1.917958
       1.250000     -12.856263      -7.315146       1.918410
       1.260000     -12.791174      -7.138267       1.918770
       1.270000     -12.749152      -6.968554       1.919104
       1.280000     -12.732840      -6.804664       1.919467
       1.290000     -12.745009      -6.645078       1.919899
       1.300000     -12.788783      -6.488477       1.920425
       1.310000     -12.867524      -6.334086       1.921070
       1.320000     -12.984404      -6.181847       1.921856
       1.330000     -13.141897      -6.032381       1.922807
       1.340000     -13.341258      -5.886759       1.923934
       1.350000     -13.581892      -5.746154       1.925230
       1.360000     -13.860514      -5.611440       1.926662
       1.370000     -14.170195      -5.482837       1.928177
       1.380000     -14.499652      -5.359688       1.929699
       1.390000     -14.833197      -5.240491       1.931143
       1.400000     -15.151716      -5.123197       1.932423
       1.410000     -15.434781      -5.005724       1.933463
       1.420000     -15.663544      -4.886489       1.934210
       1.430000     -15.823635      -4.764767       1.934639
       1.440000     -15.907130      -4.640789       1.934762
       1.450000     -15.913024      -4.515599       1.934618
       1.460000     -15.846249      -4.390762       1.934259
       1.470000     -15.715807      -4.268013       1.933729
       1.480000     -15.532728      -4.148906       1.933052
       1.490000     -15.308359      -4.034494       1.932228
       1.500000     -15.053220      -3.925119       1.931249
       1.510000     -14.776402      -3.820358       1.930117
       1.520000     -14.485373      -3.719211       1.928876
       1.530000     -14.186040      -3.620492       1.927613
       1.540000     -13.882934      -3.523309       1.926459
       1.550000     -13.579444      -3.427441       1.925558
       1.560000     -13.278043      -3.333480       1.925041
       1.570000     -12.980491      -3.242682       1.924998
       1.580000     -12.688005      -3.156600       1.925467
       1.590000     -12.401388      -3.076587       1.926435
       1.600000     -12.121145      -3.003303       1.927850
       1.610000     -11.847555      -2.936381       1.929639
       1.620000     -11.580742      -2.874375       1.931714
       1.630000     -11.320722      -2.815053       1.933989
       1.640000     -11.067441      -2.755945       1.936375
       1.650000     -10.820805      -2.694918       1.938787
       1.660000     -10.580706      -2.630554       1.941142
       1.670000     -10.347040      -2.562227       1.943356
       1.680000     -10.119720      -2.489990       1.945349
       1.690000      -9.898681      -2.414416       1.947042
       1.700000      -9.683885      -2.336514       1.948368
       1.710000      -9.475307      -2.257716       1.949281
       1.720000      -9.272916      -2.179851       1.949761
       1.730000      -9.076649      -2.105016       1.949824
       1.740000      -8.886375      -2.035302       1.949520
       1.750000      -8.701883      -1.972436       1.948930
       1.760000      -8.522876      -1.917404       1.948152
       1.770000      -8.349006      -1.870187       1.947299
       1.780000      -8.179919      -1.829711       1.946488
       1.790000      -8.015310      -1.794060       1.945841
       1.800000      -7.854966      -1.760918       1.945473
       1.810000      -7.698775      -1.728112       1.945474
       1.820000      -7.546716      -1.694083       1.945900
       1.830000      -7.398813      -1.658120       1.946761
       1.840000      -7.255080      -1.620299       1.948022
       1.850000      -7.115488      -1.581207       1.949611
       1.860000      -6.979973      -1.541596       1.951431
       1.870000      -6.848481      -1.502089       1.953371
       1.880000      -6.721025      -1.463029       1.955312
       1.890000      -6.597694      -1.424463       1.957132
       1.900000      -6.478615      -1.386254       1.958719
       1.910000      -6.363896      -1.348252       1.959973
       1.920000      -6.253588      -1.310474       1.960816
       1.930000      -6.147726      -1.273207       1.961200
       1.940000      -6.046397      -1.237040       1.961112
       1.950000      -5.949803      -1.202843       1.960572
       1.960000      -5.858234      -1.171748       1.959627
       1.970000      -5.771990      -1.145131       1.958348
       1.980000      -5.691289      -1.124522       1.956824
       1.990000      -5.616253      -1.111440       1.955166
       2.000000      -5.546972      -1.107141       1.953504
       2.010000      -5.483605      -1.112393       1.951973
       2.020000      -5.426428      -1.127334       1.950695
       2.030000      -5.375816      -1.151407       1.949755
       2.040000      -5.332169      -1.183327       1.949193
       2.050000      -5.295869      -1.221038       1.949001
       2.060000      -5.267281      -1.261777       1.949134
       2.070000      -5.246774      -1.302342       1.949532
       2.080000      -5.234711      -1.339617       1.950135
       2.090000      -5.231389      -1.371174       1.950895
       2.100000      -5.236918      -1.395693       1.951780
       2.110000      -5.251046      -1.413008       1.952776
       2.120000      -5.272942      -1.423772       1.953874
       2.130000      -5.300970      -1.428910       1.955062
       2.140000      -5.332567      -1.429133       1.956320
       2.150000      -5.364285      -1.424674       1.957616
       2.160000      -5.392105      -1.415310       1.958915
       2.170000      -5.411975      -1.400561       1.960189
       2.180000      -5.420439      -1.379955       1.961428
       2.190000      -5.415181      -1.353287       1.962654
       2.200000      -5.395282      -1.320811       1.963916
       2.210000      -5.361148      -1.283307       1.965277
       2.220000      -5.314192      -1.241996       1.966797
       2.230000      -5.256403      -1.198292       1.968516
       2.240000      -5.189948      -1.153503       1.970438
       2.250000      -5.116888      -1.108584       1.972534
       2.260000      -5.039015      -1.064050       1.974746
       2.270000      -4.957803      -1.020057       1.976993
       2.280000      -4.874429      -0.976574       1.979188
       2.290000      -4.789814      -0.933511       1.981248
       2.300000      -4.704685      -0.890749       1.983102
       2.310000      -4.619610      -0.848095       1.984702
       2.320000      -4.535037      -0.805264       1.986025
       2.330000      -4.451320      -0.761974       1.987075
       2.340000      -4.368740      -0.718142       1.987881
       2.350000      -4.287519      -0.674048       1.988499
       2.360000      -4.207830      -0.630363       1.989006
       2.370000      -4.129797      -0.587969       1.989492
       2.380000      -4.053492      -0.547614       1.990054
       2.390000      -3.978933      -0.509522       1.990771
       2.400000      -3.906078      -0.473119       1.991693
       2.410000      -3.834843      -0.437009       1.992826
       2.420000      -3.765119      -0.399245       1.994126
       2.430000      -3.696800      -0.357821       1.995510
       2.440000      -3.629801      -0.311170       1.996867
       2.450000      -3.564071      -0.258505       1.998069
       2.460000      -3.499577      -0.199896       1.998992
       2.470000      -3.436296      -0.136152       1.999529
       2.480000      -3.374200      -0.068598       1.999597
       2.490000      -3.313252       0.001155       1.999153
       2.500000      -3.253423       0.071373       1.998196
       2.510000      -3.194704       0.140333       1.996772
       2.520000      -3.137117       0.206396       1.994969
       2.530000      -3.080712       0.268073       1.992907
       2.540000      -3.025549       0.324043       1.990727
       2.550000      -2.971675       0.373136       1.988580
       2.560000      -2.919109       0.414251       1.986609
       2.570000      -2.867821       0.446219       1.984940
       2.580000      -2.817744       0.467616       1.983669
       2.590000      -2.768777       0.476585       1.982845
       2.600000      -2.720801       0.470720       1.982466
       2.610000      -2.673677       0.447114       1.982473
       2.620000      -2.627247       0.402636       1.982757
       2.630000      -2.581332       0.334462       1.983175
       2.640000      -2.535742       0.240794       1.983571
       2.650000      -2.490306       0.121620       1.983810
       2.660000      -2.444907      -0.020657       1.983799
       2.670000      -2.399505      -0.180907       1.983517
       2.680000      -2.354142      -0.351436       1.983019
       2.690000      -2.308923      -0.522725       1.982427
       2.700000      -2.263988      -0.684681       1.981894
       2.710000      -2.219480      -0.828151       1.981569
       2.720000      -2.175523      -0.946255       1.981551
       2.730000      -2.132215      -1.035164       1.981865
       2.740000      -2.089630      -1.094138       1.982461
       2.750000      -2.047825      -1.124964       1.983227
       2.760000      -2.006846      -1.131070       1.984011
       2.770000      -1.966706      -1.116649       1.984651
       2.780000      -1.927375      -1.085972       1.985006
       2.790000      -1.888761      -1.042949       1.984981
       2.800000      -1.850728      -0.990942       1.984543
       2.810000      -1.813133      -0.932734       1.983724
       2.820000      -1.775893      -0.870607       1.982615
       2.830000      -1.739029      -0.806445       1.981353
       2.840000      -1.702700      -0.741830       1.980089
       2.850000      -1.667176      -0.678090       1.978968
       2.860000      -1.632800      -0.616304       1.978105
       2.870000      -1.599924      -0.557266       1.977565
       2.880000      -1.568848      -0.501426       1.977358
       2.890000      -1.539788      -0.448852       1.977441
       2.900000      -1.512879      -0.399229       1.977730
       2.910000      -1.488207      -0.351950       1.978123
       2.920000      -1.465862      -0.306259       1.978520
       2.930000      -1.445965      -0.261444       1.978856
       2.940000      -1.428656      -0.216994       1.979113
       2.950000      -1.414043      -0.172693       1.979327
       2.960000      -1.402142      -0.128632       1.979568
       2.970000      -1.392820      -0.085128       1.979918
       2.980000      -1.385764      -0.042596       1.980433
       2.990000      -1.380464      -0.001398       1.981127
       3.000000      -1.376201       0.038272       1.981968
       3.010000      -1.372079       0.076449       1.982892
       3.020000      -1.367098       0.113367       1.983824
       3.030000      -1.360282       0.149351       1.984705
       3.040000      -1.350832       0.184701       1.985500
       3.050000      -1.338253       0.219612       1.986211
       3.060000      -1.322409       0.254179       1.986864
       3.070000      -1.303500       0.288473       1.987498
       3.080000      -1.281968       0.322618       1.988148
       3.090000      -1.258375       0.356844       1.988835
       3.100000      -1.233292       0.391469       1.989558
       3.110000      -1.207217       0.426837       1.990295
       3.120000      -1.180529       0.463261       1.991010
       3.130000      -1.153479       0.500983       1.991655
       3.140000      -1.126204       0.540163       1.992180
       3.150000      -1.098755       0.580874       1.992538
       3.160000      -1.071125       0.623090       1.992700
       3.170000      -1.043278       0.666681       1.992664
       3.180000      -1.015173       0.711425       1.992463
       3.190000      -0.986781       0.757041       1.992152
       3.200000      -0.958097       0.803244       1.991802
       3.210000      -0.929145       0.849799       1.991466
       3.220000      -0.899967       0.896558       1.991161
       3.230000      -0.870623       0.943451       1.990852
       3.240000      -0.841181       0.990439       1.990453
       3.250000      -0.811717       1.037435       1.989849
       3.260000      -0.782316       1.084229       1.988921
       3.270000      -0.753069       1.130443       1.987584
       3.280000      -0.724068       1.175537       1.985811
       3.290000      -0.695390       1.218852       1.983651
       3.300000      -0.667092       1.259681       1.981227
       3.310000      -0.639192       1.297349       1.978721
       3.320000      -0.611671       1.331271       1.976337
       3.330000      -0.584479       1.360974       1.974274
       3.340000      -0.557545       1.386078       1.972693
       3.350000      -0.530790       1.406247       1.971696
       3.360000      -0.504139       1.421152       1.971317
       3.370000      -0.477531       1.430470       1.971527
       3.380000      -0.450923       1.433911       1.972249
       3.390000      -0.424295       1.431261       1.973380
       3.400000      -0.397653       1.422373       1.974812
       3.410000      -0.371028       1.407132       1.976457
       3.420000      -0.344472       1.385413       1.978250
       3.430000      -0.318054       1.357086       1.980160
       3.440000      -0.291849       1.322070       1.982182
       3.450000      -0.265931       1.280450       1.984331
       3.460000      -0.240361       1.232619       1.986628
       3.470000      -0.215180       1.179440       1.989087
       3.480000      -0.190403       1.122378       1.991704
       3.490000      -0.166013       1.063567       1.994447
       3.500000      -0.141964       1.005727       1.997254
       3.510000      -0.118181       0.951908       2.000043
       3.520000      -0.094576       0.905063       2.002721
       3.530000      -0.071062       0.867591       2.005198
       3.540000      -0.047569       0.840975       2.007394
       3.550000      -0.024059       0.825665       2.009253
       3.560000      -0.000531       0.821178       2.010741
       3.570000       0.022989       0.826357       2.011851
       3.580000       0.046467       0.839668       2.012614
       3.590000       0.069875       0.859469       2.013092
       3.600000       0.093206       0.884195       2.013377
       3.610000       0.116472       0.912455       2.013569
       3.620000       0.139697       0.943041       2.013756
       3.630000       0.162906       0.974876       2.013991
       3.640000       0.186120       1.006950       2.014278
       3.650000       0.209351       1.038285       2.014592
       3.660000       0.232610       1.067973       2.014897
       3.670000       0.255910       1.095252       2.015181
       3.680000       0.279262       1.119584       2.015477
       3.690000       0.302675       1.140649       2.015864
       3.700000       0.326160       1.158248       2.016442
       3.710000       0.349731       1.172126       2.017295
       3.720000       0.373416       1.181844       2.018466
       3.730000       0.397255       1.186778       2.019938
       3.740000       0.421286       1.186330       2.021641
       3.750000       0.445534       1.180278       2.023470
       3.760000       0.469985       1.169157       2.025303
       3.770000       0.494586       1.154484       2.027026
       3.780000       0.519234       1.138674       2.028536
       3.790000       0.543791       1.124625       2.029758
       3.800000       0.568091       1.115095       2.030649
       3.810000       0.591953       1.112133       2.031203
       3.820000       0.615196       1.116757       2.031450
       3.830000       0.637647       1.128960       2.031451
       3.840000       0.659139       1.147956       2.031285
       3.850000       0.679504       1.172512       2.031044
       3.860000       0.698567       1.201249       2.030824
       3.870000       0.716154       1.232836       2.030714
       3.880000       0.732113       1.266074       2.030799
       3.890000       0.746349       1.299912       2.031147
       3.900000       0.758859       1.333445       2.031808
       3.910000       0.769762       1.365917       2.032804
       3.920000       0.779308       1.396753       2.034133
       3.930000       0.787862       1.425582       2.035760
       3.940000       0.795856       1.452251       2.037618
       3.950000       0.803717       1.476806       2.039601
       3.960000       0.811811       1.499473       2.041568
       3.970000       0.820402       1.520638       2.043348
       3.980000       0.829665       1.540811       2.044760
       3.990000       0.839707       1.560575       2.045648
       4.000000       0.850578       1.580469       2.045913
       4.010000       0.862269       1.600834       2.045543
       4.020000       0.874680       1.621667       2.044624
       4.030000       0.887631       1.642568       2.043334
       4.040000       0.900895       1.662822       2.041908
       4.050000       0.914285       1.681608       2.040597
       4.060000       0.927754       1.698264       2.039615
       4.070000       0.941461       1.712508       2.039106
       4.080000       0.955769       1.724546       2.039123
       4.090000       0.971164       1.735020       2.039644
       4.100000       0.988108       1.744819       2.040601
       4.110000       1.006901       1.754860       2.041907
       4.120000       1.027583       1.765869       2.043484
       4.130000       1.049914       1.778242       2.045260
       4.140000       1.073417       1.791968       2.047171
       4.150000       1.097446       1.806606       2.049137
       4.160000       1.121265       1.821328       2.051059
       4.170000       1.144123       1.834997       2.052821
       4.180000       1.165327       1.846276       2.054304
       4.190000       1.184317       1.853750       2.055411
       4.200000       1.200732       1.856033       2.056096
       4.210000       1.214449       1.851851       2.056379
       4.220000       1.225559       1.840148       2.056353
       4.230000       1.234270       1.820249       2.056160
       4.240000       1.240752       1.792090       2.055955
       4.250000       1.245003       1.756462       2.055866
       4.260000       1.246801       1.715093       2.055978
       4.270000       1.245775       1.670470       2.056324
       4.280000       1.241562       1.625350       2.056909
       4.290000       1.233983       1.582150       2.057725
       4.300000       1.223151       1.542409       2.058764
       4.310000       1.209482       1.506545       2.060019
       4.320000       1.193647       1.473914       2.061476
       4.330000       1.176521       1.443125       2.063108
       4.340000       1.159188       1.412461       2.064880
       4.350000       1.142971       1.380350       2.066748
       4.360000       1.129391       1.345791       2.068666
       4.370000       1.120013       1.308687       2.070580
       4.380000       1.116198       1.270012       2.072422
       4.390000       1.118888       1.231715       2.074098
       4.400000       1.128485       1.196334       2.075485
       4.410000       1.144871       1.166414       2.076423
       4.420000       1.167528       1.143918       2.076732
       4.430000       1.195679       1.129830       2.076221
       4.440000       1.228426       1.124068       2.074725
       4.450000       1.264860       1.125666       2.072141
       4.460000       1.304129       1.133139       2.068454
       4.470000       1.345481       1.144895       2.063759
       4.480000       1.388276       1.159614       2.058245
       4.490000       1.431983       1.176512       2.052175
       4.500000       1.476161       1.195446       2.045839
       4.510000       1.520429       1.216810       2.039513
       4.520000       1.564444       1.241275       2.033436
       4.530000       1.607863       1.269444       2.027793
       4.540000       1.650328       1.301586       2.022720
       4.550000       1.691446       1.337506       2.018322
       4.560000       1.730776       1.376588       2.014690
       4.570000       1.767813       1.417940       2.011901
       4.580000       1.801969       1.460593       2.010012
       4.590000       1.832551       1.503667       2.009040
       4.600000       1.858749       1.546484       2.008945
       4.610000       1.879666       1.588591       2.009633
       4.620000       1.894363       1.629694       2.010965
       4.630000       1.901924       1.669552       2.012777
       4.640000       1.901499       1.707871       2.014892
       4.650000       1.892352       1.744232       2.017135
       4.660000       1.873897       1.778066       2.019338
       4.670000       1.845776       1.808637       2.021348
       4.680000       1.807946       1.835030       2.023029
       4.690000       1.760772       1.856173       2.024273
       4.700000       1.705108       1.870929       2.025014
       4.710000       1.642346       1.878296       2.025239
       4.720000       1.574426       1.877668       2.024996
       4.730000       1.503772       1.869082       2.024382
       4.740000       1.433092       1.853315       2.023531
       4.750000       1.365049       1.831782       2.022595
       4.760000       1.301871       1.806259       2.021724
       4.770000       1.245018       1.778552       2.021054
       4.780000       1.195017       1.750263       2.020697
       4.790000       1.151523       1.722694       2.020739
       4.800000       1.113610       1.696900       2.021237
       4.810000       1.080194       1.673801       2.022221
       4.820000       1.050473       1.654269       2.023690
       4.830000       1.024234       1.639117       2.025603
       4.840000       1.001956       1.628967       2.027878
       4.850000       0.984682       1.624056       2.030395
       4.860000       0.973714       1.624041       2.033013
       4.870000       0.970230       1.627917       2.035589
       4.880000       0.974937       1.634084       2.037994
       4.890000       0.987867       1.640578       2.040118
       4.900000       1.008359       1.645445       2.041865
       4.910000       1.035227       1.647150       2.043138
       4.920000       1.067007       1.644926       2.043834
       4.930000       1.102210       1.638942       2.043846
       4.940000       1.139511       1.630222       2.043074
       4.950000       1.177825       1.620325       2.041444
       4.960000       1.216293       1.610869       2.038935
       4.970000       1.254199       1.603051       2.035590
       4.980000       1.290873       1.597314       2.031522
       4.990000       1.325631       1.593261       2.026908
       5.000000       1.357757       1.589846       2.021978
       5.010000       1.386541       1.585739       2.016994
       5.020000       1.411325       1.579767       2.012214
       5.030000       1.431523       1.571266       2.007872
       5.040000       1.446609       1.560245       2.004152
       5.050000       1.456079       1.547313       2.001186
       5.060000       1.459404       1.533401       1.999064
       5.070000       1.455971       1.519376       1.997841
       5.080000       1.445035       1.505703       1.997548
       5.090000       1.425721       1.492263       1.998183
       5.100000       1.397135       1.478413       1.999712
       5.110000       1.358604       1.463240       2.002060
       5.120000       1.309998       1.445896       2.005110
       5.130000       1.252002       1.425875       2.008714
       5.140000       1.186212       1.403140       2.012708
       5.150000       1.114996       1.378088       2.016938
       5.160000       1.041164       1.351437       2.021271
       5.170000       0.967573       1.324107       2.025609
       5.180000       0.896799       1.297120       2.029895
       5.190000       0.830966       1.271492       2.034100
       5.200000       0.771746       1.248127       2.038220
       5.210000       0.720422       1.227701       2.042264
       5.220000       0.677947       1.210592       2.046248
       5.230000       0.644900       1.196849       2.050189
       5.240000       0.621373       1.186194       2.054107
       5.250000       0.606843       1.178022       2.058023
       5.260000       0.600131       1.171415       2.061958
       5.270000       0.599459       1.165165       2.065929
       5.280000       0.602636       1.157842       2.069937
       5.290000       0.607304       1.147907       2.073953
       5.300000       0.611246       1.133884       2.077919
       5.310000       0.612703       1.114588       2.081754
       5.320000       0.610689       1.089388       2.085370
       5.330000       0.605208       1.058431       2.088698
       5.340000       0.597311       1.022756       2.091701
       5.350000       0.588899       0.984232       2.094382
       5.360000       0.582317       0.945308       2.096772
       5.370000       0.579836       0.908632       2.098919
       5.380000       0.583182       0.876629       2.100867
       5.390000       0.593265       0.851137       2.102652
       5.400000       0.610141       0.833177       2.104289
       5.410000       0.633175       0.822879       2.105768
       5.420000       0.661287       0.819595       2.107055
       5.430000       0.693187       0.822115       2.108100
       5.440000       0.727534       0.828940       2.108861
       5.450000       0.763039       0.838524       2.109323
       5.460000       0.798544       0.849444       2.109520
       5.470000       0.833104       0.860486       2.109532
       5.480000       0.866080       0.870665       2.109475
       5.490000       0.897192       0.879214       2.109477
       5.500000       0.926483       0.885589       2.109659
       5.510000       0.954177       0.889489       2.110118
       5.520000       0.980479       0.890894       2.110922
       5.530000       1.005386       0.890085       2.112105
       5.540000       1.028594       0.887650       2.113666
       5.550000       1.049543       0.884440       2.115572
       5.560000       1.067554       0.881476       2.117762
       5.570000       1.082024       0.879792       2.120156
       5.580000       1.092590       0.880270       2.122665
       5.590000       1.099197       0.883503       2.125213
       5.600000       1.102023       0.889709       2.127742
       5.610000       1.101269       0.898698       2.130222
       5.620000       1.096904       0.909902       2.132652
       5.630000       1.088524       0.922481       2.135051
       5.640000       1.075398       0.935507       2.137454
       5.650000       1.056741       0.948239       2.139899
       5.660000       1.032102       0.960370       2.142417
       5.670000       1.001732       0.972179       2.145030
       5.680000       0.966768       0.984478       2.147748
       5.690000       0.929160       0.998347       2.150574
       5.700000       0.891327       1.014771       2.153508
       5.710000       0.855666       1.034321       2.156546
       5.720000       0.824045       1.057024       2.159686
       5.730000       0.797451       1.082428       2.162927
       5.740000       0.775892       1.109808       2.166272
       5.750000       0.758571       1.138388       2.169732
       5.760000       0.744230       1.167478       2.173326
       5.770000       0.731529       1.196491       2.177068
       5.780000       0.719350       1.224831       2.180960
       5.790000       0.706986       1.251731       2.184982
       5.800000       0.694204       1.276122       2.189088
       5.810000       0.681225       1.296608       2.193219
       5.820000       0.668625       1.311600       2.197303
       5.830000       0.657180       1.319571       2.201264
       5.840000       0.647701       1.319377       2.205019
       5.850000       0.640889       1.310547       2.208485
       5.860000       0.637266       1.293425       2.211584
       5.870000       0.637172       1.269130       2.214253
       5.880000       0.640818       1.239351       2.216454
       5.890000       0.648355       1.206092       2.218181
       5.900000       0.659935       1.171459       2.219464
       5.910000       0.675709       1.137533       2.220370
       5.920000       0.695778       1.106259       2.221005
       5.930000       0.720107       1.079326       2.221504
       5.940000       0.748451       1.058016       2.222030
       5.950000       0.780331       1.043079       2.222760
       5.960000       0.815045       1.034670       2.223858
       5.970000       0.851700       1.032349       2.225461
       5.980000       0.889246       1.035158       2.227650
       5.990000       0.926523       1.041753       2.230445
       6.000000       0.962310       1.050609       2.233803
       6.010000       0.995402       1.060240       2.237633
       6.020000       1.024690       1.069385       2.241810
       6.030000       1.049227       1.077120       2.246198
       6.040000       1.068273       1.082890       2.250663
       6.050000       1.081315       1.086483       2.255085
       6.060000       1.088096       1.087994       2.259368
       6.070000       1.088667       1.087786       2.263444
       6.080000       1.083431       1.086436       2.267285
       6.090000       1.073131       1.084652       2.270903
       6.100000       1.058710       1.083140       2.274355
       6.110000       1.041086       1.082457       2.277732
       6.120000       1.020924       1.082900       2.281141
       6.130000       0.998538       1.084467       2.284690
       6.140000       0.973958       1.086890       2.288463
       6.150000       0.947143       1.089708       2.292509
       6.160000       0.918225       1.092365       2.296830
       6.170000       0.887721       1.094340       2.301384
       6.180000       0.856642       1.095314       2.306090
       6.190000       0.826481       1.095307       2.310840
       6.200000       0.799061       1.094756       2.315519
       6.210000       0.776242       1.094437       2.320009
       6.220000       0.759552       1.095254       2.324195
       6.230000       0.749860       1.097968       2.327961
       6.240000       0.747213       1.102982       2.331178
       6.250000       0.750894       1.110290       2.333707
       6.260000       0.759673       1.119592       2.335409
       6.270000       0.772159       1.130485       2.336167
       6.280000       0.787131       1.142643       2.335913
       6.290000       0.803784       1.155887       2.334644
       6.300000       0.821813       1.170145       2.332441
       6.310000       0.841345       1.185347       2.329462
       6.320000       0.862754       1.201317       2.325943
       6.330000       0.886446       1.217741       2.322172
       6.340000       0.912679       1.234236       2.318466
       6.350000       0.941476       1.250491       2.315140
       6.360000       0.972597       1.266401       2.312470
       6.370000       1.005566       1.282097       2.310668
       6.380000       1.039702       1.297830       2.309866
       6.390000       1.074169       1.313771       2.310116
       6.400000       1.108010       1.329806       2.311401
       6.410000       1.140210       1.345438       2.313659
       6.420000       1.169761       1.359805       2.316796
       6.430000       1.195748       1.371799       2.320707
       6.440000       1.217427       1.380247       2.325280
       6.450000       1.234284       1.384107       2.330401
       6.460000       1.246048       1.382647       2.335958
       6.470000       1.252650       1.375553       2.341849
       6.480000       1.254152       1.362938       2.347982
       6.490000       1.250696       1.345249       2.354277
       6.500000       1.242503       1.323127       2.360665
       6.510000       1.229929       1.297294       2.367082
       6.520000       1.213525       1.268494       2.373464
       6.530000       1.194062       1.237511       2.379745
       6.540000       1.172472       1.205241       2.385863
       6.550000       1.149761       1.172769       2.391758
       6.560000       1.126936       1.141414       2.397384
       6.570000       1.104936       1.112638       2.402708
       6.580000       1.084577       1.087833       2.407721
       6.590000       1.066472       1.068051       2.412434
       6.600000       1.050965       1.053777       2.416877
       6.610000       1.038094       1.044864       2.421088
       6.620000       1.027626       1.040639       2.425098
       6.630000       1.019169       1.040145       2.428912
       6.640000       1.012325       1.042409       2.432494
       6.650000       1.006833       1.046640       2.435758
       6.660000       1.002629       1.052302       2.438572
       6.670000       0.999828       1.059084       2.440787
       6.680000       0.998637       1.066837       2.442261
       6.690000       0.999289       1.075556       2.442893
       6.700000       1.002006       1.085400       2.442652
       6.710000       1.007000       1.096710       2.441587
       6.720000       1.014453       1.109957       2.439820
       6.730000       1.024485       1.125620       2.437524
       6.740000       1.037100       1.144049       2.434908
       6.750000       1.052139       1.165379       2.432192
       6.760000       1.069257       1.189513       2.429601
       6.770000       1.087918       1.216176       2.427365
       6.780000       1.107435       1.244980       2.425709
       6.790000       1.127047       1.275471       2.424845
       6.800000       1.146049       1.307156       2.424948
       6.810000       1.163924       1.339502       2.426140
       6.820000       1.180439       1.371934       2.428469
       6.830000       1.195669       1.403823       2.431910
       6.840000       1.209947       1.434476       2.436365
       6.850000       1.223772       1.463165       2.441685
       6.860000       1.237711       1.489198       2.447696
       6.870000       1.252299       1.512000       2.454224
       6.880000       1.267946       1.531171       2.461127
       6.890000       1.284840       1.546458       2.468304
       6.900000       1.302851       1.557660       2.475695
       6.910000       1.321487       1.564511       2.483272
       6.920000       1.339921       1.566608       2.491008
       6.930000       1.357107       1.563415       2.498861
       6.940000       1.371963       1.554359       2.506761
       6.950000       1.383590       1.538984       2.514612
       6.960000       1.391485       1.517156       2.522299
       6.970000       1.395708       1.489261       2.529714
       6.980000       1.396928       1.456331       2.536767
       6.990000       1.396338       1.419982       2.543412
       7.000000       1.395398       1.382177       2.549656
       7.010000       1.395530       1.344846       2.555556
       7.020000       1.397838       1.309542       2.561219
       7.030000       1.402983       1.277255       2.566779
       7.040000       1.411225       1.248446       2.572381
       7.050000       1.422573       1.223233       2.578171
       7.060000       1.436943       1.201592       2.584281
       7.070000       1.454267       1.183473       2.590829
       7.080000       1.474484       1.168800       2.597909
       7.090000       1.497481       1.157399       2.605581
       7.100000       1.522990       1.148932       2.613859
       7.110000       1.550536       1.142920       2.622709
       7.120000       1.579464       1.138832       2.632044
       7.130000       1.609038       1.136222       2.641734
       7.140000       1.638581       1.134838       2.651610
       7.150000       1.667593       1.134672       2.661470
       7.160000       1.695811       1.135952       2.671097
       7.170000       1.723186       1.139061       2.680271
       7.180000       1.749775       1.144393       2.688801
       7.190000       1.775595       1.152188       2.696555
       7.200000       1.800468       1.162401       2.703494
       7.210000       1.823951       1.174660       2.709687
       7.220000       1.845372       1.188336       2.715311
       7.230000       1.863983       1.202698       2.720621
       7.240000       1.879154       1.217091       2.725906
       7.250000       1.890527       1.231096       2.731440
       7.260000       1.898056       1.244614       2.737452
       7.270000       1.901914       1.257847       2.744117
       7.280000       1.902305       1.271203       2.751567
       7.290000       1.899269       1.285128       2.759902
       7.300000       1.892547       1.299922       2.769206
       7.310000       1.881534       1.315565       2.779533
       7.320000       1.865363       1.331587       2.790906
       7.330000       1.843063       1.347045       2.803312
       7.340000       1.813771       1.360622       2.816704
       7.350000       1.776917       1.370850       2.831019
       7.360000       1.732327       1.376394       2.846185
       7.370000       1.680235       1.376347       2.862129
       7.380000       1.621259       1.370461       2.878780
       7.390000       1.556378       1.359276       2.896052
       7.400000       1.486944       1.344095       2.913840
       7.410000       1.414657       1.326794       2.932013
       7.420000       1.341427       1.309492       2.950410
       7.430000       1.269115       1.294169       2.968853
       7.440000       1.199229       1.282348       2.987166
       7.450000       1.132706       1.274916       3.005192
       7.460000       1.069869       1.272089       3.022814
       7.470000       1.010544       1.273488       3.039959
       7.480000       0.954299       1.278279       3.056592
       7.490000       0.900693       1.285343       3.072693
       7.500000       0.849490       1.293474       3.088231
       7.510000       0.800765       1.301580       3.103145
       7.520000       0.754873       1.308856       3.117329
       7.530000       0.712296       1.314878       3.130626
       7.540000       0.673429       1.319580       3.142835
       7.550000       0.638397       1.323139       3.153715
       7.560000       0.606978       1.325788       3.162996
       7.570000       0.578665       1.327624       3.170395
       7.580000       0.552837       1.328467       3.175623
       7.590000       0.528952       1.327803       3.178404
       7.600000       0.506661       1.324828       3.178499
       7.610000       0.485789       1.318562       3.175736
       7.620000       0.466207       1.307966       3.170042
       7.630000       0.447669       1.292011       3.161472
       7.640000       0.429695       1.269685       3.150224
       7.650000       0.411556       1.240000       3.136629
       7.660000       0.392390       1.202081       3.121116
       7.670000       0.371379       1.155371       3.104159
       7.680000       0.347945       1.099904       3.086214
       7.690000       0.321896       1.036530       3.067679
       7.700000       0.293476       0.966975       3.048898
       7.710000       0.263301       0.893664       3.030189
       7.720000       0.232187       0.819339       3.011898
       7.730000       0.200924       0.746572       2.994427
       7.740000       0.170058       0.677323       2.978217
       7.750000       0.139769       0.612702       2.963677
       7.760000       0.109880       0.552981       2.951086
       7.770000       0.080012       0.497846       2.940510
       7.780000       0.049810       0.446737       2.931778
       7.790000       0.019155       0.399154       2.924529
       7.800000      -0.011759       0.354800       2.918300
       7.810000      -0.042510       0.313571       2.912625
       7.820000      -0.072629       0.275454       2.907119
       7.830000      -0.101777       0.240433       2.901531
       7.840000      -0.129818       0.208440       2.895770
       7.850000      -0.156802       0.179360       2.889917
       7.860000      -0.182900       0.153067       2.884196
       7.870000      -0.208324       0.129506       2.878927
       7.880000      -0.233250       0.108782       2.874448
       7.890000      -0.257750       0.091224       2.871028
       7.900000      -0.281759       0.077337       2.868803
       7.910000      -0.305103       0.067641       2.867744
       7.920000      -0.327584       0.062415       2.867684
       7.930000      -0.349051       0.061498       2.868379
       7.940000      -0.369419       0.064227       2.869582
       7.950000      -0.388605       0.069555       2.871093
       7.960000      -0.406427       0.076292       2.872787
       7.970000      -0.422523       0.083374       2.874613
       7.980000      -0.436345       0.090062       2.876558
       7.990000      -0.447239       0.096043       2.878621
       8.000000      -0.454582       0.101410       2.880771
       8.010000      -0.457921       0.106548       2.882916
       8.020000      -0.457070       0.111971       2.884911
       8.030000      -0.452117       0.118166       2.886590
       8.040000      -0.443364       0.125496       2.887838
       8.050000      -0.431225       0.134185       2.888667
       8.060000      -0.416140       0.144355       2.889250
       8.070000      -0.398535       0.156073       2.889905
       8.080000      -0.378846       0.169390       2.891024
       8.090000      -0.357549       0.184353       2.892983
       8.100000      -0.335192       0.201006       2.896074
       8.110000      -0.312388       0.219369       2.900478
       8.120000      -0.289777       0.239423       2.906281
       8.130000      -0.267971       0.261111       2.913515
       8.140000      -0.247485       0.284360       2.922188
       8.150000      -0.228670       0.309110       2.932300
       8.160000      -0.211662       0.335337       2.943816
       8.170000      -0.196357       0.363033       2.956620
       8.180000      -0.182453       0.392136       2.970475
       8.190000      -0.169531       0.422426       2.985012
       8.200000      -0.157167       0.453428       2.999762
       8.210000      -0.145045       0.484358       3.014228
       8.220000      -0.133041       0.514164       3.027955
       8.230000      -0.121270       0.541624       3.040600
       8.240000      -0.110100       0.565508       3.051950
       8.250000      -0.100113       0.584757       3.061937
       8.260000      -0.092011       0.598645       3.070628
       8.270000      -0.086458       0.606909       3.078218
       8.280000      -0.083902       0.609802       3.085015
       8.290000      -0.084420       0.608063       3.091396
       8.300000      -0.087669       0.602793       3.097729
       8.310000      -0.092953       0.595257       3.104286
       8.320000      -0.099397       0.586667       3.111157
       8.330000      -0.106169       0.577999       3.118222
       8.340000      -0.112677       0.569884       3.125177
       8.350000      -0.118674       0.562602       3.131603
       8.360000      -0.124247       0.556166       3.137057
       8.370000      -0.129710       0.550447       3.141146
       8.380000      -0.135454       0.545301       3.143570
       8.390000      -0.141797       0.540647       3.144141
       8.400000      -0.148875       0.536509       3.142789
       8.410000      -0.156590       0.533012       3.139538
       8.420000      -0.164618       0.530335       3.134488
       8.430000      -0.172479       0.528655       3.127774
       8.440000      -0.179642       0.528085       3.119548
       8.450000      -0.185635       0.528672       3.109992
       8.460000      -0.190117       0.530440       3.099339
       8.470000      -0.192885       0.533472       3.087895
       8.480000      -0.193837       0.537971       3.076012
       8.490000      -0.192944       0.544273       3.064014
       8.500000      -0.190235       0.552776       3.052126
       8.510000      -0.185811       0.563854       3.040430
       8.520000      -0.179854       0.577773       3.028901
       8.530000      -0.172600       0.594648       3.017502
       8.540000      -0.164272       0.614457       3.006314
       8.550000      -0.155005       0.637087       2.995620
       8.560000      -0.144797       0.662389       2.985916
       8.570000      -0.133516       0.690206       2.977839
       8.580000      -0.120965       0.720365       2.972037
       8.590000      -0.106979       0.752631       2.969033
       8.600000      -0.091510       0.786644       2.969125
       8.610000      -0.074656       0.821869       2.972339
       8.620000      -0.056648       0.857585       2.978433
       8.630000      -0.037795       0.892899       2.986952
       8.640000      -0.018436       0.926801       2.997333
       8.650000       0.001093       0.958212       3.009028
       8.660000       0.020467       0.986035       3.021657
       8.670000       0.039359       1.009188       3.035119
       8.680000       0.057431       1.026629       3.049621
       8.690000       0.074336       1.037396       3.065597
       8.700000       0.089750       1.040673       3.083527
       8.710000       0.103424       1.035885       3.103727
       8.720000       0.115255       1.022793       3.126187
       8.730000       0.125332       1.001572       3.150531
       8.740000       0.133942       0.972856       3.176092
       8.750000       0.141532       0.937751       3.202072
       8.760000       0.148628       0.897810       3.227739
       8.770000       0.155761       0.854954       3.252595
       8.780000       0.163406       0.811310       3.276486
       8.790000       0.171942       0.768999       3.299624
       8.800000       0.181619       0.729896       3.322521
       8.810000       0.192523       0.695419       3.345877
       8.820000       0.204557       0.666382       3.370432
       8.830000       0.217435       0.642936       3.396844
       8.840000       0.230728       0.624636       3.425587
       8.850000       0.243927       0.610592       3.456898
       8.860000       0.256520       0.599686       3.490756
       8.870000       0.268060       0.590759       3.526908
       8.880000       0.278222       0.582719       3.564911
       8.890000       0.286827       0.574575       3.604180
       8.900000       0.293861       0.565455       3.644013
       8.910000       0.299452       0.554658       3.683557
       8.920000       0.303833       0.541759       3.721687
       8.930000       0.307268       0.526725       3.756832
       8.940000       0.309978       0.509946       3.786787
       8.950000       0.312072       0.492137       3.808592
       8.960000       0.313516       0.474138       3.818576
       8.970000       0.314131       0.456682       3.812598
       8.980000       0.313638       0.440243       3.786536
       8.990000       0.311735       0.425004       3.736966
       9.000000       0.308170       0.410930       3.661949
       9.010000       0.302813       0.397883       3.561724
       9.020000       0.295697       0.385715       3.439061
       9.030000       0.287029       0.374315       3.299055
       9.040000       0.277178       0.363626       3.148321
       9.050000       0.266653       0.353655       2.993799
       9.060000       0.256082       0.344517       2.841539
       9.070000       0.246191       0.336448       2.695838
       9.080000       0.237740       0.329788       2.558924
       9.090000       0.231445       0.324919       2.431160
       9.100000       0.227855       0.322184       2.311592
       9.110000       0.227265       0.321801       2.198624
       9.120000       0.229672       0.323787       2.090644
       9.130000       0.234799       0.327885       1.986465
       9.140000       0.242173       0.333497       1.885497
       9.150000       0.251215       0.339684       1.787670
       9.160000       0.261343       0.345246       1.693233
       9.170000       0.272042       0.348921       1.602575
       9.180000       0.282913       0.349645       1.516172
       9.190000       0.293694       0.346833       1.434629
       9.200000       0.304252       0.340566       1.358717
       9.210000       0.314562       0.331632       1.289315
       9.220000       0.324663       0.321376       1.227223
       9.230000       0.334634       0.311430       1.172928
       9.240000       0.344562       0.303406       1.126447
       9.250000       0.354543       0.298664       1.087342
       9.260000       0.364673       0.298171       1.054922
       9.270000       0.375046       0.302442       1.028535
       9.280000       0.385734       0.311540       1.007822
       9.290000       0.396778       0.325117       0.992796
       9.300000       0.408172       0.342483       0.983711
       9.310000       0.419868       0.362723       0.980772
       9.320000       0.431790       0.384821       0.983817
       9.330000       0.443850       0.407795       0.992096
       9.340000       0.455971       0.430792       1.004252
       9.350000       0.468101       0.453124       1.018486
       9.360000       0.480218       0.474248       1.032842
       9.370000       0.492320       0.493671       1.045528
       9.380000       0.504411       0.510869       1.055192
       9.390000       0.516480       0.525245       1.061124
       9.400000       0.528492       0.536197       1.063349
       9.410000       0.540396       0.543262       1.062588
       9.420000       0.552146       0.546297       1.060069
       9.430000       0.563720       0.545577       1.057222
       9.440000       0.575118       0.541760       1.055340
       9.450000       0.586345       0.535698       1.055311
       9.460000       0.597376       0.528167       1.057465
       9.470000       0.608120       0.519610       1.061552
       9.480000       0.618396       0.510018       1.066809
       9.490000       0.627936       0.498996       1.072095
       9.500000       0.636416       0.485982       1.076083
       9.510000       0.643503       0.470517       1.077491
       9.520000       0.648907       0.452451       1.075322
       9.530000       0.652439       0.432026       1.069068
       9.540000       0.654056       0.409825       1.058829
       9.550000       0.653881       0.386666       1.045330
       9.560000       0.652187       0.363473       1.029811
       9.570000       0.649327       0.341167       1.013817
       9.580000       0.645649       0.320572       0.998923
       9.590000       0.641402       0.302346       0.986474
       9.600000       0.636687       0.286929       0.977426
       9.610000       0.631460       0.274511       0.972314
       9.620000       0.625581       0.264979       0.971356
       9.630000       0.618911       0.257867       0.974615
       9.640000       0.611406       0.252341       0.982154
       9.650000       0.603202       0.247269       0.994095
       9.660000       0.594630       0.241369       1.010582
       9.670000       0.586172       0.233408       1.031671
       9.680000       0.578361       0.222395       1.057225
       9.690000       0.571682       0.207745       1.086865
       9.700000       0.566492       0.189389       1.120000
       9.710000       0.562999       0.167811       1.155909
       9.720000       0.561266       0.143988       1.193833
       9.730000       0.561236       0.119233       1.233053
       9.740000       0.562765       0.094967       1.272923
       9.750000       0.565647       0.072488       1.312877
       9.760000       0.569653       0.052795       1.352414
       9.770000       0.574538       0.036490       1.391070
       9.780000       0.580059       0.023771       1.428382
       9.790000       0.585980       0.014501       1.463858
       9.800000       0.592100       0.008349       1.496971
       9.810000       0.598288       0.004976       1.527177
       9.820000       0.604512       0.004196       1.553986
       9.830000       0.610835       0.006063       1.577041
       9.840000       0.617371       0.010803       1.596180
       9.850000       0.624210       0.018649       1.611450
       9.860000       0.631364       0.029635       1.623049
       9.870000       0.638725       0.043453       1.631209
       9.880000       0.646084       0.059423       1.636086
       9.890000       0.653174       0.076566       1.637690
       9.900000       0.659735       0.093747       1.635888
       9.910000       0.665575       0.109836       1.630498
       9.920000       0.670636       0.123880       1.621433
       9.930000       0.675022       0.135251       1.608826
       9.940000       0.679012       0.143767       1.593068
       9.950000       0.683022       0.149752       1.574726
       9.960000       0.687547       0.154019       1.554362
       9.970000       0.693076       0.157746       1.532345
       9.980000       0.700013       0.162256       1.508736
       9.990000       0.708619       0.168749       1.483294
      10.000000       0.718979       0.178028       1.455581
      10.010000       0.730993       0.190327       1.425120
      10.020000       0.744390       0.205275       1.391555
      10.030000       0.758766       0.221977       1.354766
      10.040000       0.773631       0.239177       1.314908
      10.050000       0.788475       0.255446       1.272379
      10.060000       0.802831       0.269342       1.227756
      10.070000       0.816327       0.279542       1.181734
      10.080000       0.828714       0.284936       1.135089
      10.090000       0.839862       0.284717       1.088669
      10.100000       0.849739       0.278460       1.043366
      10.110000       0.858369       0.266216       1.000045
      10.120000       0.865813       0.248604       0.959444
      10.130000       0.872150       0.226852       0.922069
      10.140000       0.877472       0.202745       0.888114
      10.150000       0.881886       0.178424       0.857425
      10.160000       0.885508       0.156044       0.829505
      10.170000       0.888469       0.137400       0.803589
      10.180000       0.890918       0.123641       0.778770
      10.190000       0.893022       0.115176       0.754171
      10.200000       0.894948       0.111779       0.729130
      10.210000       0.896824       0.112820       0.703336
      10.220000       0.898688       0.117522       0.676886
      10.230000       0.900450       0.125168       0.650234
      10.240000       0.901895       0.135220       0.624044
      10.250000       0.902730       0.147343       0.599000
      10.260000       0.902667       0.161354       0.575620
      10.270000       0.901506       0.177121       0.554161
      10.280000       0.899190       0.194435       0.534609
      10.290000       0.895818       0.212918       0.516763
      10.300000       0.891597       0.231957       0.500361
      10.310000       0.886770       0.250720       0.485201
      10.320000       0.881537       0.268227       0.471232
      10.330000       0.876000       0.283489       0.458577
      10.340000       0.870147       0.295657       0.447512
      10.350000       0.863887       0.304177       0.438383
      10.360000       0.857119       0.308883       0.431515
      10.370000       0.849836       0.310001       0.427116
      10.380000       0.842202       0.308081       0.425212
      10.390000       0.834606       0.303862       0.425622
      10.400000       0.827619       0.298136       0.427968
      10.410000       0.821882       0.291636       0.431704
      10.420000       0.817945       0.284991       0.436161
      10.430000       0.816117       0.278724       0.440601
      10.440000       0.816403       0.273277       0.444282
      10.450000       0.818528       0.269025       0.446565
      10.460000       0.822040       0.266275       0.447032
      10.470000       0.826457       0.265255       0.445600
      10.480000       0.831392       0.266105       0.442590
      10.490000       0.836649       0.268879       0.438720
      10.500000       0.842243       0.273533       0.434997
      10.510000       0.848363       0.279906       0.432552
      10.520000       0.855299       0.287719       0.432437
      10.530000       0.863347       0.296594       0.435467
      10.540000       0.872741       0.306098       0.442131
      10.550000       0.883612       0.315809       0.452579
      10.560000       0.895982       0.325371       0.466674
      10.570000       0.909781       0.334534       0.484065
      10.580000       0.924861       0.343177       0.504247
      10.590000       0.941012       0.351303       0.526612
      10.600000       0.957974       0.359024       0.550480
      10.610000       0.975450       0.366523       0.575137
      10.620000       0.993131       0.373992       0.599879
      10.630000       1.010711       0.381574       0.624077
      10.640000       1.027916       0.389315       0.647233
      10.650000       1.044510       0.397173       0.669014
      10.660000       1.060294       0.405068       0.689260
      10.670000       1.075093       0.412947       0.707968
      10.680000       1.088747       0.420833       0.725278
      10.690000       1.101099       0.428823       0.741467
      10.700000       1.111987       0.437027       0.756939
      10.710000       1.121239       0.445478       0.772196
      10.720000       1.128655       0.454066       0.787787
      10.730000       1.134023       0.462539       0.804242
      10.740000       1.137141       0.470565       0.822011
      10.750000       1.137866       0.477854       0.841409
      10.760000       1.136163       0.484271       0.862582
      10.770000       1.132141       0.489901       0.885476
      10.780000       1.126055       0.495015       0.909832
      10.790000       1.118255       0.499951       0.935206
      10.800000       1.109087       0.504932       0.961025
      10.810000       1.098778       0.509928       0.986660
      10.820000       1.087364       0.514589       1.011503
      10.830000       1.074679       0.518270       1.035033
      10.840000       1.060427       0.520114       1.056848
      10.850000       1.044300       0.519132       1.076672
      10.860000       1.026111       0.514266       1.094323
      10.870000       1.005922       0.504443       1.109668
      10.880000       0.984116       0.488653       1.122581
      10.890000       0.961408       0.466075       1.132904
      10.900000       0.938763       0.436255       1.140416
      10.910000       0.917225       0.399288       1.144784
      10.920000       0.897694       0.355952       1.145508
      10.930000       0.880741       0.307718       1.141865
      10.940000       0.866511       0.256619       1.132896
      10.950000       0.854758       0.204993       1.117448
      10.960000       0.845002       0.155168       1.094257
      10.970000       0.836720       0.109166       1.062066
      10.980000       0.829518       0.068484       1.019727
      10.990000       0.823208       0.033991       0.966282
      11.000000       0.817771       0.005933       0.901032
      11.010000       0.813264      -0.015966       0.823627
      11.020000       0.809710      -0.032342       0.734187
      11.030000       0.807061      -0.044006       0.633421
      11.040000       0.805216      -0.051757       0.522709
      11.050000       0.804094      -0.056237       0.404085
      11.060000       0.803697      -0.057851       0.280125
      11.070000       0.804123      -0.056785       0.153768
      11.080000       0.805535      -0.053107       0.028114
      11.090000       0.808094      -0.046909      -0.093746
      11.100000       0.811911      -0.038440      -0.208876
      11.110000       0.817026      -0.028183      -0.314621
      11.120000       0.823427      -0.016855      -0.408754
      11.130000       0.831064      -0.005340      -0.489645
      11.140000       0.839848       0.005414      -0.556414
      11.150000       0.849607       0.014513      -0.609007
      11.160000       0.860050       0.021225      -0.648153
      11.170000       0.870753       0.025053      -0.675213
      11.180000       0.881198       0.025770      -0.691971
      11.190000       0.890868       0.023413      -0.700404
      11.200000       0.899353       0.018236      -0.702487
      11.210000       0.906435       0.010648      -0.700025
      11.220000       0.912107       0.001139      -0.694518
      11.230000       0.916527      -0.009799      -0.687084
      11.240000       0.919929      -0.021747      -0.678437
      11.250000       0.922535      -0.034406      -0.668922
      11.260000       0.924516      -0.047623      -0.658609
      11.270000       0.925983      -0.061374      -0.647405
      11.280000       0.927029      -0.075730      -0.635173
      11.290000       0.927761      -0.090793      -0.621812
      11.300000       0.928342      -0.106652      -0.607305
      11.310000       0.928996      -0.123328      -0.591730
      11.320000       0.929978      -0.140757      -0.575240
      11.330000       0.931500      -0.158765      -0.558036
      11.340000       0.933647      -0.177048      -0.540348
      11.350000       0.936331      -0.195163      -0.522429
      11.360000       0.939298      -0.212536      -0.504562
      11.370000       0.942193      -0.228522      -0.487058
      11.380000       0.944649      -0.242511      -0.470229
      11.390000       0.946369      -0.254046      -0.454353
      11.400000       0.947189      -0.262923      -0.439633
      11.410000       0.947117      -0.269225      -0.426183
      11.420000       0.946334      -0.273284      -0.414047
      11.430000       0.945168      -0.275579      -0.403252
      11.440000       0.944025      -0.276611      -0.393865
      11.450000       0.943317      -0.276774      -0.386007
      11.460000       0.943392      -0.276272      -0.379813
      11.470000       0.944505      -0.275093      -0.375341
      11.480000       0.946816      -0.273050      -0.372495
      11.490000       0.950421      -0.269881      -0.371001
      11.500000       0.955393      -0.265357      -0.370474
      11.510000       0.961825      -0.259377      -0.370525
      11.520000       0.969851      -0.252009      -0.370875
      11.530000       0.979626      -0.243482      -0.371385
      11.540000       0.991256      -0.234139      -0.372026
      11.550000       1.004707      -0.224377      -0.372796
      11.560000       1.019723      -0.214586      -0.373658
      11.570000       1.035796      -0.205090      -0.374516
      11.580000       1.052215      -0.196114      -0.375253
      11.590000       1.068166      -0.187771      -0.375800
      11.600000       1.082875      -0.180060      -0.376201
      11.610000       1.095734      -0.172888      -0.376654
      11.620000       1.106391      -0.166080      -0.377505
      11.630000       1.114758      -0.159416      -0.379202
      11.640000       1.120946      -0.152667      -0.382211
      11.650000       1.125149      -0.145637      -0.386917
      11.660000       1.127523      -0.138205      -0.393531
      11.670000       1.128090      -0.130337      -0.402027
      11.680000       1.126692      -0.122082      -0.412122
      11.690000       1.122994      -0.113534      -0.423313
      11.700000       1.116497      -0.104791      -0.434953
      11.710000       1.106582      -0.095917      -0.446363
      11.720000       1.092580      -0.086941      -0.456952
      11.730000       1.073862      -0.077868      -0.466319
      11.740000       1.049937      -0.068706      -0.474318
      11.750000       1.020530      -0.059475      -0.481064
      11.760000       0.985604      -0.050215      -0.486879
      11.770000       0.945320      -0.040982      -0.492200
      11.780000       0.899961      -0.031844      -0.497474
      11.790000       0.849882      -0.022880      -0.503073
      11.800000       0.795509      -0.014167      -0.509233
      11.810000       0.737400      -0.005766      -0.516024
      11.820000       0.676316       0.002292      -0.523342
      11.830000       0.613263       0.010004      -0.530928
      11.840000       0.549491       0.017375      -0.538409
      11.850000       0.486465       0.024391      -0.545353
      11.860000       0.425828       0.031012      -0.551315
      11.870000       0.369341       0.037170      -0.555881
      11.880000       0.318777       0.042801      -0.558695
      11.890000       0.275752       0.047867      -0.559481
      11.900000       0.241516       0.052368      -0.558053
      11.910000       0.216775       0.056332      -0.554330
      11.920000       0.201616       0.059784      -0.548336
      11.930000       0.195577       0.062729      -0.540193
      11.940000       0.197816       0.065148      -0.530099
      11.950000       0.207302       0.067026      -0.518303
      11.960000       0.222956       0.068371      -0.505091
      11.970000       0.243732       0.069230      -0.490774
      11.980000       0.268629       0.069670      -0.475687
      11.990000       0.296698       0.069766      -0.460176
      12.000000       0.327027       0.069583      -0.444594
      12.010000       0.358734       0.069194      -0.429278
      12.020000       0.390953       0.068696      -0.414519
      12.030000       0.422805       0.068234      -0.400540
      12.040000       0.453388       0.067990      -0.387463
      12.050000       0.481783       0.068154      -0.375306
      12.060000       0.507080       0.068874      -0.363997
      12.070000       0.528419       0.070227      -0.353392
      12.080000       0.545034       0.072204      -0.343296
      12.090000       0.556259       0.074739      -0.333481
      12.100000       0.561522       0.077748      -0.323698
      12.110000       0.560345       0.081181      -0.313697
      12.120000       0.552392       0.085039      -0.303251
      12.130000       0.537569       0.089371      -0.292195
      12.140000       0.516143       0.094245      -0.280452
      12.150000       0.488831       0.099716      -0.268067
      12.160000       0.456781       0.105807      -0.255208
      12.170000       0.421491       0.112493      -0.242154
      12.180000       0.384671       0.119709      -0.229251
      12.190000       0.348128       0.127352      -0.216859
      12.200000       0.313666       0.135290      -0.205300
      12.210000       0.282993       0.143377      -0.194821
      12.220000       0.257595       0.151477      -0.185582
      12.230000       0.238593       0.159492      -0.177653
      12.240000       0.226615       0.167382      -0.171026
      12.250000       0.221757       0.175163      -0.165620
      12.260000       0.223638       0.182888      -0.161299
      12.270000       0.231537       0.190622      -0.157886
      12.280000       0.244562       0.198418      -0.155176
      12.290000       0.261780       0.206320      -0.152938
      12.300000       0.282321       0.214365      -0.150914
      12.310000       0.305417       0.222601      -0.148816
      12.320000       0.330414       0.231085      -0.146340
      12.330000       0.356764       0.239876      -0.143185
      12.340000       0.383999       0.249023      -0.139091
      12.350000       0.411715       0.258562      -0.133869
      12.360000       0.439559       0.268512      -0.127430
      12.370000       0.467207       0.278880      -0.119789
      12.380000       0.494346       0.289662      -0.111040
      12.390000       0.520640       0.300834      -0.101321
      12.400000       0.545697       0.312352      -0.090773
      12.410000       0.569042       0.324140      -0.079515
      12.420000       0.590111       0.336091      -0.067649
      12.430000       0.608282       0.348072      -0.055274
      12.440000       0.622936       0.359922      -0.042516
      12.450000       0.633557       0.371468      -0.029528
      12.460000       0.639845       0.382526      -0.016479
      12.470000       0.641816       0.392916      -0.003540
      12.480000       0.639856       0.402461       0.009136
      12.490000       0.634692       0.410994       0.021417
      12.500000       0.627261       0.418352       0.033175
      12.510000       0.618523       0.424380       0.044294
      12.520000       0.609276       0.428937       0.054668
      12.530000       0.600042       0.431901       0.064225
      12.540000       0.591051       0.433194       0.072949
      12.550000       0.582304       0.432798       0.080883
      12.560000       0.573660       0.430773       0.088124
      12.570000       0.564909       0.427267       0.094798
      12.580000       0.555799       0.422509       0.101029
      12.590000       0.546024       0.416795       0.106910
      12.600000       0.535204       0.410449       0.112487
      12.610000       0.522895       0.403793       0.117755
      12.620000       0.508631       0.397102       0.122673
      12.630000       0.491989       0.390567       0.127181
      12.640000       0.472639       0.384277       0.131217
      12.650000       0.450376       0.378209       0.134738
      12.660000       0.425148       0.372254       0.137726
      12.670000       0.397112       0.366268       0.140198
      12.680000       0.366725       0.360141       0.142204
      12.690000       0.334832       0.353857       0.143820
      12.700000       0.302694       0.347525       0.145130
      12.710000       0.271899       0.341362       0.146206
      12.720000       0.244152       0.335640       0.147092
      12.730000       0.220975       0.330618       0.147805
      12.740000       0.203427       0.326486       0.148338
      12.750000       0.191929       0.323339       0.148679
      12.760000       0.186253       0.321191       0.148819
      12.770000       0.185664       0.319996       0.148749
      12.780000       0.189143       0.319678       0.148456
      12.790000       0.195626       0.320155       0.147930
      12.800000       0.204185       0.321356       0.147174
      12.810000       0.214127       0.323230       0.146230
      12.820000       0.225007       0.325750       0.145195
      12.830000       0.236556       0.328903       0.144216
      12.840000       0.248581       0.332665       0.143469
      12.850000       0.260863       0.336977       0.143125
      12.860000       0.273104       0.341743       0.143321
      12.870000       0.284929       0.346840       0.144152
      12.880000       0.295942       0.352156       0.145670
      12.890000       0.305802       0.357611       0.147910
      12.900000       0.314299       0.363173       0.150895
      12.910000       0.321392       0.368843       0.154637
      12.920000       0.327213       0.374641       0.159115
      12.930000       0.332035       0.380580       0.164242
      12.940000       0.336225       0.386666       0.169837
      12.950000       0.340174       0.392897       0.175607
      12.960000       0.344240       0.399280       0.181167
      12.970000       0.348687       0.405827       0.186084
      12.980000       0.353669       0.412551       0.189939
      12.990000       0.359240       0.419433       0.192406
      13.000000       0.365393       0.426395       0.193311
      13.010000       0.372096       0.433269       0.192671
      13.020000       0.379317       0.439784       0.190687
      13.030000       0.387014       0.445589       0.187705
      13.040000       0.395109       0.450287       0.184143
      13.050000       0.403447       0.453497       0.180418
      13.060000       0.411782       0.454915       0.176870
      13.070000       0.419778       0.454359       0.173738
      13.080000       0.427075       0.451790       0.171145
      13.090000       0.433368       0.447302       0.169124
      13.100000       0.438494       0.441104       0.167648
      13.110000       0.442479       0.433494       0.166657
      13.120000       0.445509       0.424851       0.166086
      13.130000       0.447845       0.415628       0.165881
      13.140000       0.449708       0.406331       0.166015
      13.150000       0.451176       0.397478       0.166484
      13.160000       0.452140       0.389543       0.167306
      13.170000       0.452319       0.382903       0.168503
      13.180000       0.451333       0.377812       0.170082
      13.190000       0.448792       0.374410       0.172037
      13.200000       0.444369       0.372753       0.174359
      13.210000       0.437846       0.372850       0.177061
      13.220000       0.429099       0.374669       0.180202
      13.230000       0.418056       0.378127       0.183892
      13.240000       0.404631       0.383056       0.188273
      13.250000       0.388674       0.389190       0.193488
      13.260000       0.369982       0.396167       0.199645
      13.270000       0.348359       0.403569       0.206786
      13.280000       0.323728       0.410963       0.214872
      13.290000       0.296250       0.417953       0.223790
      13.300000       0.266403       0.424212       0.233369
      13.310000       0.234994       0.429496       0.243405
      13.320000       0.203111       0.433643       0.253686
      13.330000       0.172000       0.436559       0.264011
      13.340000       0.142927       0.438217       0.274201
      13.350000       0.117018       0.438661       0.284089
      13.360000       0.095142       0.438008       0.293509
      13.370000       0.077841       0.436437       0.302291
      13.380000       0.065311       0.434172       0.310258
      13.390000       0.057430       0.431438       0.317247
      13.400000       0.053815       0.428432       0.323132
      13.410000       0.053892       0.425310       0.327846
      13.420000       0.056978       0.422197       0.331391
      13.430000       0.062370       0.419220       0.333844
      13.440000       0.069417       0.416536       0.335329
      13.450000       0.077575       0.414347       0.335994
      13.460000       0.086427       0.412871       0.335981
      13.470000       0.095672       0.412297       0.335410
      13.480000       0.105093       0.412743       0.334383
      13.490000       0.114524       0.414236       0.333008
      13.500000       0.123825       0.416723       0.331420
      13.510000       0.132890       0.420104       0.329794
      13.520000       0.141676       0.424260       0.328339
      13.530000       0.150219       0.429065       0.327280
      13.540000       0.158630       0.434374       0.326824
      13.550000       0.167057       0.440000       0.327147
      13.560000       0.175621       0.445701       0.328373
      13.570000       0.184386       0.451192       0.330569
      13.580000       0.193346       0.456182       0.333737
      13.590000       0.202462       0.460423       0.337799
      13.600000       0.211710       0.463754       0.342602
      13.610000       0.221102       0.466128       0.347923
      13.620000       0.230692       0.467614       0.353493
      13.630000       0.240525       0.468363       0.359032
      13.640000       0.250598       0.468568       0.364285
      13.650000       0.260820       0.468408       0.369051
      13.660000       0.271007       0.468018       0.373210
      13.670000       0.280907       0.467466       0.376728
      13.680000       0.290232       0.466752       0.379669
      13.690000       0.298713       0.465826       0.382182
      13.700000       0.306148       0.464614       0.384494
      13.710000       0.312451       0.463053       0.386874
      13.720000       0.317679       0.461117       0.389594
      13.730000       0.322031       0.458839       0.392888
      13.740000       0.325801       0.456307       0.396913
      13.750000       0.329314       0.453651       0.401734
      13.760000       0.332848       0.451025       0.407326
      13.770000       0.336579       0.448598       0.413589
      13.780000       0.340562       0.446545       0.420377
      13.790000       0.344753       0.445044       0.427521
      13.800000       0.349041       0.444253       0.434852
      13.810000       0.353297       0.444285       0.442221
      13.820000       0.357395       0.445178       0.449505
      13.830000       0.361225       0.446879       0.456608
      13.840000       0.364680       0.449250       0.463461
      13.850000       0.367650       0.452093       0.470015
      13.860000       0.370031       0.455193       0.476242
      13.870000       0.371758       0.458366       0.482131
      13.880000       0.372835       0.461508       0.487694
      13.890000       0.373359       0.464620       0.492962
      13.900000       0.373507       0.467806       0.497980
      13.910000       0.373483       0.471240       0.502809
      13.920000       0.373452       0.475103       0.507518
      13.930000       0.373475       0.479523       0.512174
      13.940000       0.373483       0.484535       0.516845
      13.950000       0.373278       0.490066       0.521579
      13.960000       0.372563       0.495965       0.526408
      13.970000       0.370980       0.502037       0.531333
      13.980000       0.368143       0.508086       0.536333
      13.990000       0.363678       0.513944       0.541372
      14.000000       0.357275       0.519479       0.546411
      14.010000       0.348767       0.524589       0.551425
      14.020000       0.338202       0.529193       0.556403
      14.030000       0.325880       0.533221       0.561359
      14.040000       0.312320       0.536612       0.566318
      14.050000       0.298152       0.539326       0.571314
      14.060000       0.283981       0.541360       0.576369
      14.070000       0.270272       0.542762       0.581488
      14.080000       0.257308       0.543643       0.586641
      14.090000       0.245216       0.544169       0.591763
      14.100000       0.234020       0.544535       0.596754
      14.110000       0.223702       0.544936       0.601501
      14.120000       0.214224       0.545535       0.605892
      14.130000       0.205529       0.546445       0.609838
      14.140000       0.197539       0.547726       0.613280
      14.150000       0.190152       0.549389       0.616187
      14.160000       0.183267       0.551398       0.618543
      14.170000       0.176817       0.553682       0.620337
      14.180000       0.170817       0.556141       0.621555
      14.190000       0.165384       0.558662       0.622180
      14.200000       0.160730       0.561135       0.622197
      14.210000       0.157126       0.563471       0.621599
      14.220000       0.154854       0.565618       0.620391
      14.230000       0.154155       0.567552       0.618596
      14.240000       0.155194       0.569274       0.616265
      14.250000       0.158026       0.570774       0.613482
      14.260000       0.162589       0.572019       0.610368
      14.270000       0.168696       0.572946       0.607072
      14.280000       0.176071       0.573480       0.603751
      14.290000       0.184383       0.573567       0.600541
      14.300000       0.193288       0.573193       0.597542
      14.310000       0.202468       0.572379       0.594797
      14.320000       0.211653       0.571153       0.592301
      14.330000       0.220645       0.569503       0.589998
      14.340000       0.229323       0.567361       0.587803
      14.350000       0.237647       0.564599       0.585605
      14.360000       0.245635       0.561064       0.583291
      14.370000       0.253329       0.556612       0.580752
      14.380000       0.260763       0.551142       0.577897
      14.390000       0.267933       0.544613       0.574638
      14.400000       0.274795       0.537057       0.570888
      14.410000       0.281285       0.528578       0.566535
      14.420000       0.287349       0.519360       0.561442
      14.430000       0.292981       0.509650       0.555448
      14.440000       0.298238       0.499734       0.548394
      14.450000       0.303234       0.489903       0.540155
      14.460000       0.308118       0.480422       0.530676
      14.470000       0.313038       0.471521       0.519995
      14.480000       0.318118       0.463400       0.508249
      14.490000       0.323428       0.456242       0.495665
      14.500000       0.328969       0.450206       0.482538
      14.510000       0.334665       0.445414       0.469194
      14.520000       0.340374       0.441941       0.455955
      14.530000       0.345923       0.439801       0.443103
      14.540000       0.351154       0.438953       0.430873
      14.550000       0.355964       0.439315       0.419451
      14.560000       0.360337       0.440766       0.408996
      14.570000       0.364321       0.443149       0.399660
      14.580000       0.367996       0.446267       0.391586
      14.590000       0.371407       0.449873       0.384896
      14.600000       0.374528       0.453683       0.379669
      14.610000       0.377250       0.457398       0.375922
      14.620000       0.379406       0.460734       0.373609
      14.630000       0.380825       0.463461       0.372627
      14.640000       0.381379       0.465428       0.372835
      14.650000       0.381014       0.466572       0.374081
      14.660000       0.379754       0.466911       0.376224
      14.670000       0.377685       0.466531       0.379145
      14.680000       0.374921       0.465559       0.382758
      14.690000       0.371570       0.464148       0.387001
      14.700000       0.367703       0.462455       0.391828
      14.710000       0.363334       0.460632       0.397193
      14.720000       0.358414       0.458833       0.403036
      14.730000       0.352863       0.457228       0.409283
      14.740000       0.346611       0.456011       0.415845
      14.750000       0.339663       0.455402       0.422633
      14.760000       0.332134       0.455615       0.429567
      14.770000       0.324263       0.456816       0.436588
      14.780000       0.316390       0.459087       0.443665
      14.790000       0.308906       0.462401       0.450793
      14.800000       0.302203       0.466629       0.457990
      14.810000       0.296610       0.471551       0.465284
      14.820000       0.292345       0.476880       0.472705
      14.830000       0.289483       0.482285       0.480266
      14.840000       0.287959       0.487415       0.487966
      14.850000       0.287598       0.491926       0.495782
      14.860000       0.288177       0.495518       0.503679
      14.870000       0.289488       0.497961       0.511609
      14.880000       0.291381       0.499120       0.519518
      14.890000       0.293774       0.498965       0.527343
      14.900000       0.296637       0.497559       0.535005
      14.910000       0.299943       0.495020       0.542417
      14.920000       0.303645       0.491469       0.549479
      14.930000       0.307655       0.486970       0.556094
      14.940000       0.311855       0.481504       0.562178
      14.950000       0.316111       0.474970       0.567682
      14.960000       0.320278       0.467231       0.572601
      14.970000       0.324208       0.458178       0.576990
      14.980000       0.327736       0.447810       0.580956
      14.990000       0.330681       0.436287       0.584649
      15.000000       0.332850       0.423967       0.588236
      15.010000       0.334072       0.411379       0.591881
      15.020000       0.334234       0.399143       0.595723
      15.030000       0.333319       0.387861       0.599872
      15.040000       0.331434       0.377992       0.604404
      15.050000       0.328805       0.369791       0.609367
      15.060000       0.325753       0.363304       0.614780
      15.070000       0.322660       0.358429       0.620632
      15.080000       0.319927       0.354999       0.626882
      15.090000       0.317939       0.352847       0.633459
      15.100000       0.317014       0.351836       0.640266
      15.110000       0.317371       0.351842       0.647183
      15.120000       0.319102       0.352713       0.654080
      15.130000       0.322176       0.354240       0.660823
      15.140000       0.326468       0.356142       0.667291
      15.150000       0.331797       0.358096       0.673383
      15.160000       0.337960       0.359780       0.679025
      15.170000       0.344758       0.360927       0.684164
      15.180000       0.352000       0.361367       0.688765
      15.190000       0.359509       0.361050       0.692798
      15.200000       0.367111       0.360032       0.696241
      15.210000       0.374645       0.358431       0.699079
      15.220000       0.381957       0.356366       0.701314
      15.230000       0.388918       0.353901       0.702974
      15.240000       0.395429       0.351020       0.704128
      15.250000       0.401430       0.347640       0.704890
      15.260000       0.406908       0.343655       0.705427
      15.270000       0.411881       0.338994       0.705953
      15.280000       0.416388       0.333666       0.706715
      15.290000       0.420463       0.327790       0.707961
      15.300000       0.424127       0.321585       0.709919
      15.310000       0.427380       0.315349       0.712761
      15.320000       0.430219       0.309414       0.716589
      15.330000       0.432649       0.304102       0.721420
      15.340000       0.434691       0.299682       0.727186
      15.350000       0.436371       0.296334       0.733741
      15.360000       0.437699       0.294130       0.740881
      15.370000       0.438642       0.293031       0.748366
      15.380000       0.439126       0.292909       0.755946
      15.390000       0.439046       0.293575       0.763385
      15.400000       0.438294       0.294822       0.770474
      15.410000       0.436786       0.296455       0.777034
      15.420000       0.434483       0.298319       0.782905
      15.430000       0.431395       0.300308       0.787933
      15.440000       0.427582       0.302360       0.791951
      15.450000       0.423149       0.304445       0.794759
      15.460000       0.418231       0.306552       0.796119
      15.470000       0.412989       0.308676       0.795751
      15.480000       0.407585       0.310813       0.793340
      15.490000       0.402176       0.312958       0.788566
      15.500000       0.396899       0.315098       0.781140
      15.510000       0.391885       0.317202       0.770843
      15.520000       0.387264       0.319213       0.757566
      15.530000       0.383177       0.321045       0.741336
      15.540000       0.379764       0.322579       0.722341
      15.550000       0.377144       0.323677       0.700933
      15.560000       0.375385       0.324203       0.677623
      15.570000       0.374485       0.324051       0.653041
      15.580000       0.374376       0.323181       0.627887
      15.590000       0.374926       0.321642       0.602859
      15.600000       0.375961       0.319566       0.578583
      15.610000       0.377281       0.317150       0.555558
      15.620000       0.378681       0.314613       0.534135
      15.630000       0.379961       0.312155       0.514507
      15.640000       0.380955       0.309922       0.496740
      15.650000       0.381562       0.307999       0.480790
      15.660000       0.381778       0.306418       0.466538
      15.670000       0.381712       0.305186       0.453812
      15.680000       0.381568       0.304305       0.442414
      15.690000       0.381591       0.303780       0.432141
      15.700000       0.381999       0.303617       0.422810
      15.710000       0.382934       0.303810       0.414268
      15.720000       0.384444       0.304317       0.406404
      15.730000       0.386501       0.305048       0.399153
      15.740000       0.389030       0.305859       0.392497
      15.750000       0.391934       0.306553       0.386449
      15.760000       0.395124       0.306907       0.381029
      15.770000       0.398518       0.306700       0.376242
      15.780000       0.402051       0.305747       0.372060
      15.790000       0.405671       0.303931       0.368421
      15.800000       0.409327       0.301223       0.365233
      15.810000       0.412975       0.297697       0.362394
      15.820000       0.416580       0.293514       0.359800
      15.830000       0.420127       0.288900       0.357368
      15.840000       0.423616       0.284102       0.355041
      15.850000       0.427059       0.279354       0.352797
      15.860000       0.430451       0.274852       0.350651
      15.870000       0.433757       0.270748       0.348648
      15.880000       0.436901       0.267146       0.346854
      15.890000       0.439788       0.264106       0.345348
      15.900000       0.442322       0.261639       0.344205
      15.910000       0.444441       0.259719       0.343474
      15.920000       0.446131       0.258292       0.343165
      15.930000       0.447438       0.257285       0.343240
      15.940000       0.448458       0.256621       0.343616
      15.950000       0.449320       0.256225       0.344184
      15.960000       0.450159       0.256039       0.344824
      15.970000       0.451099       0.256028       0.345427
      15.980000       0.452235       0.256192       0.345909
      15.990000       0.453625       0.256565       0.346213
      16.000000       0.455283       0.257211       0.346318
      16.010000       0.457171       0.258214       0.346228
      16.020000       0.459201       0.259664       0.345975
      16.030000       0.461239       0.261644       0.345606
      16.040000       0.463130       0.264213       0.345181
      16.050000       0.464720       0.267398       0.344763
      16.060000       0.465883       0.271182       0.344424
      16.070000       0.466527       0.275510       0.344249
      16.080000       0.466600       0.280293       0.344342
      16.090000       0.466082       0.285417       0.344816
      16.100000       0.464984       0.290755       0.345779
      16.110000       0.463349       0.296174       0.347302
      16.120000       0.461263       0.301549       0.349401
      16.130000       0.458855       0.306761       0.352028
      16.140000       0.456288       0.311704       0.355084
      16.150000       0.453736       0.316285       0.358447
      16.160000       0.451362       0.320434       0.361996
      16.170000       0.449299       0.324115       0.365638
      16.180000       0.447630       0.327325       0.369314
      16.190000       0.446378       0.330102       0.372998
      16.200000       0.445504       0.332511       0.376691
      16.210000       0.444905       0.334626       0.380401
      16.220000       0.444427       0.336519       0.384135
      16.230000       0.443885       0.338249       0.387882
      16.240000       0.443086       0.339860       0.391607
      16.250000       0.441845       0.341381       0.395249
      16.260000       0.440003       0.342830       0.398729
      16.270000       0.437436       0.344213       0.401966
      16.280000       0.434075       0.345522       0.404900
      16.290000       0.429923       0.346736       0.407507
      16.300000       0.425073       0.347823       0.409807
      16.310000       0.419699       0.348742       0.411864
      16.320000       0.414050       0.349450       0.413773
      16.330000       0.408425       0.349915       0.415636
      16.340000       0.403162       0.350120       0.417549
      16.350000       0.398620       0.350067       0.419574
      16.360000       0.395147       0.349788       0.421741
      16.370000       0.393033       0.349332       0.424043
      16.380000       0.392461       0.348756       0.426451
      16.390000       0.393474       0.348112       0.428929
      16.400000       0.395973       0.347438       0.431451
      16.410000       0.399742       0.346760       0.434010
      16.420000       0.404500       0.346102       0.436623
      16.430000       0.409942       0.345493       0.439321
      16.440000       0.415771       0.344976       0.442137
      16.450000       0.421712       0.344597       0.445089
      16.460000       0.427509       0.344402       0.448180
      16.470000       0.432914       0.344413       0.451388
      16.480000       0.437684       0.344619       0.454681
      16.490000       0.441584       0.344968       0.458020
      16.500000       0.444404       0.345380       0.461370
      16.510000       0.445981       0.345762       0.464702
      16.520000       0.446230       0.346038       0.467998
      16.530000       0.445156       0.346177       0.471252
      16.540000       0.442862       0.346203       0.474474
      16.550000       0.439536       0.346198       0.477694
      16.560000       0.435431       0.346285       0.480954
      16.570000       0.430836       0.346598       0.484309
      16.580000       0.426056       0.347257       0.487807
      16.590000       0.421392       0.348345       0.491487
      16.600000       0.417121       0.349898       0.495366
      16.610000       0.413484       0.351900       0.499439
      16.620000       0.410666       0.354287       0.503680
      16.630000       0.408782       0.356958       0.508042
      16.640000       0.407868       0.359789       0.512459
      16.650000       0.407881       0.362642       0.516853
      16.660000       0.408710       0.365383       0.521140
      16.670000       0.410193       0.367893       0.525238
      16.680000       0.412135       0.370082       0.529082
      16.690000       0.414339       0.371905       0.532623
      16.700000       0.416632       0.373367       0.535832
      16.710000       0.418896       0.374530       0.538696
      16.720000       0.421081       0.375499       0.541214
      16.730000       0.423207       0.376405       0.543393
      16.740000       0.425333       0.377381       0.545242
      16.750000       0.427529       0.378539       0.546778
      16.760000       0.429838       0.379956       0.548021
      16.770000       0.432253       0.381668       0.549005
      16.780000       0.434718       0.383673       0.549771
      16.790000       0.437143       0.385942       0.550365
      16.800000       0.439420       0.388423       0.550831
      16.810000       0.441458       0.391058       0.551211
      16.820000       0.443195       0.393787       0.551534
      16.830000       0.444611       0.396558       0.551833
      16.840000       0.445735       0.399335       0.552143
      16.850000       0.446634       0.402097       0.552506
      16.860000       0.447386       0.404842       0.552973
      16.870000       0.448067       0.407572       0.553593
      16.880000       0.448721       0.410295       0.554403
      16.890000       0.449357       0.413011       0.555422
      16.900000       0.449955       0.415714       0.556653
      16.910000       0.450487       0.418388       0.558084
      16.920000       0.450935       0.421014       0.559700
      16.930000       0.451311       0.423573       0.561483
      16.940000       0.451655       0.426055       0.563409
      16.950000       0.452020       0.428459       0.565445
      16.960000       0.452448       0.430796       0.567551
      16.970000       0.452942       0.433082       0.569678
      16.980000       0.453448       0.435323       0.571777
      16.990000       0.453865       0.437515       0.573801
      17.000000       0.454064       0.439636       0.575720
      17.010000       0.453923       0.441652       0.577520
      17.020000       0.453352       0.443523       0.579208
      17.030000       0.452312       0.445214       0.580810
      17.040000       0.450810       0.446701       0.582368
      17.050000       0.448892       0.447972       0.583925
      17.060000       0.446632       0.449028       0.585519
      17.070000       0.444125       0.449884       0.587172
      17.080000       0.441474       0.450570       0.588888
      17.090000       0.438784       0.451122       0.590656
      17.100000       0.436159       0.451587       0.592455
      17.110000       0.433707       0.452007       0.594259
      17.120000       0.431545       0.452420       0.596045
      17.130000       0.429810       0.452846       0.597793
      17.140000       0.428650       0.453294       0.599485
      17.150000       0.428205       0.453757       0.601113
      17.160000       0.428578       0.454221       0.602675
      17.170000       0.429807       0.454674       0.604181
      17.180000       0.431852       0.455111       0.605651
      17.190000       0.434581       0.455547       0.607111
      17.200000       0.437789       0.456016       0.608588
      17.210000       0.441217       0.456567       0.610111
      17.220000       0.444580       0.457254       0.611700
      17.230000       0.447598       0.458121       0.613367
      17.240000       0.450005       0.459187       0.615111
      17.250000       0.451565       0.460435       0.616919
      17.260000       0.452061       0.461814       0.618767
      17.270000       0.451298       0.463247       0.620625
      17.280000       0.449105       0.464647       0.622461
      17.290000       0.445355       0.465933       0.624246
      17.300000       0.440004       0.467050       0.625960
      17.310000       0.433136       0.467970       0.627592
      17.320000       0.424993       0.468700       0.629142
      17.330000       0.415976       0.469268       0.630616
      17.340000       0.406614       0.469712       0.632021
      17.350000       0.397489       0.470072       0.633357
      17.360000       0.389153       0.470380       0.634622
      17.370000       0.382047       0.470660       0.635809
      17.380000       0.376446       0.470931       0.636918
      17.390000       0.372451       0.471209       0.637959
      17.400000       0.370005       0.471510       0.638961
      17.410000       0.368940       0.471850       0.639972
      17.420000       0.369030       0.472240       0.641050
      17.430000       0.370038       0.472692       0.642253
      17.440000       0.371757       0.473213       0.643626
      17.450000       0.374028       0.473819       0.645193
      17.460000       0.376740       0.474524       0.646951
      17.470000       0.379826       0.475346       0.648871
      17.480000       0.383231       0.476297       0.650907
      17.490000       0.386899       0.477378       0.653002
      17.500000       0.390755       0.478573       0.655093
      17.510000       0.394704       0.479854       0.657125
      17.520000       0.398645       0.481188       0.659052
      17.530000       0.402477       0.482552       0.660845
      17.540000       0.406111       0.483939       0.662492
      17.550000       0.409474       0.485357       0.664004
      17.560000       0.412508       0.486825       0.665405
      17.570000       0.415169       0.488365       0.666730
      17.580000       0.417441       0.489987       0.668017
      17.590000       0.419334       0.491688       0.669299
      17.600000       0.420906       0.493451       0.670595
      17.610000       0.422258       0.495248       0.671914
      17.620000       0.423523       0.497050       0.673248
      17.630000       0.424840       0.498828       0.674582
      17.640000       0.426315       0.500562       0.675898
      17.650000       0.427996       0.502233       0.677185
      17.660000       0.429856       0.503834       0.678439
      17.670000       0.431806       0.505362       0.679667
      17.680000       0.433713       0.506820       0.680885
      17.690000       0.435430       0.508217       0.682109
      17.700000       0.436821       0.509560       0.683354
      17.710000       0.437777       0.510853       0.684621
      17.720000       0.438220       0.512094       0.685901
      17.730000       0.438100       0.513274       0.687172
      17.740000       0.437394       0.514383       0.688406
      17.750000       0.436107       0.515411       0.689581
      17.760000       0.434285       0.516352       0.690684
      17.770000       0.432019       0.517204       0.691719
      17.780000       0.429450       0.517969       0.692703
      17.790000       0.426747       0.518651       0.693661
      17.800000       0.424083       0.519250       0.694627
      17.810000       0.421597       0.519758       0.695630
      17.820000       0.419371       0.520157       0.696700
      17.830000       0.417434       0.520416       0.697859
      17.840000       0.415782       0.520502       0.699119
      17.850000       0.414411       0.520389       0.700483
      17.860000       0.413340       0.520068       0.701942
      17.870000       0.412621       0.519551       0.703480
      17.880000       0.412325       0.518871       0.705082
      17.890000       0.412522       0.518072       0.706730
      17.900000       0.413254       0.517206       0.708417
      17.910000       0.414524       0.516326       0.710140
      17.920000       0.416295       0.515484       0.711902
      17.930000       0.418497       0.514732       0.713709
      17.940000       0.421040       0.514121       0.715564
      17.950000       0.423833       0.513699       0.717470
      17.960000       0.426796       0.513507       0.719423
      17.970000       0.429869       0.513575       0.721420
      17.980000       0.433019       0.513915       0.723451
      17.990000       0.436226       0.514522       0.725508
      18.000000       0.439479       0.515371       0.727583
      18.010000       0.442761       0.516425       0.729669
      18.020000       0.446048       0.517636       0.731758
      18.030000       0.449310       0.518961       0.733844
      18.040000       0.452514       0.520361       0.735922
      18.050000       0.455633       0.521807       0.737984
      18.060000       0.458645       0.523275       0.740024
      18.070000       0.461535       0.524745       0.742032
      18.080000       0.464295       0.526192       0.744000
      18.090000       0.466922       0.527586       0.745920
      18.100000       0.469420       0.528892       0.747790
      18.110000       0.471808       0.530072       0.749611
      18.120000       0.474123       0.531086       0.751397
      18.130000       0.476422       0.531902       0.753166
      18.140000       0.478775       0.532497       0.754942
      18.150000       0.481252       0.532860       0.756749
      18.160000       0.483907       0.532992       0.758606
      18.170000       0.486761       0.532910       0.760525
      18.180000       0.489795       0.532645       0.762510
      18.190000       0.492947       0.532243       0.764558
      18.200000       0.496123       0.531761       0.766660
      18.210000       0.499204       0.531259       0.768806
      18.220000       0.502066       0.530795       0.770979
      18.230000       0.504583       0.530412       0.773167
      18.240000       0.506638       0.530143       0.775354
      18.250000       0.508130       0.530005       0.777529
      18.260000       0.508973       0.530008       0.779682
      18.270000       0.509098       0.530158       0.781810
      18.280000       0.508464       0.530461       0.783915
      18.290000       0.507061       0.530926       0.785999
      18.300000       0.504926       0.531562       0.788064
      18.310000       0.502145       0.532377       0.790110
      18.320000       0.498850       0.533368       0.792132
      18.330000       0.495205       0.534524       0.794122
      18.340000       0.491385       0.535823       0.796072
      18.350000       0.487564       0.537235       0.797978
      18.360000       0.483896       0.538725       0.799841
      18.370000       0.480508       0.540255       0.801671
      18.380000       0.477499       0.541786       0.803480
      18.390000       0.474923       0.543274       0.805288
      18.400000       0.472790       0.544670       0.807116
      18.410000       0.471062       0.545927       0.808985
      18.420000       0.469660       0.546999       0.810918
      18.430000       0.468485       0.547854       0.812936
      18.440000       0.467444       0.548478       0.815057
      18.450000       0.466473       0.548881       0.817292
      18.460000       0.465551       0.549095       0.819649
      18.470000       0.464697       0.549173       0.822129
      18.480000       0.463951       0.549183       0.824727
      18.490000       0.463351       0.549189       0.827436
      18.500000       0.462921       0.549251       0.830246
      18.510000       0.462666       0.549407       0.833148
      18.520000       0.462581       0.549677       0.836131
      18.530000       0.462663       0.550066       0.839186
      18.540000       0.462923       0.550565       0.842301
      18.550000       0.463377       0.551162       0.845465
      18.560000       0.464045       0.551844       0.848666
      18.570000       0.464940       0.552596       0.851891
      18.580000       0.466058       0.553401       0.855128
      18.590000       0.467386       0.554242       0.858364
      18.600000       0.468909       0.555099       0.861581
      18.610000       0.470615       0.555956       0.864761
      18.620000       0.472496       0.556796       0.867878
      18.630000       0.474545       0.557607       0.870901
      18.640000       0.476751       0.558376       0.873797
      18.650000       0.479092       0.559091       0.876529
      18.660000       0.481541       0.559738       0.879062
      18.670000       0.484061       0.560305       0.881367
      18.680000       0.486620       0.560782       0.883429
      18.690000       0.489192       0.561168       0.885246
      18.700000       0.491762       0.561471       0.886831
      18.710000       0.494326       0.561706       0.888203
      18.720000       0.496888       0.561892       0.889376
      18.730000       0.499449       0.562046       0.890349
      18.740000       0.502002       0.562179       0.891108
      18.750000       0.504526       0.562292       0.891622
      18.760000       0.506989       0.562378       0.891858
      18.770000       0.509355       0.562432       0.891785
      18.780000       0.511593       0.562447       0.891398
      18.790000       0.513689       0.562427       0.890718
      18.800000       0.515649       0.562382       0.889806
      18.810000       0.517496       0.562331       0.888753
      18.820000       0.519263       0.562294       0.887668
      18.830000       0.520979       0.562293       0.886660
      18.840000       0.522662       0.562344       0.885823
      18.850000       0.524310       0.562461       0.885227
      18.860000       0.525909       0.562650       0.884919
      18.870000       0.527442       0.562912       0.884929
      18.880000       0.528901       0.563250       0.885277
      18.890000       0.530287       0.563661       0.885982
      18.900000       0.531623       0.564146       0.887061
      18.910000       0.532939       0.564704       0.888530
      18.920000       0.534269       0.565332       0.890392
      18.930000       0.535642       0.566024       0.892640
      18.940000       0.537071       0.566772       0.895246
      18.950000       0.538557       0.567568       0.898161
      18.960000       0.540082       0.568405       0.901320
      18.970000       0.541625       0.569281       0.904644
      18.980000       0.543160       0.570197       0.908045
      18.990000       0.544672       0.571157       0.911426
      19.000000       0.546154       0.572165       0.914687
      19.010000       0.547613       0.573226       0.917725
      19.020000       0.549059       0.574342       0.920439
      19.030000       0.550493       0.575515       0.922735
      19.040000       0.551905       0.576739       0.924523
      19.050000       0.553269       0.578005       0.925722
      19.060000       0.554550       0.579293       0.926260
      19.070000       0.555720       0.580580       0.926086
      19.080000       0.556771       0.581844       0.925178
      19.090000       0.557724       0.583061       0.923568
      19.100000       0.558629       0.584219       0.921339
      19.110000       0.559551       0.585312       0.918628
      19.120000       0.560551       0.586345       0.915601
      19.130000       0.561661       0.587323       0.912431
      19.140000       0.562871       0.588257       0.909268
      19.150000       0.564123       0.589156       0.906226
      19.160000       0.565318       0.590026       0.903371
      19.170000       0.566332       0.590875       0.900724
      19.180000       0.567036       0.591708       0.898270
      19.190000       0.567326       0.592536       0.895985
      19.200000       0.567133       0.593371       0.893850
      19.210000       0.566447       0.594231       0.891867
      19.220000       0.565307       0.595131       0.890067
      19.230000       0.563796       0.596087       0.888497
      19.240000       0.562019       0.597108       0.887207
      19.250000       0.560087       0.598195       0.886231
      19.260000       0.558097       0.599340       0.885568
      19.270000       0.556128       0.600532       0.885176
      19.280000       0.554234       0.601754       0.884962
      19.290000       0.552444       0.602990       0.884802
      19.300000       0.550762       0.604224       0.884549
      19.310000       0.549177       0.605445       0.884064
      19.320000       0.547672       0.606642       0.883241
      19.330000       0.546237       0.607808       0.882026
      19.340000       0.544878       0.608935       0.880423
      19.350000       0.543630       0.610019       0.878493
      19.360000       0.542552       0.611055       0.876330
      19.370000       0.541724       0.612037       0.874045
      19.380000       0.541227       0.612960       0.871734
      19.390000       0.541122       0.613818       0.869460
      19.400000       0.541436       0.614602       0.867234
      19.410000       0.542156       0.615299       0.865016
      19.420000       0.543229       0.615890       0.862729
      19.430000       0.544583       0.616354       0.860290
      19.440000       0.546130       0.616670       0.857645
      19.450000       0.547780       0.616814       0.854797
      19.460000       0.549449       0.616771       0.851817
      19.470000       0.551059       0.616531       0.848822
      19.480000       0.552540       0.616097       0.845945
      19.490000       0.553839       0.615492       0.843293
      19.500000       0.554918       0.614757       0.840918
      19.510000       0.555764       0.613953       0.838805
      19.520000       0.556392       0.613153       0.836879
      19.530000       0.556842       0.612435       0.835020
      19.540000       0.557172       0.611864       0.833093
      19.550000       0.557448       0.611489       0.830966
      19.560000       0.557727       0.611331       0.828538
      19.570000       0.558051       0.611386       0.825755
      19.580000       0.558445       0.611630       0.822613
      19.590000       0.558921       0.612028       0.819160
      19.600000       0.559487       0.612537       0.815480
      19.610000       0.560149       0.613119       0.811675
      19.620000       0.560909       0.613736       0.807846
      19.630000       0.561768       0.614359       0.804080
      19.640000       0.562721       0.614960       0.800440
      19.650000       0.563755       0.615523       0.796971
      19.660000       0.564857       0.616037       0.793708
      19.670000       0.566007       0.616496       0.790682
      19.680000       0.567188       0.616900       0.787931
      19.690000       0.568378       0.617249       0.785494
      19.700000       0.569558       0.617542       0.783406
      19.710000       0.570708       0.617775       0.781689
      19.720000       0.571812       0.617950       0.780345
      19.730000       0.572862       0.618069       0.779348
      19.740000       0.573854       0.618144       0.778646
      19.750000       0.574792       0.618190       0.778166
      19.760000       0.575679       0.618222       0.777822
      19.770000       0.576523       0.618257       0.777532
      19.780000       0.577330       0.618302       0.777236
      19.790000       0.578113       0.618363       0.776908
      19.800000       0.578892       0.618443       0.776560
      19.810000       0.579692       0.618543       0.776232
      19.820000       0.580542       0.618663       0.775980
      19.830000       0.581471       0.618805       0.775848
      19.840000       0.582499       0.618971       0.775859
      19.850000       0.583637       0.619163       0.776004
      19.860000       0.584885       0.619389       0.776252
      19.870000       0.586231       0.619654       0.776564
      19.880000       0.587648       0.619965       0.776905
      19.890000       0.589098       0.620328       0.777250
      19.900000       0.590526       0.620740       0.777581
      19.910000       0.591865       0.621192       0.777887
      19.920000       0.593036       0.621664       0.778161
      19.930000       0.593961       0.622126       0.778402
      19.940000       0.594571       0.622545       0.778615
      19.950000       0.594820       0.622888       0.778804
      19.960000       0.594698       0.623136       0.778967
      19.970000       0.594229       0.623280       0.779085
      19.980000       0.593470       0.623334       0.779120
      19.990000       0.592502       0.623328       0.779023
      20.000000       0.591410       0.623303       0.778747
