  # energy grid [eV]     epsi_x  epsi_y  epsi_z
       0.000000            NaN            NaN            NaN
       0.010000       0.236085       0.003736       0.167227
       0.020000       0.473476       0.007500       0.219158
       0.030000       0.713496       0.011317       0.259792
       0.040000       0.957504       0.015217       0.299712
       0.050000       1.206913       0.019230       0.336117
       0.060000       1.463211       0.023389       0.366137
       0.070000       1.727981       0.027727       0.387941
       0.080000       2.002927       0.032284       0.400748
       0.090000       2.289899       0.037103       0.404746
       0.100000       2.590925       0.042232       0.400950
       0.110000       2.908242       0.047723       0.390957
       0.120000       3.244339       0.053637       0.376629
       0.130000       3.602000       0.060039       0.359773
       0.140000       3.984355       0.067003       0.341888
       0.150000       4.394939       0.074604       0.324036
       0.160000       4.837763       0.082926       0.306815
       0.170000       5.317387       0.092045       0.290440
       0.180000       5.839010       0.102034       0.274873
       0.190000       6.408561       0.112938       0.259966
       0.200000       7.032804       0.124766       0.245592
       0.210000       7.719435       0.137459       0.231708
       0.220000       8.477180       0.150860       0.218372
       0.230000       9.315858       0.164683       0.205701
       0.240000      10.246393       0.178486       0.193816
       0.250000      11.280729       0.191670       0.182793
       0.260000      12.431572       0.203528       0.172636
       0.270000      13.711875       0.213337       0.163269
       0.280000      15.133917       0.220499       0.154561
       0.290000      16.707830       0.224673       0.146352
       0.300000      18.439401       0.225846       0.138496
       0.310000      20.327059       0.224307       0.130901
       0.320000      22.358136       0.220531       0.123545
       0.330000      24.504859       0.215044       0.116471
       0.340000      26.721032       0.208308       0.109771
       0.350000      28.940886       0.200678       0.103553
       0.360000      31.081693       0.192424       0.097914
       0.370000      33.051135       0.183772       0.092932
       0.380000      34.759059       0.174947       0.088659
       0.390000      36.131504       0.166182       0.085121
       0.400000      37.123511       0.157701       0.082327
       0.410000      37.726788       0.149702       0.080276
       0.420000      37.969058       0.142330       0.078958
       0.430000      37.904414       0.135678       0.078358
       0.440000      37.597590       0.129786       0.078455
       0.450000      37.108088       0.124654       0.079219
       0.460000      36.480346       0.120253       0.080600
       0.470000      35.743123       0.116538       0.082522
       0.480000      34.916539       0.113455       0.084869
       0.490000      34.021447       0.110945       0.087480
       0.500000      33.085214       0.108951       0.090143
       0.510000      32.140734       0.107420       0.092605
       0.520000      31.219760       0.106301       0.094599
       0.530000      30.344670       0.105550       0.095882
       0.540000      29.523100       0.105125       0.096274
       0.550000      28.748066       0.104996       0.095687
       0.560000      28.003541       0.105135       0.094132
       0.570000      27.273048       0.105522       0.091703
       0.580000      26.547463       0.106142       0.088555
       0.590000      25.828549       0.106984       0.084874
       0.600000      25.126867       0.108040       0.080860
       0.610000      24.455581       0.109304       0.076711
       0.620000      23.823470       0.110770       0.072602
       0.630000      23.230451       0.112436       0.068675
       0.640000      22.667400       0.114299       0.065035
       0.650000      22.119978       0.116358       0.061742
       0.660000      21.574406       0.118615       0.058817
       0.670000      21.022265       0.121073       0.056250
       0.680000      20.461947       0.123734       0.054002
       0.690000      19.896347       0.126605       0.052019
       0.700000      19.328471       0.129695       0.050241
       0.710000      18.757717       0.133013       0.048614
       0.720000      18.178931       0.136571       0.047097
       0.730000      17.584605       0.140384       0.045670
       0.740000      16.968745       0.144470       0.044329
       0.750000      16.330091       0.148849       0.043085
       0.760000      15.672934       0.153545       0.041954
       0.770000      15.005417       0.158586       0.040948
       0.780000      14.336747       0.164003       0.040078
       0.790000      13.675105       0.169834       0.039352
       0.800000      13.027237       0.176120       0.038776
       0.810000      12.399391       0.182911       0.038361
       0.820000      11.798518       0.190262       0.038122
       0.830000      11.232733       0.198235       0.038077
       0.840000      10.710811       0.206902       0.038247
       0.850000      10.241114       0.216342       0.038652
       0.860000       9.830604       0.226640       0.039311
       0.870000       9.484284       0.237890       0.040239
       0.880000       9.205127       0.250187       0.041443
       0.890000       8.994275       0.263620       0.042922
       0.900000       8.851294       0.278270       0.044664
       0.910000       8.774293       0.294185       0.046636
       0.920000       8.759853       0.311367       0.048784
       0.930000       8.802745       0.329746       0.051026
       0.940000       8.895583       0.349152       0.053256
       0.950000       9.028585       0.369296       0.055349
       0.960000       9.189750       0.389766       0.057176
       0.970000       9.365646       0.410053       0.058626
       0.980000       9.542856       0.429601       0.059618
       0.990000       9.709767       0.447903       0.060110
       1.000000       9.858117       0.464576       0.060098
       1.010000       9.983763       0.479436       0.059608
       1.020000      10.086442       0.492515       0.058685
       1.030000      10.168819       0.504035       0.057393
       1.040000      10.235297       0.514370       0.055810
       1.050000      10.290964       0.523983       0.054026
       1.060000      10.340775       0.533386       0.052140
       1.070000      10.388958       0.543096       0.050248
       1.080000      10.438696       0.553609       0.048433
       1.090000      10.492155       0.565385       0.046763
       1.100000      10.550742       0.578847       0.045280
       1.110000      10.615289       0.594384       0.044011
       1.120000      10.685999       0.612343       0.042970
       1.130000      10.762244       0.633015       0.042165
       1.140000      10.842462       0.656608       0.041599
       1.150000      10.924194       0.683208       0.041279
       1.160000      11.004079       0.712737       0.041209
       1.170000      11.077646       0.744901       0.041389
       1.180000      11.138988       0.779154       0.041813
       1.190000      11.180508       0.814693       0.042462
       1.200000      11.192878       0.850527       0.043307
       1.210000      11.165224       0.885628       0.044302
       1.220000      11.085659       0.919136       0.045390
       1.230000      10.942330       0.950554       0.046511
       1.240000      10.725097       0.979832       0.047605
       1.250000      10.427672       1.007286       0.048622
       1.260000      10.049699       1.033346       0.049526
       1.270000       9.598013       1.058260       0.050293
       1.280000       9.086411       1.081856       0.050907
       1.290000       8.533762       1.103500       0.051356
       1.300000       7.961009       1.122268       0.051633
       1.310000       7.388057       1.137313       0.051742
       1.320000       6.831463       1.148266       0.051702
       1.330000       6.303312       1.155527       0.051547
       1.340000       5.811193       1.160311       0.051324
       1.350000       5.358850       1.164435       0.051078
       1.360000       4.947123       1.169963       0.050849
       1.370000       4.574876       1.178835       0.050668
       1.380000       4.239774       1.192585       0.050558
       1.390000       3.938861       1.212177       0.050539
       1.400000       3.668953       1.237944       0.050625
       1.410000       3.426894       1.269601       0.050821
       1.420000       3.209700       1.306333       0.051119
       1.430000       3.014636       1.346952       0.051489
       1.440000       2.839244       1.390143       0.051882
       1.450000       2.681346       1.434744       0.052239
       1.460000       2.539031       1.479970       0.052502
       1.470000       2.410633       1.525467       0.052626
       1.480000       2.294705       1.571136       0.052593
       1.490000       2.189995       1.616783       0.052405
       1.500000       2.095424       1.661752       0.052079
       1.510000       2.010054       1.704728       0.051639
       1.520000       1.933071       1.743840       0.051104
       1.530000       1.863761       1.777097       0.050492
       1.540000       1.801484       1.803020       0.049824
       1.550000       1.745660       1.821243       0.049123
       1.560000       1.695747       1.832827       0.048415
       1.570000       1.651237       1.840191       0.047727
       1.580000       1.611658       1.846683       0.047072
       1.590000       1.576604       1.855994       0.046449
       1.600000       1.545762       1.871608       0.045843
       1.610000       1.518947       1.896407       0.045228
       1.620000       1.496115       1.932444       0.044582
       1.630000       1.477346       1.980845       0.043895
       1.640000       1.462791       2.041754       0.043180
       1.650000       1.452611       2.114314       0.042468
       1.660000       1.446916       2.196663       0.041805
       1.670000       1.445712       2.286011       0.041245
       1.680000       1.448876       2.378860       0.040835
       1.690000       1.456158       2.471374       0.040617
       1.700000       1.467200       2.559872       0.040621
       1.710000       1.481578       2.641307       0.040869
       1.720000       1.498858       2.713625       0.041372
       1.730000       1.518647       2.775966       0.042134
       1.740000       1.540628       2.828746       0.043147
       1.750000       1.564574       2.873684       0.044392
       1.760000       1.590331       2.913745       0.045837
       1.770000       1.617807       2.952953       0.047433
       1.780000       1.646949       2.996041       0.049118
       1.790000       1.677729       3.047973       0.050815
       1.800000       1.710111       3.113442       0.052444
       1.810000       1.744011       3.196442       0.053926
       1.820000       1.779266       3.299965       0.055197
       1.830000       1.815631       3.425838       0.056209
       1.840000       1.852795       3.574641       0.056940
       1.850000       1.890389       3.745662       0.057393
       1.860000       1.927954       3.936804       0.057594
       1.870000       1.964893       4.144401       0.057590
       1.880000       2.000413       4.362918       0.057451
       1.890000       2.033471       4.584628       0.057261
       1.900000       2.062731       4.799464       0.057113
       1.910000       2.086547       4.995316       0.057091
       1.920000       2.102993       5.159050       0.057266
       1.930000       2.109963       5.278302       0.057685
       1.940000       2.105320       5.343771       0.058362
       1.950000       2.087122       5.351353       0.059285
       1.960000       2.053918       5.303260       0.060409
       1.970000       2.005090       5.207570       0.061673
       1.980000       1.941153       5.076283       0.063002
       1.990000       1.863888       4.922628       0.064325
       2.000000       1.776200       4.758536       0.065582
       2.010000       1.681714       4.592985       0.066732
       2.020000       1.584215       4.431416       0.067748
       2.030000       1.487130       4.276102       0.068612
       2.040000       1.393179       4.127106       0.069304
       2.050000       1.304246       3.983417       0.069810
       2.060000       1.221431       3.843913       0.070112
       2.070000       1.145204       3.707955       0.070205
       2.080000       1.075590       3.575562       0.070093
       2.090000       1.012340       3.447293       0.069788
       2.100000       0.955064       3.323997       0.069312
       2.110000       0.903321       3.206589       0.068693
       2.120000       0.856669       3.095927       0.067970
       2.130000       0.814680       2.992786       0.067189
       2.140000       0.776952       2.897831       0.066406
       2.150000       0.743103       2.811559       0.065676
       2.160000       0.712769       2.734231       0.065052
       2.170000       0.685605       2.665864       0.064577
       2.180000       0.661282       2.606300       0.064282
       2.190000       0.639486       2.555305       0.064194
       2.200000       0.619913       2.512611       0.064332
       2.210000       0.602276       2.477878       0.064710
       2.220000       0.586303       2.450608       0.065329
       2.230000       0.571749       2.430137       0.066173
       2.240000       0.558398       2.415730       0.067202
       2.250000       0.546071       2.406794       0.068350
       2.260000       0.534618       2.403135       0.069538
       2.270000       0.523906       2.405161       0.070678
       2.280000       0.513818       2.413961       0.071703
       2.290000       0.504253       2.431186       0.072570
       2.300000       0.495140       2.458788       0.073278
       2.310000       0.486448       2.498663       0.073851
       2.320000       0.478193       2.552337       0.074327
       2.330000       0.470423       2.620728       0.074737
       2.340000       0.463202       2.703992       0.075090
       2.350000       0.456586       2.801401       0.075378
       2.360000       0.450604       2.911213       0.075583
       2.370000       0.445244       3.030536       0.075699
       2.380000       0.440444       3.155268       0.075743
       2.390000       0.436097       3.280186       0.075762
       2.400000       0.432067       3.399215       0.075831
       2.410000       0.428216       3.505826       0.076033
       2.420000       0.424436       3.593483       0.076447
       2.430000       0.420687       3.656077       0.077134
       2.440000       0.417008       3.688387       0.078125
       2.450000       0.413518       3.686596       0.079420
       2.460000       0.410390       3.648865       0.080985
       2.470000       0.407818       3.575844       0.082751
       2.480000       0.405985       3.470910       0.084619
       2.490000       0.405040       3.339897       0.086470
       2.500000       0.405087       3.190295       0.088179
       2.510000       0.406172       3.030094       0.089636
       2.520000       0.408287       2.866646       0.090762
       2.530000       0.411365       2.705856       0.091530
       2.540000       0.415285       2.551872       0.091957
       2.550000       0.419895       2.407232       0.092104
       2.560000       0.425040       2.273266       0.092054
       2.570000       0.430605       2.150559       0.091898
       2.580000       0.436553       2.039294       0.091716
       2.590000       0.442938       1.939416       0.091571
       2.600000       0.449892       1.850638       0.091507
       2.610000       0.457570       1.772388       0.091556
       2.620000       0.466089       1.703749       0.091747
       2.630000       0.475474       1.643485       0.092116
       2.640000       0.485634       1.590151       0.092705
       2.650000       0.496374       1.542300       0.093559
       2.660000       0.507437       1.498718       0.094712
       2.670000       0.518563       1.458620       0.096176
       2.680000       0.529533       1.421729       0.097933
       2.690000       0.540170       1.388208       0.099922
       2.700000       0.550303       1.358472       0.102041
       2.710000       0.559704       1.332975       0.104156
       2.720000       0.568039       1.312012       0.106118
       2.730000       0.574861       1.295617       0.107790
       2.740000       0.579635       1.283539       0.109071
       2.750000       0.581809       1.275300       0.109917
       2.760000       0.580896       1.270306       0.110337
       2.770000       0.576569       1.267962       0.110386
       2.780000       0.568750       1.267757       0.110147
       2.790000       0.557663       1.269295       0.109715
       2.800000       0.543824       1.272272       0.109185
       2.810000       0.527980       1.276452       0.108648
       2.820000       0.510985       1.281658       0.108185
       2.830000       0.493678       1.287796       0.107869
       2.840000       0.476771       1.294883       0.107766
       2.850000       0.460792       1.303049       0.107929
       2.860000       0.446060       1.312529       0.108402
       2.870000       0.432712       1.323639       0.109208
       2.880000       0.420746       1.336777       0.110344
       2.890000       0.410080       1.352438       0.111770
       2.900000       0.400605       1.371219       0.113405
       2.910000       0.392225       1.393788       0.115133
       2.920000       0.384877       1.420804       0.116826
       2.930000       0.378526       1.452843       0.118369
       2.940000       0.373160       1.490332       0.119689
       2.950000       0.368779       1.533535       0.120773
       2.960000       0.365387       1.582558       0.121670
       2.970000       0.362987       1.637379       0.122468
       2.980000       0.361583       1.697882       0.123274
       2.990000       0.361170       1.763898       0.124183
       3.000000       0.361731       1.835219       0.125265
       3.010000       0.363239       1.911576       0.126554
       3.020000       0.365649       1.992560       0.128051
       3.030000       0.368908       2.077523       0.129735
       3.040000       0.372963       2.165495       0.131562
       3.050000       0.377777       2.255129       0.133479
       3.060000       0.383342       2.344718       0.135417
       3.070000       0.389691       2.432276       0.137297
       3.080000       0.396902       2.515696       0.139028
       3.090000       0.405110       2.592927       0.140513
       3.100000       0.414496       2.662112       0.141661
       3.110000       0.425290       2.721602       0.142411
       3.120000       0.437754       2.769889       0.142746
       3.130000       0.452173       2.805565       0.142706
       3.140000       0.468840       2.827439       0.142380
       3.150000       0.488038       2.834832       0.141882
       3.160000       0.510024       2.827956       0.141324
       3.170000       0.534997       2.808202       0.140784
       3.180000       0.563064       2.778153       0.140298
       3.190000       0.594189       2.741277       0.139856
       3.200000       0.628130       2.701382       0.139427
       3.210000       0.664368       2.662022       0.138976
       3.220000       0.702032       2.626015       0.138491
       3.230000       0.739846       2.595190       0.137992
       3.240000       0.776148       2.570371       0.137526
       3.250000       0.809028       2.551585       0.137157
       3.260000       0.836597       2.538404       0.136951
       3.270000       0.857358       2.530323       0.136962
       3.280000       0.870544       2.526985       0.137222
       3.290000       0.876295       2.528153       0.137732
       3.300000       0.875607       2.533402       0.138455
       3.310000       0.870063       2.541692       0.139318
       3.320000       0.861463       2.551051       0.140218
       3.330000       0.851458       2.558592       0.141035
       3.340000       0.841261       2.560908       0.141662
       3.350000       0.831509       2.554724       0.142024
       3.360000       0.822259       2.537560       0.142104
       3.370000       0.813140       2.508153       0.141948
       3.380000       0.803605       2.466583       0.141661
       3.390000       0.793210       2.414178       0.141384
       3.400000       0.781848       2.353309       0.141265
       3.410000       0.769836       2.287137       0.141437
       3.420000       0.757870       2.219276       0.141997
       3.430000       0.746872       2.153405       0.142998
       3.440000       0.737816       2.092889       0.144446
       3.450000       0.731572       2.040496       0.146304
       3.460000       0.728814       1.998250       0.148498
       3.470000       0.729963       1.967410       0.150919
       3.480000       0.735165       1.948517       0.153427
       3.490000       0.744281       1.941457       0.155856
       3.500000       0.756886       1.945506       0.158029
       3.510000       0.772282       1.959307       0.159778
       3.520000       0.789558       1.980832       0.160976
       3.530000       0.807705       2.007373       0.161566
       3.540000       0.825795       2.035643       0.161586
       3.550000       0.843177       2.062082       0.161166
       3.560000       0.859620       2.083357       0.160504
       3.570000       0.875330       2.096991       0.159829
       3.580000       0.890825       2.101898       0.159352
       3.590000       0.906705       2.098631       0.159238
       3.600000       0.923389       2.089211       0.159589
       3.610000       0.940889       2.076611       0.160440
       3.620000       0.958662       2.064128       0.161776
       3.630000       0.975576       2.054835       0.163537
       3.640000       0.990006       2.051248       0.165635
       3.650000       1.000061       2.055175       0.167957
       3.660000       1.003918       2.067677       0.170366
       3.670000       1.000191       2.089067       0.172713
       3.680000       0.988236       2.118905       0.174846
       3.690000       0.968319       2.156022       0.176629
       3.700000       0.941579       2.198627       0.177956
       3.710000       0.909805       2.244540       0.178753
       3.720000       0.875092       2.291558       0.178976
       3.730000       0.839494       2.337878       0.178598
       3.740000       0.804768       2.382414       0.177613
       3.750000       0.772242       2.424909       0.176037
       3.760000       0.742803       2.465743       0.173919
       3.770000       0.716951       2.505516       0.171357
       3.780000       0.694881       2.544503       0.168497
       3.790000       0.676575       2.582155       0.165527
       3.800000       0.661871       2.616813       0.162654
       3.810000       0.650516       2.645773       0.160081
       3.820000       0.642211       2.665715       0.157981
       3.830000       0.636652       2.673421       0.156490
       3.840000       0.633564       2.666549       0.155693
       3.850000       0.632735       2.644207       0.155623
       3.860000       0.634037       2.607151       0.156266
       3.870000       0.637414       2.557583       0.157561
       3.880000       0.642869       2.498685       0.159410
       3.890000       0.650448       2.434087       0.161685
       3.900000       0.660236       2.367414       0.164246
       3.910000       0.672369       2.301959       0.166950
       3.920000       0.687041       2.240463       0.169673
       3.930000       0.704480       2.184991       0.172327
       3.940000       0.724892       2.136884       0.174867
       3.950000       0.748379       2.096787       0.177298
       3.960000       0.774838       2.064712       0.179664
       3.970000       0.803862       2.040114       0.182031
       3.980000       0.834681       2.021938       0.184460
       3.990000       0.866154       2.008678       0.186988
       4.000000       0.896865       1.998476       0.189608
       4.010000       0.925308       1.989340       0.192265
       4.020000       0.950161       1.979489       0.194864
       4.030000       0.970546       1.967761       0.197282
       4.040000       0.986231       1.953936       0.199394
       4.050000       0.997661       1.938816       0.201094
       4.060000       1.005824       1.923999       0.202305
       4.070000       1.011976       1.911424       0.202983
       4.080000       1.017292       1.902856       0.203119
       4.090000       1.022541       1.899467       0.202738
       4.100000       1.027885       1.901612       0.201909
       4.110000       1.032832       1.908814       0.200750
       4.120000       1.036387       1.919944       0.199425
       4.130000       1.037368       1.933567       0.198135
       4.140000       1.034801       1.948373       0.197090
       4.150000       1.028281       1.963571       0.196484
       4.160000       1.018141       1.979104       0.196474
       4.170000       1.005381       1.995566       0.197160
       4.180000       0.991411       2.013872       0.198579
       4.190000       0.977725       2.034808       0.200701
       4.200000       0.965643       2.058638       0.203434
       4.210000       0.956183       2.084908       0.206639
       4.220000       0.950036       2.112518       0.210140
       4.230000       0.947628       2.140023       0.213739
       4.240000       0.949211       2.166072       0.217230
       4.250000       0.954949       2.189814       0.220421
       4.260000       0.964991       2.211117       0.223153
       4.270000       0.979500       2.230509       0.225323
       4.280000       0.998675       2.248927       0.226903
       4.290000       1.022734       2.267384       0.227941
       4.300000       1.051883       2.286692       0.228557
       4.310000       1.086268       2.307272       0.228913
       4.320000       1.125909       2.329058       0.229191
       4.330000       1.170628       2.351490       0.229560
       4.340000       1.220002       2.373624       0.230154
       4.350000       1.273346       2.394339       0.231052
       4.360000       1.329742       2.412605       0.232274
       4.370000       1.388121       2.427737       0.233783
       4.380000       1.447393       2.439573       0.235499
       4.390000       1.506603       2.448544       0.237322
       4.400000       1.565081       2.455651       0.239143
       4.410000       1.622542       2.462364       0.240860
       4.420000       1.679105       2.470442       0.242378
       4.430000       1.735194       2.481696       0.243621
       4.440000       1.791355       2.497687       0.244534
       4.450000       1.848008       2.519447       0.245098
       4.460000       1.905202       2.547283       0.245338
       4.470000       1.962426       2.580737       0.245320
       4.480000       2.018494       2.618698       0.245139
       4.490000       2.071533       2.659626       0.244903
       4.500000       2.119082       2.701822       0.244713
       4.510000       2.158336       2.743698       0.244661
       4.520000       2.186560       2.784001       0.244824
       4.530000       2.201604       2.821954       0.245268
       4.540000       2.202379       2.857284       0.246047
       4.550000       2.189121       2.890105       0.247194
       4.560000       2.163364       2.920685       0.248716
       4.570000       2.127639       2.949170       0.250583
       4.580000       2.084987       2.975360       0.252731
       4.590000       2.038452       2.998612       0.255067
       4.600000       1.990656       3.017913       0.257482
       4.610000       1.943565       3.032086       0.259855
       4.620000       1.898433       3.040028       0.262050
       4.630000       1.855882       3.040895       0.263913
       4.640000       1.816042       3.034188       0.265267
       4.650000       1.778704       3.019766       0.265922
       4.660000       1.743499       2.997827       0.265702
       4.670000       1.710061       2.968890       0.264480
       4.680000       1.678166       2.933762       0.262213
       4.690000       1.647789       2.893485       0.258962
       4.700000       1.619087       2.849256       0.254895
       4.710000       1.592307       2.802290       0.250254
       4.720000       1.567680       2.753661       0.245331
       4.730000       1.545332       2.704136       0.240419
       4.740000       1.525250       2.654100       0.235786
       4.750000       1.507314       2.603644       0.231643
       4.760000       1.491408       2.552811       0.228135
       4.770000       1.477564       2.501908       0.225330
       4.780000       1.466079       2.451726       0.223233
       4.790000       1.457558       2.403573       0.221800
       4.800000       1.452864       2.359099       0.220962
       4.810000       1.453028       2.319998       0.220639
       4.820000       1.459137       2.287688       0.220754
       4.830000       1.472233       2.263042       0.221222
       4.840000       1.493215       2.246228       0.221954
       4.850000       1.522732       2.236688       0.222841
       4.860000       1.561079       2.233260       0.223765
       4.870000       1.608084       2.234406       0.224605
       4.880000       1.663013       2.238492       0.225248
       4.890000       1.724513       2.243984       0.225608
       4.900000       1.790595       2.249526       0.225635
       4.910000       1.858695       2.253910       0.225320
       4.920000       1.925808       2.256036       0.224686
       4.930000       1.988686       2.254959       0.223781
       4.940000       2.044069       2.250026       0.222654
       4.950000       2.088920       2.241001       0.221350
       4.960000       2.120643       2.228083       0.219888
       4.970000       2.137286       2.211776       0.218260
       4.980000       2.137767       2.192703       0.216435
       4.990000       2.122094       2.171492       0.214373
       5.000000       2.091515       2.148814       0.212040
       5.010000       2.048490       2.125539       0.209433
       5.020000       1.996387       2.102847       0.206584
       5.030000       1.938932       2.082191       0.203572
       5.040000       1.879555       2.065058       0.200512
       5.050000       1.820845       2.052638       0.197551
       5.060000       1.764269       2.045564       0.194845
       5.070000       1.710236       2.043823       0.192547
       5.080000       1.658432       2.046896       0.190782
       5.090000       1.608310       2.054062       0.189637
       5.100000       1.559541       2.064726       0.189142
       5.110000       1.512274       2.078648       0.189278
       5.120000       1.467144       2.095955       0.189975
       5.130000       1.425103       2.116958       0.191127
       5.140000       1.387185       2.141849       0.192604
       5.150000       1.354306       2.170426       0.194265
       5.160000       1.327158       2.201961       0.195969
       5.170000       1.306163       2.235259       0.197586
       5.180000       1.291464       2.268852       0.198996
       5.190000       1.282937       2.301260       0.200092
       5.200000       1.280229       2.331184       0.200783
       5.210000       1.282841       2.357616       0.200997
       5.220000       1.290246       2.379867       0.200697
       5.230000       1.302010       2.397596       0.199888
       5.240000       1.317866       2.410824       0.198633
       5.250000       1.337687       2.419923       0.197052
       5.260000       1.361360       2.425501       0.195310
       5.270000       1.388617       2.428212       0.193606
       5.280000       1.418902       2.428587       0.192140
       5.290000       1.451342       2.426948       0.191088
       5.300000       1.484833       2.423433       0.190582
       5.310000       1.518202       2.418047       0.190685
       5.320000       1.550386       2.410684       0.191397
       5.330000       1.580562       2.401116       0.192648
       5.340000       1.608198       2.388990       0.194316
       5.350000       1.633042       2.373896       0.196241
       5.360000       1.655042       2.355499       0.198252
       5.370000       1.674225       2.333664       0.200183
       5.380000       1.690576       2.308495       0.201891
       5.390000       1.703940       2.280292       0.203266
       5.400000       1.714013       2.249462       0.204234
       5.410000       1.720432       2.216484       0.204760
       5.420000       1.722942       2.181944       0.204852
       5.430000       1.721566       2.146624       0.204553
       5.440000       1.716704       2.111541       0.203944
       5.450000       1.709113       2.077920       0.203125
       5.460000       1.699776       2.047061       0.202211
       5.470000       1.689682       2.020163       0.201307
       5.480000       1.679598       1.998167       0.200507
       5.490000       1.669926       1.981675       0.199882
       5.500000       1.660704       1.970971       0.199481
       5.510000       1.651756       1.966127       0.199340
       5.520000       1.642906       1.967107       0.199486
       5.530000       1.634150       1.973824       0.199935
       5.540000       1.625703       1.986113       0.200689
       5.550000       1.617926       2.003661       0.201728
       5.560000       1.611206       2.025966       0.202999
       5.570000       1.605855       2.052364       0.204411
       5.580000       1.602070       2.082091       0.205849
       5.590000       1.599931       2.114318       0.207186
       5.600000       1.599403       2.148093       0.208315
       5.610000       1.600298       2.182210       0.209160
       5.620000       1.602217       2.215077       0.209691
       5.630000       1.604522       2.244731       0.209914
       5.640000       1.606404       2.269072       0.209861
       5.650000       1.607071       2.286314       0.209580
       5.660000       1.606012       2.295513       0.209129
       5.670000       1.603210       2.296960       0.208573
       5.680000       1.599218       2.292267       0.207980
       5.690000       1.595022       2.284086       0.207411
       5.700000       1.591757       2.275555       0.206912
       5.710000       1.590361       2.269660       0.206504
       5.720000       1.591303       2.268690       0.206186
       5.730000       1.594463       2.273895       0.205947
       5.740000       1.599176       2.285372       0.205775
       5.750000       1.604419       2.302137       0.205676
       5.760000       1.609063       2.322330       0.205673
       5.770000       1.612119       2.343537       0.205802
       5.780000       1.612928       2.363199       0.206097
       5.790000       1.611271       2.379104       0.206576
       5.800000       1.607405       2.389847       0.207232
       5.810000       1.602033       2.395146       0.208038
       5.820000       1.596183       2.395897       0.208951
       5.830000       1.591046       2.393916       0.209921
       5.840000       1.587789       2.391494       0.210906
       5.850000       1.587424       2.390885       0.211872
       5.860000       1.590750       2.393909       0.212794
       5.870000       1.598370       2.401718       0.213660
       5.880000       1.610731       2.414699       0.214460
       5.890000       1.628135       2.432464       0.215193
       5.900000       1.650706       2.453886       0.215873
       5.910000       1.678309       2.477197       0.216529
       5.920000       1.710491       2.500200       0.217219
       5.930000       1.746486       2.520585       0.218022
       5.940000       1.785323       2.536321       0.219030
       5.950000       1.826026       2.546019       0.220333
       5.960000       1.867824       2.549175       0.222004
       5.970000       1.910312       2.546223       0.224085
       5.980000       1.953455       2.538395       0.226576
       5.990000       1.997439       2.527428       0.229433
       6.000000       2.042394       2.515202       0.232568
       6.010000       2.088086       2.503368       0.235862
       6.020000       2.133702       2.493061       0.239181
       6.030000       2.177839       2.484738       0.242401
       6.040000       2.218731       2.478227       0.245418
       6.050000       2.254684       2.472953       0.248163
       6.060000       2.284551       2.468298       0.250601
       6.070000       2.308077       2.463938       0.252726
       6.080000       2.325987       2.460028       0.254561
       6.090000       2.339780       2.457171       0.256156
       6.100000       2.351362       2.456199       0.257577
       6.110000       2.362677       2.457911       0.258902
       6.120000       2.375449       2.462868       0.260213
       6.130000       2.391073       2.471334       0.261577
       6.140000       2.410592       2.483300       0.263043
       6.150000       2.434680       2.498537       0.264627
       6.160000       2.463607       2.516598       0.266311
       6.170000       2.497175       2.536801       0.268041
       6.180000       2.534700       2.558260       0.269737
       6.190000       2.575042       2.580042       0.271309
       6.200000       2.616709       2.601408       0.272684
       6.210000       2.657984       2.622060       0.273826
       6.220000       2.697091       2.642278       0.274758
       6.230000       2.732388       2.662904       0.275559
       6.240000       2.762590       2.685201       0.276355
       6.250000       2.787003       2.710620       0.277298
       6.260000       2.805690       2.740562       0.278534
       6.270000       2.819522       2.776174       0.280179
       6.280000       2.830077       2.818271       0.282291
       6.290000       2.839417       2.867358       0.284866
       6.300000       2.849750       2.923721       0.287835
       6.310000       2.863056       2.987453       0.291083
       6.320000       2.880750       3.058384       0.294477
       6.330000       2.903463       3.135932       0.297889
       6.340000       2.930994       3.218960       0.301214
       6.350000       2.962432       3.305724       0.304379
       6.360000       2.996389       3.393932       0.307333
       6.370000       3.031295       3.480921       0.310048
       6.380000       3.065665       3.563932       0.312499
       6.390000       3.098317       3.640452       0.314666
       6.400000       3.128492       3.708570       0.316530
       6.410000       3.155895       3.767222       0.318080
       6.420000       3.180644       3.816209       0.319322
       6.430000       3.203126       3.855952       0.320286
       6.440000       3.223789       3.887034       0.321029
       6.450000       3.242907       3.909746       0.321617
       6.460000       3.260428       3.923813       0.322111
       6.470000       3.275929       3.928447       0.322549
       6.480000       3.288723       3.922666       0.322943
       6.490000       3.298045       3.905716       0.323276
       6.500000       3.303250       3.877406       0.323524
       6.510000       3.303920       3.838240       0.323669
       6.520000       3.299840       3.789325       0.323715
       6.530000       3.290876       3.732134       0.323701
       6.540000       3.276809       3.668242       0.323693
       6.550000       3.257262       3.599158       0.323769
       6.560000       3.231767       3.526313       0.323997
       6.570000       3.200007       3.451141       0.324411
       6.580000       3.162120       3.375170       0.325003
       6.590000       3.118906       3.300012       0.325726
       6.600000       3.071809       3.227225       0.326500
       6.610000       3.022643       3.158120       0.327232
       6.620000       2.973162       3.093593       0.327829
       6.630000       2.924638       3.034070       0.328206
       6.640000       2.877620       2.979579       0.328300
       6.650000       2.831924       2.929920       0.328069
       6.660000       2.786846       2.884867       0.327501
       6.670000       2.741500       2.844323       0.326618
       6.680000       2.695151       2.808363       0.325468
       6.690000       2.647456       2.777144       0.324130
       6.700000       2.598543       2.750708       0.322701
       6.710000       2.548917       2.728765       0.321292
       6.720000       2.499247       2.710510       0.320022
       6.730000       2.450137       2.694558       0.319006
       6.740000       2.401965       2.679028       0.318354
       6.750000       2.354857       2.661796       0.318155
       6.760000       2.308794       2.640856       0.318477
       6.770000       2.263784       2.614734       0.319351
       6.780000       2.220017       2.582819       0.320778
       6.790000       2.177928       2.545535       0.322719
       6.800000       2.138147       2.504293       0.325106
       6.810000       2.101347       2.461240       0.327855
       6.820000       2.068091       2.418895       0.330887
       6.830000       2.038709       2.379766       0.334147
       6.840000       2.013275       2.346049       0.337623
       6.850000       1.991675       2.319439       0.341341
       6.860000       1.973742       2.301060       0.345353
       6.870000       1.959399       2.291491       0.349705
       6.880000       1.948719       2.290837       0.354413
       6.890000       1.941892       2.298827       0.359438
       6.900000       1.939065       2.314911       0.364669
       6.910000       1.940170       2.338336       0.369935
       6.920000       1.944772       2.368207       0.375016
       6.930000       1.952014       2.403515       0.379675
       6.940000       1.960642       2.443159       0.383705
       6.950000       1.969103       2.485948       0.386965
       6.960000       1.975692       2.530603       0.389419
       6.970000       1.978709       2.575775       0.391143
       6.980000       1.976622       2.620068       0.392321
       6.990000       1.968214       2.662091       0.393209
       7.000000       1.952668       2.700509       0.394100
       7.010000       1.929623       2.734101       0.395272
       7.020000       1.899176       2.761840       0.396956
       7.030000       1.861860       2.783021       0.399323
       7.040000       1.818588       2.797402       0.402485
       7.050000       1.770566       2.805261       0.406521
       7.060000       1.719175       2.807310       0.411507
       7.070000       1.665837       2.804453       0.417546
       7.080000       1.611904       2.797513       0.424774
       7.090000       1.558585       2.787091       0.433357
       7.100000       1.506924       2.773643       0.443464
       7.110000       1.457816       2.757720       0.455241
       7.120000       1.412021       2.740189       0.468782
       7.130000       1.370160       2.722267       0.484119
       7.140000       1.332663       2.705322       0.501211
       7.150000       1.299713       2.690530       0.519956
       7.160000       1.271186       2.678576       0.540202
       7.170000       1.246647       2.669518       0.561768
       7.180000       1.225402       2.662861       0.584452
       7.190000       1.206606       2.657749       0.608053
       7.200000       1.189416       2.653216       0.632369
       7.210000       1.173126       2.648394       0.657208
       7.220000       1.157271       2.642638       0.682389
       7.230000       1.141666       2.635546       0.707734
       7.240000       1.126383       2.626894       0.733057
       7.250000       1.111693       2.616533       0.758157
       7.260000       1.098000       2.604331       0.782818
       7.270000       1.085780       2.590207       0.806830
       7.280000       1.075536       2.574228       0.830014
       7.290000       1.067742       2.556698       0.852252
       7.300000       1.062769       2.538160       0.873501
       7.310000       1.060808       2.519287       0.893791
       7.320000       1.061795       2.500683       0.913204
       7.330000       1.065388       2.482698       0.931840
       7.340000       1.071000       2.465345       0.949771
       7.350000       1.077884       2.448339       0.967002
       7.360000       1.085230       2.431249       0.983452
       7.370000       1.092253       2.413666       0.998961
       7.380000       1.098250       2.395317       1.013335
       7.390000       1.102629       2.376105       1.026417
       7.400000       1.104945       2.356059       1.038143
       7.410000       1.104936       2.335283       1.048580
       7.420000       1.102563       2.313922       1.057918
       7.430000       1.098027       2.292207       1.066418
       7.440000       1.091749       2.270518       1.074360
       7.450000       1.084303       2.249435       1.082006
       7.460000       1.076324       2.229696       1.089580
       7.470000       1.068409       2.212067       1.097273
       7.480000       1.061035       2.197147       1.105256
       7.490000       1.054514       2.185175       1.113670
       7.500000       1.048963       2.175916       1.122615
       7.510000       1.044291       2.168645       1.132120
       7.520000       1.040196       2.162260       1.142119
       7.530000       1.036178       2.155493       1.152427
       7.540000       1.031614       2.147165       1.162738
       7.550000       1.025866       2.136411       1.172625
       7.560000       1.018411       2.122814       1.181573
       7.570000       1.008947       2.106415       1.189031
       7.580000       0.997442       2.087620       1.194475
       7.590000       0.984124       2.067019       1.197470
       7.600000       0.969422       2.045176       1.197709
       7.610000       0.953874       2.022431       1.195020
       7.620000       0.938020       1.998755       1.189356
       7.630000       0.922303       1.973740       1.180768
       7.640000       0.907008       1.946727       1.169400
       7.650000       0.892263       1.917052       1.155487
       7.660000       0.878093       1.884338       1.139364
       7.670000       0.864498       1.848711       1.121482
       7.680000       0.851519       1.810864       1.102400
       7.690000       0.839254       1.771940       1.082763
       7.700000       0.827813       1.733291       1.063261
       7.710000       0.817261       1.696221       1.044569
       7.720000       0.807575       1.661781       1.027297
       7.730000       0.798644       1.630671       1.011943
       7.740000       0.790321       1.603212       0.998858
       7.750000       0.782487       1.579366       0.988237
       7.760000       0.775092       1.558763       0.980119
       7.770000       0.768156       1.540759       0.974421
       7.780000       0.761722       1.524519       0.970979
       7.790000       0.755796       1.509148       0.969599
       7.800000       0.750313       1.493838       0.970098
       7.810000       0.745129       1.478010       0.972344
       7.820000       0.740053       1.461384       0.976272
       7.830000       0.734893       1.443959       0.981891
       7.840000       0.729501       1.425933       0.989279
       7.850000       0.723808       1.407612       0.998580
       7.860000       0.717837       1.389342       1.009990
       7.870000       0.711705       1.371488       1.023737
       7.880000       0.705590       1.354410       1.040056
       7.890000       0.699701       1.338419       1.059163
       7.900000       0.694231       1.323699       1.081239
       7.910000       0.689335       1.310229       1.106413
       7.920000       0.685121       1.297736       1.134748
       7.930000       0.681663       1.285704       1.166199
       7.940000       0.679017       1.273468       1.200570
       7.950000       0.677237       1.260354       1.237465
       7.960000       0.676380       1.245852       1.276267
       7.970000       0.676497       1.229740       1.316172
       7.980000       0.677610       1.212141       1.356277
       7.990000       0.679708       1.193464       1.395709
       8.000000       0.682744       1.174281       1.433751
       8.010000       0.686665       1.155192       1.469899
       8.020000       0.691447       1.136713       1.503846
       8.030000       0.697108       1.119213       1.535404
       8.040000       0.703683       1.102881       1.564422
       8.050000       0.711151       1.087712       1.590763
       8.060000       0.719341       1.073530       1.614348
       8.070000       0.727866       1.060047       1.635241
       8.080000       0.736112       1.046954       1.653707
       8.090000       0.743315       1.034021       1.670184
       8.100000       0.748707       1.021174       1.685174
       8.110000       0.751692       1.008519       1.699088
       8.120000       0.751988       0.996324       1.712118
       8.130000       0.749680       0.984956       1.724180
       8.140000       0.745176       0.974801       1.734950
       8.150000       0.739084       0.966185       1.743981
       8.160000       0.732068       0.959328       1.750843
       8.170000       0.724735       0.954335       1.755259
       8.180000       0.717563       0.951214       1.757167
       8.190000       0.710863       0.949907       1.756719
       8.200000       0.704772       0.950305       1.754226
       8.210000       0.699247       0.952247       1.750082
       8.220000       0.694077       0.955497       1.744695
       8.230000       0.688921       0.959738       1.738448
       8.240000       0.683373       0.964585       1.731671
       8.250000       0.677037       0.969624       1.724630
       8.260000       0.669603       0.974475       1.717527
       8.270000       0.660892       0.978852       1.710512
       8.280000       0.650870       0.982617       1.703731
       8.290000       0.639658       0.985831       1.697403
       8.300000       0.627514       0.988787       1.691907
       8.310000       0.614831       0.992015       1.687827
       8.320000       0.602100       0.996239       1.685932
       8.330000       0.589867       1.002279       1.687081
       8.340000       0.578659       1.010923       1.692089
       8.350000       0.568919       1.022805       1.701582
       8.360000       0.560947       1.038318       1.715906
       8.370000       0.554879       1.057589       1.735094
       8.380000       0.550686       1.080513       1.758918
       8.390000       0.548200       1.106798       1.787004
       8.400000       0.547154       1.136034       1.818963
       8.410000       0.547222       1.167718       1.854514
       8.420000       0.548064       1.201262       1.893538
       8.430000       0.549365       1.235978       1.936085
       8.440000       0.550864       1.271071       1.982326
       8.450000       0.552370       1.305663       2.032477
       8.460000       0.553755       1.338857       2.086753
       8.470000       0.554945       1.369823       2.145354
       8.480000       0.555895       1.397855       2.208512
       8.490000       0.556571       1.422386       2.276564
       8.500000       0.556921       1.442965       2.350002
       8.510000       0.556865       1.459217       2.429480
       8.520000       0.556299       1.470862       2.515739
       8.530000       0.555124       1.477786       2.609491
       8.540000       0.553300       1.480159       2.711282
       8.550000       0.550893       1.478511       2.821358
       8.560000       0.548108       1.473704       2.939558
       8.570000       0.545287       1.466779       3.065218
       8.580000       0.542879       1.458733       3.197095
       8.590000       0.541381       1.450348       3.333326
       8.600000       0.541278       1.442143       3.471422
       8.610000       0.542991       1.434463       3.608310
       8.620000       0.546828       1.427636       3.740430
       8.630000       0.552964       1.422074       3.863906
       8.640000       0.561431       1.418286       3.974800
       8.650000       0.572124       1.416789       4.069474
       8.660000       0.584812       1.417990       4.144966
       8.670000       0.599158       1.422093       4.199317
       8.680000       0.614741       1.429048       4.231737
       8.690000       0.631085       1.438534       4.242593
       8.700000       0.647687       1.449971       4.233251
       8.710000       0.664038       1.462580       4.205822
       8.720000       0.679634       1.475484       4.162907
       8.730000       0.693967       1.487844       4.107374
       8.740000       0.706528       1.498969       4.042191
       8.750000       0.716818       1.508383       3.970314
       8.760000       0.724399       1.515845       3.894570
       8.770000       0.728962       1.521333       3.817505
       8.780000       0.730411       1.525024       3.741215
       8.790000       0.728907       1.527227       3.667216
       8.800000       0.724863       1.528292       3.596443
       8.810000       0.718878       1.528489       3.529377
       8.820000       0.711632       1.527935       3.466249
       8.830000       0.703770       1.526577       3.407197
       8.840000       0.695828       1.524237       3.352303
       8.850000       0.688188       1.520655       3.301514
       8.860000       0.681095       1.515523       3.254543
       8.870000       0.674677       1.508505       3.210849
       8.880000       0.668979       1.499299       3.169722
       8.890000       0.663986       1.487733       3.130453
       8.900000       0.659646       1.473882       3.092468
       8.910000       0.655892       1.458154       3.055387
       8.920000       0.652672       1.441310       3.018967
       8.930000       0.649983       1.424402       2.983025
       8.940000       0.647885       1.408660       2.947391
       8.950000       0.646510       1.395342       2.911946
       8.960000       0.646039       1.385593       2.876694
       8.970000       0.646666       1.380330       2.841814
       8.980000       0.648558       1.380154       2.807624
       8.990000       0.651817       1.385297       2.774485
       9.000000       0.656458       1.395620       2.742679
       9.010000       0.662409       1.410663       2.712327
       9.020000       0.669528       1.429762       2.683389
       9.030000       0.677625       1.452193       2.655731
       9.040000       0.686494       1.477317       2.629230
       9.050000       0.695938       1.504666       2.603842
       9.060000       0.705785       1.533958       2.579612
       9.070000       0.715897       1.565050       2.556611
       9.080000       0.726156       1.597862       2.534845
       9.090000       0.736449       1.632287       2.514158
       9.100000       0.746639       1.668099       2.494175
       9.110000       0.756552       1.704881       2.474283
       9.120000       0.765971       1.741968       2.453685
       9.130000       0.774662       1.778462       2.431512
       9.140000       0.782413       1.813312       2.406996
       9.150000       0.789093       1.845450       2.379648
       9.160000       0.794707       1.873938       2.349392
       9.170000       0.799408       1.898074       2.316602
       9.180000       0.803479       1.917429       2.282035
       9.190000       0.807270       1.931836       2.246687
       9.200000       0.811129       1.941358       2.211635
       9.210000       0.815350       1.946247       2.177907
       9.220000       0.820129       1.946880       2.146401
       9.230000       0.825559       1.943606       2.117865
       9.240000       0.831636       1.936567       2.092914
       9.250000       0.838295       1.925576       2.072089
       9.260000       0.845477       1.910162       2.055911
       9.270000       0.853176       1.889805       2.044929
       9.280000       0.861476       1.864272       2.039731
       9.290000       0.870526       1.833905       2.040913
       9.300000       0.880488       1.799724       2.048997
       9.310000       0.891464       1.763341       2.064321
       9.320000       0.903445       1.726698       2.086924
       9.330000       0.916283       1.691756       2.116473
       9.340000       0.929706       1.660205       2.152240
       9.350000       0.943359       1.633256       2.193145
       9.360000       0.956844       1.611534       2.237834
       9.370000       0.969759       1.595067       2.284797
       9.380000       0.981711       1.583343       2.332487
       9.390000       0.992330       1.575422       2.379448
       9.400000       1.001269       1.570111       2.424428
       9.410000       1.008246       1.566170       2.466486
       9.420000       1.013103       1.562530       2.505067
       9.430000       1.015879       1.558481       2.540062
       9.440000       1.016867       1.553787       2.571822
       9.450000       1.016624       1.548712       2.601116
       9.460000       1.015918       1.543940       2.629040
       9.470000       1.015627       1.540430       2.656839
       9.480000       1.016592       1.539217       2.685697
       9.490000       1.019474       1.541215       2.716492
       9.500000       1.024642       1.547057       2.749589
       9.510000       1.032124       1.556975       2.784727
       9.520000       1.041629       1.570748       2.821043
       9.530000       1.052637       1.587702       2.857236
       9.540000       1.064509       1.606760       2.891818
       9.550000       1.076591       1.626560       2.923384
       9.560000       1.088285       1.645589       2.950843
       9.570000       1.099075       1.662332       2.973563
       9.580000       1.108552       1.675385       2.991421
       9.590000       1.116446       1.683543       3.004776
       9.600000       1.122666       1.685867       3.014370
       9.610000       1.127317       1.681764       3.021183
       9.620000       1.130647       1.671086       3.026250
       9.630000       1.132938       1.654199       3.030458
       9.640000       1.134372       1.631993       3.034353
       9.650000       1.134945       1.605768       3.038018
       9.660000       1.134485       1.577032       3.041067
       9.670000       1.132764       1.547251       3.042756
       9.680000       1.129644       1.517618       3.042189
       9.690000       1.125197       1.488940       3.038558
       9.700000       1.119739       1.461642       3.031341
       9.710000       1.113775       1.435884       3.020408
       9.720000       1.107901       1.411699       3.006006
       9.730000       1.102683       1.389109       2.988634
       9.740000       1.098558       1.368144       2.968876
       9.750000       1.095775       1.348808       2.947267
       9.760000       1.094371       1.331009       2.924252
       9.770000       1.094191       1.314522       2.900222
       9.780000       1.094934       1.299021       2.875588
       9.790000       1.096204       1.284160       2.850794
       9.800000       1.097561       1.269668       2.826255
       9.810000       1.098567       1.255403       2.802232
       9.820000       1.098823       1.241345       2.778726
       9.830000       1.098012       1.227541       2.755454
       9.840000       1.095933       1.214047       2.731932
       9.850000       1.092511       1.200885       2.707650
       9.860000       1.087776       1.188060       2.682247
       9.870000       1.081835       1.175596       2.655627
       9.880000       1.074844       1.163574       2.627977
       9.890000       1.067006       1.152142       2.599726
       9.900000       1.058568       1.141492       2.571449
       9.910000       1.049823       1.131824       2.543787
       9.920000       1.041084       1.123322       2.517364
       9.930000       1.032669       1.116138       2.492733
       9.940000       1.024886       1.110366       2.470323
       9.950000       1.018036       1.106001       2.450381
       9.960000       1.012404       1.102893       2.432931
       9.970000       1.008235       1.100713       2.417741
       9.980000       1.005700       1.098977       2.404345
       9.990000       1.004885       1.097124       2.392097
      10.000000       1.005806       1.094630       2.380273
      10.010000       1.008452       1.091126       2.368159
      10.020000       1.012818       1.086465       2.355138
      10.030000       1.018914       1.080728       2.340746
      10.040000       1.026744       1.074164       2.324696
      10.050000       1.036273       1.067114       2.306887
      10.060000       1.047393       1.059925       2.287372
      10.070000       1.059925       1.052910       2.266299
      10.080000       1.073640       1.046324       2.243859
      10.090000       1.088315       1.040356       2.220243
      10.100000       1.103792       1.035104       2.195660
      10.110000       1.120031       1.030566       2.170392
      10.120000       1.137122       1.026636       2.144849
      10.130000       1.155259       1.023112       2.119568
      10.140000       1.174666       1.019737       2.095158
      10.150000       1.195512       1.016234       2.072190
      10.160000       1.217833       1.012348       2.051100
      10.170000       1.241475       1.007873       2.032123
      10.180000       1.266085       1.002657       2.015286
      10.190000       1.291146       0.996587       2.000437
      10.200000       1.316044       0.989575       1.987318
      10.210000       1.340183       0.981552       1.975644
      10.220000       1.363127       0.972473       1.965177
      10.230000       1.384717       0.962342       1.955778
      10.240000       1.405150       0.951223       1.947411
      10.250000       1.424955       0.939248       1.940117
      10.260000       1.444883       0.926603       1.933961
      10.270000       1.465740       0.913491       1.928977
      10.280000       1.488233       0.900103       1.925126
      10.290000       1.512852       0.886591       1.922257
      10.300000       1.539824       0.873072       1.920109
      10.310000       1.569105       0.859656       1.918336
      10.320000       1.600406       0.846489       1.916570
      10.330000       1.633250       0.833785       1.914510
      10.340000       1.667046       0.821834       1.911991
      10.350000       1.701178       0.810971       1.909038
      10.360000       1.735103       0.801516       1.905873
      10.370000       1.768426       0.793704       1.902881
      10.380000       1.800962       0.787630       1.900559
      10.390000       1.832778       0.783219       1.899460
      10.400000       1.864198       0.780230       1.900145
      10.410000       1.895740       0.778298       1.903146
      10.420000       1.927951       0.776993       1.908946
      10.430000       1.961142       0.775888       1.917967
      10.440000       1.995082       0.774621       1.930573
      10.450000       2.028751       0.772941       1.947101
      10.460000       2.060273       0.770733       1.967901
      10.470000       2.087084       0.768012       1.993379
      10.480000       2.106365       0.764898       2.024004
      10.490000       2.115635       0.761568       2.060267
      10.500000       2.113348       0.758204       2.102597
      10.510000       2.099305       0.754956       2.151259
      10.520000       2.074736       0.751908       2.206267
      10.530000       2.042015       0.749077       2.267355
      10.540000       2.004095       0.746420       2.333993
      10.550000       1.963887       0.743866       2.405446
      10.560000       1.923767       0.741343       2.480818
      10.570000       1.885354       0.738811       2.559056
      10.580000       1.849551       0.736284       2.638901
      10.590000       1.816761       0.733827       2.718833
      10.600000       1.787152       0.731535       2.797049
      10.610000       1.760865       0.729501       2.871511
      10.620000       1.738110       0.727775       2.940067
      10.630000       1.719156       0.726327       3.000600
      10.640000       1.704273       0.725024       3.051142
      10.650000       1.693667       0.723626       3.089944
      10.660000       1.687468       0.721817       3.115501
      10.670000       1.685753       0.719272       3.126579
      10.680000       1.688575       0.715746       3.122288
      10.690000       1.695963       0.711131       3.102214
      10.700000       1.707873       0.705492       3.066586
      10.710000       1.724099       0.699039       3.016390
      10.720000       1.744195       0.692088       2.953382
      10.730000       1.767427       0.684996       2.879941
      10.740000       1.792766       0.678119       2.798796
      10.750000       1.818895       0.671777       2.712702
      10.760000       1.844220       0.666229       2.624150
      10.770000       1.866892       0.661666       2.535190
      10.780000       1.884906       0.658204       2.447374
      10.790000       1.896306       0.655882       2.361794
      10.800000       1.899511       0.654643       2.279143
      10.810000       1.893649       0.654297       2.199798
      10.820000       1.878775       0.654490       2.123899
      10.830000       1.855845       0.654704       2.051453
      10.840000       1.826456       0.654308       1.982465
      10.850000       1.792489       0.652668       1.917023
      10.860000       1.755810       0.649282       1.855343
      10.870000       1.718113       0.643889       1.797722
      10.880000       1.680873       0.636525       1.744448
      10.890000       1.645313       0.627491       1.695709
      10.900000       1.612325       0.617281       1.651537
      10.910000       1.582365       0.606475       1.611826
      10.920000       1.555395       0.595652       1.576391
      10.930000       1.530924       0.585311       1.545055
      10.940000       1.508171       0.575840       1.517703
      10.950000       1.486318       0.567515       1.494291
      10.960000       1.464744       0.560515       1.474791
      10.970000       1.443188       0.554955       1.459105
      10.980000       1.421771       0.550898       1.446998
      10.990000       1.400892       0.548362       1.438069
      11.000000       1.381067       0.547303       1.431771
      11.010000       1.362764       0.547615       1.427466
      11.020000       1.346298       0.549129       1.424486
      11.030000       1.331804       0.551624       1.422198
      11.040000       1.319289       0.554845       1.420058
      11.050000       1.308705       0.558508       1.417647
      11.060000       1.300017       0.562309       1.414679
      11.070000       1.293230       0.565933       1.410973
      11.080000       1.288377       0.569069       1.406413
      11.090000       1.285494       0.571443       1.400925
      11.100000       1.284599       0.572841       1.394480
      11.110000       1.285696       0.573128       1.387152
      11.120000       1.288793       0.572244       1.379167
      11.130000       1.293923       0.570203       1.370918
      11.140000       1.301140       0.567091       1.362913
      11.150000       1.310500       0.563060       1.355654
      11.160000       1.322015       0.558323       1.349498
      11.170000       1.335614       0.553132       1.344535
      11.180000       1.351122       0.547748       1.340536
      11.190000       1.368266       0.542398       1.336994
      11.200000       1.386700       0.537244       1.333231
      11.210000       1.406047       0.532360       1.328536
      11.220000       1.425945       0.527734       1.322292
      11.230000       1.446086       0.523288       1.314053
      11.240000       1.466250       0.518918       1.303598
      11.250000       1.486328       0.514547       1.290938
      11.260000       1.506341       0.510158       1.276309
      11.270000       1.526438       0.505815       1.260110
      11.280000       1.546862       0.501653       1.242810
      11.290000       1.567865       0.497840       1.224851
      11.300000       1.589573       0.494544       1.206557
      11.310000       1.611826       0.491890       1.188099
      11.320000       1.634035       0.489945       1.169483
      11.330000       1.655092       0.488703       1.150575
      11.340000       1.673346       0.488091       1.131133
      11.350000       1.686707       0.487985       1.110883
      11.360000       1.692898       0.488229       1.089593
      11.370000       1.689873       0.488665       1.067167
      11.380000       1.676297       0.489154       1.043715
      11.390000       1.651921       0.489586       1.019572
      11.400000       1.617676       0.489883       0.995256
      11.410000       1.575468       0.489990       0.971384
      11.420000       1.527741       0.489883       0.948561
      11.430000       1.477023       0.489575       0.927293
      11.440000       1.425565       0.489137       0.907929
      11.450000       1.375158       0.488709       0.890630
      11.460000       1.327081       0.488497       0.875376
      11.470000       1.282133       0.488742       0.861985
      11.480000       1.240687       0.489656       0.850167
      11.490000       1.202754       0.491367       0.839576
      11.500000       1.168054       0.493868       0.829867
      11.510000       1.136133       0.497005       0.820741
      11.520000       1.106487       0.500503       0.811957
      11.530000       1.078697       0.504023       0.803343
      11.540000       1.052512       0.507238       0.794781
      11.550000       1.027874       0.509896       0.786199
      11.560000       1.004884       0.511858       0.777556
      11.570000       0.983724       0.513083       0.768842
      11.580000       0.964562       0.513603       0.760078
      11.590000       0.947487       0.513480       0.751327
      11.600000       0.932477       0.512783       0.742692
      11.610000       0.919401       0.511572       0.734314
      11.620000       0.908048       0.509893       0.726351
      11.630000       0.898148       0.507771       0.718951
      11.640000       0.889407       0.505194       0.712219
      11.650000       0.881537       0.502123       0.706193
      11.660000       0.874289       0.498511       0.700834
      11.670000       0.867495       0.494332       0.696025
      11.680000       0.861092       0.489613       0.691591
      11.690000       0.855129       0.484440       0.687337
      11.700000       0.849750       0.478936       0.683078
      11.710000       0.845170       0.473224       0.678678
      11.720000       0.841641       0.467390       0.674061
      11.730000       0.839421       0.461463       0.669211
      11.740000       0.838750       0.455435       0.664167
      11.750000       0.839819       0.449281       0.659007
      11.760000       0.842748       0.443006       0.653829
      11.770000       0.847586       0.436662       0.648730
      11.780000       0.854328       0.430362       0.643786
      11.790000       0.862940       0.424263       0.639034
      11.800000       0.873392       0.418548       0.634483
      11.810000       0.885682       0.413397       0.630126
      11.820000       0.899841       0.408963       0.625964
      11.830000       0.915922       0.405356       0.622013
      11.840000       0.933964       0.402623       0.618296
      11.850000       0.953942       0.400742       0.614823
      11.860000       0.975710       0.399619       0.611572
      11.870000       0.998947       0.399101       0.608478
      11.880000       1.023146       0.399005       0.605433
      11.890000       1.047637       0.399150       0.602293
      11.900000       1.071634       0.399403       0.598894
      11.910000       1.094263       0.399698       0.595073
      11.920000       1.114563       0.400045       0.590698
      11.930000       1.131459       0.400515       0.585708
      11.940000       1.143772       0.401212       0.580139
      11.950000       1.150314       0.402255       0.574149
      11.960000       1.150077       0.403744       0.567990
      11.970000       1.142474       0.405744       0.561973
      11.980000       1.127537       0.408266       0.556409
      11.990000       1.105986       0.411266       0.551550
      12.000000       1.079137       0.414657       0.547560
      12.010000       1.048664       0.418348       0.544497
      12.020000       1.016320       0.422279       0.542324
      12.030000       0.983691       0.426460       0.540932
      12.040000       0.952044       0.430977       0.540178
      12.050000       0.922270       0.435981       0.539926
      12.060000       0.894905       0.441653       0.540066
      12.070000       0.870199       0.448170       0.540526
      12.080000       0.848196       0.455668       0.541252
      12.090000       0.828823       0.464219       0.542175
      12.100000       0.811959       0.473808       0.543196
      12.110000       0.797487       0.484331       0.544171
      12.120000       0.785311       0.495588       0.544941
      12.130000       0.775344       0.507304       0.545353
      12.140000       0.767480       0.519155       0.545291
      12.150000       0.761551       0.530813       0.544685
      12.160000       0.757300       0.541987       0.543506
      12.170000       0.754357       0.552460       0.541752
      12.180000       0.752257       0.562112       0.539436
      12.190000       0.750489       0.570908       0.536590
      12.200000       0.748570       0.578878       0.533279
      12.210000       0.746125       0.586074       0.529616
      12.220000       0.742945       0.592528       0.525759
      12.230000       0.738994       0.598217       0.521905
      12.240000       0.734387       0.603050       0.518265
      12.250000       0.729346       0.606873       0.515030
      12.260000       0.724149       0.609500       0.512341
      12.270000       0.719080       0.610760       0.510249
      12.280000       0.714380       0.610543       0.508682
      12.290000       0.710208       0.608838       0.507438
      12.300000       0.706633       0.605756       0.506185
      12.310000       0.703629       0.601524       0.504515
      12.320000       0.701100       0.596462       0.502016
      12.330000       0.698913       0.590937       0.498365
      12.340000       0.696927       0.585313       0.493396
      12.350000       0.695036       0.579896       0.487142
      12.360000       0.693191       0.574894       0.479823
      12.370000       0.691410       0.570400       0.471800
      12.380000       0.689759       0.566409       0.463504
      12.390000       0.688325       0.562862       0.455376
      12.400000       0.687176       0.559698       0.447805
      12.410000       0.686362       0.556904       0.441099
      12.420000       0.685913       0.554545       0.435470
      12.430000       0.685860       0.552758       0.431039
      12.440000       0.686235       0.551724       0.427841
      12.450000       0.687062       0.551619       0.425841
      12.460000       0.688343       0.552562       0.424941
      12.470000       0.690061       0.554585       0.424987
      12.480000       0.692210       0.557625       0.425777
      12.490000       0.694836       0.561535       0.427075
      12.500000       0.698071       0.566114       0.428617
      12.510000       0.702138       0.571139       0.430134
      12.520000       0.707327       0.576383       0.431365
      12.530000       0.713931       0.581628       0.432076
      12.540000       0.722174       0.586656       0.432065
      12.550000       0.732143       0.591242       0.431172
      12.560000       0.743740       0.595155       0.429282
      12.570000       0.756675       0.598168       0.426332
      12.580000       0.770498       0.600097       0.422330
      12.590000       0.784645       0.600833       0.417362
      12.600000       0.798504       0.600382       0.411588
      12.610000       0.811441       0.598870       0.405219
      12.620000       0.822802       0.596529       0.398487
      12.630000       0.831897       0.593641       0.391618
      12.640000       0.838009       0.590485       0.384817
      12.650000       0.840446       0.587278       0.378265
      12.660000       0.838656       0.584155       0.372127
      12.670000       0.832349       0.581181       0.366548
      12.680000       0.821589       0.578384       0.361644
      12.690000       0.806807       0.575791       0.357495
      12.700000       0.788737       0.573457       0.354128
      12.710000       0.768292       0.571476       0.351520
      12.720000       0.746426       0.569980       0.349595
      12.730000       0.724022       0.569121       0.348232
      12.740000       0.701820       0.569041       0.347279
      12.750000       0.680376       0.569824       0.346564
      12.760000       0.660057       0.571449       0.345913
      12.770000       0.641064       0.573753       0.345166
      12.780000       0.623461       0.576437       0.344199
      12.790000       0.607222       0.579109       0.342928
      12.800000       0.592269       0.581354       0.341320
      12.810000       0.578499       0.582818       0.339382
      12.820000       0.565818       0.583264       0.337150
      12.830000       0.554160       0.582597       0.334672
      12.840000       0.543522       0.580845       0.332005
      12.850000       0.533978       0.578139       0.329207
      12.860000       0.525685       0.574673       0.326335
      12.870000       0.518857       0.570687       0.323448
      12.880000       0.513736       0.566438       0.320592
      12.890000       0.510549       0.562181       0.317793
      12.900000       0.509469       0.558155       0.315047
      12.910000       0.510590       0.554563       0.312319
      12.920000       0.513909       0.551561       0.309547
      12.930000       0.519319       0.549259       0.306651
      12.940000       0.526612       0.547726       0.303549
      12.950000       0.535493       0.547007       0.300174
      12.960000       0.545601       0.547138       0.296495
      12.970000       0.556543       0.548155       0.292532
      12.980000       0.567912       0.550087       0.288366
      12.990000       0.579299       0.552930       0.284136
      13.000000       0.590291       0.556631       0.280010
      13.010000       0.600460       0.561058       0.276162
      13.020000       0.609376       0.566009       0.272742
      13.030000       0.616636       0.571228       0.269849
      13.040000       0.621921       0.576443       0.267530
      13.050000       0.625042       0.581409       0.265771
      13.060000       0.625973       0.585940       0.264514
      13.070000       0.624847       0.589920       0.263669
      13.080000       0.621908       0.593290       0.263131
      13.090000       0.617462       0.596006       0.262800
      13.100000       0.611832       0.597999       0.262582
      13.110000       0.605340       0.599157       0.262397
      13.120000       0.598321       0.599331       0.262174
      13.130000       0.591150       0.598371       0.261846
      13.140000       0.584239       0.596182       0.261356
      13.150000       0.578017       0.592760       0.260654
      13.160000       0.572873       0.588220       0.259714
      13.170000       0.569104       0.582785       0.258540
      13.180000       0.566878       0.576757       0.257168
      13.190000       0.566204       0.570465       0.255671
      13.200000       0.566936       0.564211       0.254139
      13.210000       0.568780       0.558215       0.252661
      13.220000       0.571328       0.552588       0.251305
      13.230000       0.574110       0.547326       0.250101
      13.240000       0.576671       0.542345       0.249039
      13.250000       0.578644       0.537532       0.248076
      13.260000       0.579822       0.532795       0.247156
      13.270000       0.580188       0.528106       0.246229
      13.280000       0.579906       0.523509       0.245267
      13.290000       0.579262       0.519104       0.244268
      13.300000       0.578587       0.515022       0.243253
      13.310000       0.578156       0.511397       0.242255
      13.320000       0.578132       0.508357       0.241308
      13.330000       0.578521       0.506011       0.240442
      13.340000       0.579188       0.504461       0.239683
      13.350000       0.579876       0.503793       0.239045
      13.360000       0.580247       0.504080       0.238536
      13.370000       0.579904       0.505362       0.238152
      13.380000       0.578398       0.507623       0.237884
      13.390000       0.575252       0.510770       0.237721
      13.400000       0.570004       0.514605       0.237659
      13.410000       0.562299       0.518829       0.237712
      13.420000       0.551997       0.523056       0.237909
      13.430000       0.539250       0.526853       0.238295
      13.440000       0.524512       0.529788       0.238922
      13.450000       0.508465       0.531486       0.239840
      13.460000       0.491891       0.531676       0.241082
      13.470000       0.475536       0.530235       0.242661
      13.480000       0.460011       0.527211       0.244568
      13.490000       0.445753       0.522822       0.246769
      13.500000       0.433035       0.517425       0.249216
      13.510000       0.422005       0.511460       0.251852
      13.520000       0.412730       0.505378       0.254615
      13.530000       0.405224       0.499576       0.257441
      13.540000       0.399449       0.494346       0.260270
      13.550000       0.395322       0.489860       0.263053
      13.560000       0.392702       0.486181       0.265756
      13.570000       0.391395       0.483290       0.268368
      13.580000       0.391155       0.481121       0.270904
      13.590000       0.391699       0.479598       0.273407
      13.600000       0.392722       0.478649       0.275938
      13.610000       0.393921       0.478225       0.278571
      13.620000       0.395031       0.478301       0.281378
      13.630000       0.395857       0.478876       0.284420
      13.640000       0.396313       0.479981       0.287741
      13.650000       0.396422       0.481668       0.291370
      13.660000       0.396309       0.483998       0.295333
      13.670000       0.396141       0.487023       0.299652
      13.680000       0.396079       0.490750       0.304352
      13.690000       0.396224       0.495129       0.309456
      13.700000       0.396603       0.500033       0.314984
      13.710000       0.397183       0.505255       0.320942
      13.720000       0.397900       0.510518       0.327319
      13.730000       0.398691       0.515479       0.334081
      13.740000       0.399521       0.519742       0.341168
      13.750000       0.400387       0.522893       0.348492
      13.760000       0.401321       0.524546       0.355945
      13.770000       0.402371       0.524399       0.363413
      13.780000       0.403581       0.522299       0.370787
      13.790000       0.404962       0.518273       0.377977
      13.800000       0.406471       0.512531       0.384919
      13.810000       0.408007       0.505426       0.391586
      13.820000       0.409430       0.497378       0.397988
      13.830000       0.410582       0.488815       0.404167
      13.840000       0.411325       0.480114       0.410185
      13.850000       0.411568       0.471586       0.416104
      13.860000       0.411293       0.463471       0.421966
      13.870000       0.410576       0.455939       0.427787
      13.880000       0.409588       0.449101       0.433555
      13.890000       0.408577       0.443013       0.439234
      13.900000       0.407831       0.437687       0.444778
      13.910000       0.407637       0.433109       0.450133
      13.920000       0.408228       0.429259       0.455237
      13.930000       0.409750       0.426136       0.460014
      13.940000       0.412235       0.423767       0.464374
      13.950000       0.415595       0.422202       0.468202
      13.960000       0.419636       0.421484       0.471364
      13.970000       0.424090       0.421622       0.473709
      13.980000       0.428648       0.422553       0.475083
      13.990000       0.433011       0.424136       0.475336
      14.000000       0.436925       0.426165       0.474346
      14.010000       0.440211       0.428393       0.472020
      14.020000       0.442784       0.430561       0.468306
      14.030000       0.444653       0.432417       0.463193
      14.040000       0.445915       0.433709       0.456711
      14.050000       0.446743       0.434188       0.448932
      14.060000       0.447350       0.433606       0.439966
      14.070000       0.447950       0.431747       0.429965
      14.080000       0.448710       0.428478       0.419115
      14.090000       0.449704       0.423798       0.407633
      14.100000       0.450914       0.417875       0.395747
      14.110000       0.452245       0.411042       0.383683
      14.120000       0.453567       0.403749       0.371643
      14.130000       0.454759       0.396483       0.359791
      14.140000       0.455726       0.389687       0.348246
      14.150000       0.456396       0.383699       0.337085
      14.160000       0.456704       0.378706       0.326347
      14.170000       0.456587       0.374743       0.316050
      14.180000       0.455995       0.371703       0.306198
      14.190000       0.454905       0.369358       0.296804
      14.200000       0.453337       0.367406       0.287894
      14.210000       0.451333       0.365507       0.279516
      14.220000       0.448940       0.363337       0.271732
      14.230000       0.446186       0.360643       0.264607
      14.240000       0.443070       0.357280       0.258195
      14.250000       0.439563       0.353224       0.252526
      14.260000       0.435636       0.348561       0.247604
      14.270000       0.431288       0.343448       0.243401
      14.280000       0.426570       0.338075       0.239868
      14.290000       0.421598       0.332627       0.236943
      14.300000       0.416534       0.327253       0.234550
      14.310000       0.411550       0.322058       0.232609
      14.320000       0.406792       0.317093       0.231034
      14.330000       0.402349       0.312360       0.229735
      14.340000       0.398252       0.307831       0.228622
      14.350000       0.394463       0.303460       0.227609
      14.360000       0.390889       0.299211       0.226618
      14.370000       0.387385       0.295062       0.225587
      14.380000       0.383777       0.291018       0.224472
      14.390000       0.379900       0.287096       0.223255
      14.400000       0.375643       0.283322       0.221944
      14.410000       0.370989       0.279709       0.220578
      14.420000       0.366031       0.276257       0.219220
      14.430000       0.360963       0.272944       0.217955
      14.440000       0.356043       0.269733       0.216876
      14.450000       0.351543       0.266589       0.216073
      14.460000       0.347713       0.263492       0.215618
      14.470000       0.344750       0.260453       0.215551
      14.480000       0.342781       0.257518       0.215880
      14.490000       0.341858       0.254750       0.216569
      14.500000       0.341951       0.252206       0.217546
      14.510000       0.342951       0.249916       0.218710
      14.520000       0.344677       0.247862       0.219948
      14.530000       0.346891       0.245982       0.221149
      14.540000       0.349327       0.244186       0.222224
      14.550000       0.351721       0.242378       0.223124
      14.560000       0.353856       0.240481       0.223845
      14.570000       0.355588       0.238450       0.224429
      14.580000       0.356870       0.236280       0.224953
      14.590000       0.357755       0.234005       0.225510
      14.600000       0.358385       0.231689       0.226192
      14.610000       0.358959       0.229417       0.227074
      14.620000       0.359698       0.227281       0.228209
      14.630000       0.360792       0.225361       0.229629
      14.640000       0.362365       0.223720       0.231349
      14.650000       0.364453       0.222389       0.233377
      14.660000       0.367001       0.221366       0.235711
      14.670000       0.369886       0.220619       0.238340
      14.680000       0.372951       0.220099       0.241248
      14.690000       0.376050       0.219742       0.244414
      14.700000       0.379073       0.219491       0.247821
      14.710000       0.381965       0.219291       0.251461
      14.720000       0.384724       0.219098       0.255342
      14.730000       0.387382       0.218881       0.259479
      14.740000       0.389983       0.218624       0.263894
      14.750000       0.392564       0.218324       0.268607
      14.760000       0.395125       0.217992       0.273636
      14.770000       0.397624       0.217643       0.278997
      14.780000       0.399980       0.217288       0.284704
      14.790000       0.402087       0.216936       0.290770
      14.800000       0.403835       0.216587       0.297200
      14.810000       0.405137       0.216235       0.303982
      14.820000       0.405931       0.215872       0.311082
      14.830000       0.406180       0.215486       0.318438
      14.840000       0.405861       0.215066       0.325974
      14.850000       0.404975       0.214609       0.333604
      14.860000       0.403547       0.214122       0.341256
      14.870000       0.401647       0.213630       0.348875
      14.880000       0.399381       0.213165       0.356431
      14.890000       0.396879       0.212755       0.363928
      14.900000       0.394259       0.212413       0.371408
      14.910000       0.391606       0.212129       0.378954
      14.920000       0.388964       0.211880       0.386699
      14.930000       0.386356       0.211636       0.394806
      14.940000       0.383813       0.211377       0.403456
      14.950000       0.381404       0.211098       0.412815
      14.960000       0.379240       0.210806       0.423010
      14.970000       0.377455       0.210515       0.434107
      14.980000       0.376174       0.210238       0.446096
      14.990000       0.375468       0.209976       0.458897
      15.000000       0.375324       0.209727       0.472359
      15.010000       0.375632       0.209488       0.486281
      15.020000       0.376198       0.209260       0.500425
      15.030000       0.376784       0.209061       0.514543
      15.040000       0.377166       0.208920       0.528408
      15.050000       0.377192       0.208877       0.541830
      15.060000       0.376808       0.208974       0.554674
      15.070000       0.376050       0.209244       0.566852
      15.080000       0.375006       0.209702       0.578320
      15.090000       0.373769       0.210338       0.589069
      15.100000       0.372401       0.211119       0.599140
      15.110000       0.370919       0.211993       0.608621
      15.120000       0.369306       0.212896       0.617654
      15.130000       0.367522       0.213765       0.626412
      15.140000       0.365529       0.214542       0.635070
      15.150000       0.363307       0.215175       0.643768
      15.160000       0.360857       0.215612       0.652579
      15.170000       0.358210       0.215804       0.661486
      15.180000       0.355410       0.215698       0.670367
      15.190000       0.352513       0.215248       0.678999
      15.200000       0.349577       0.214430       0.687055
      15.210000       0.346647       0.213240       0.694122
      15.220000       0.343749       0.211709       0.699722
      15.230000       0.340879       0.209896       0.703351
      15.240000       0.337995       0.207883       0.704545
      15.250000       0.335030       0.205766       0.702939
      15.260000       0.331909       0.203643       0.698342
      15.270000       0.328586       0.201601       0.690770
      15.280000       0.325067       0.199707       0.680459
      15.290000       0.321424       0.198003       0.667832
      15.300000       0.317785       0.196509       0.653431
      15.310000       0.314301       0.195222       0.637849
      15.320000       0.311117       0.194124       0.621652
      15.330000       0.308338       0.193188       0.605325
      15.340000       0.306021       0.192379       0.589241
      15.350000       0.304181       0.191661       0.573661
      15.360000       0.302806       0.190995       0.558754
      15.370000       0.301867       0.190342       0.544634
      15.380000       0.301326       0.189666       0.531373
      15.390000       0.301130       0.188930       0.519015
      15.400000       0.301201       0.188104       0.507554
      15.410000       0.301442       0.187167       0.496928
      15.420000       0.301746       0.186112       0.487017
      15.430000       0.302032       0.184953       0.477666
      15.440000       0.302267       0.183719       0.468723
      15.450000       0.302496       0.182453       0.460083
      15.460000       0.302825       0.181203       0.451700
      15.470000       0.303403       0.180019       0.443580
      15.480000       0.304380       0.178944       0.435734
      15.490000       0.305871       0.178009       0.428136
      15.500000       0.307929       0.177237       0.420689
      15.510000       0.310531       0.176634       0.413221
      15.520000       0.313583       0.176196       0.405519
      15.530000       0.316939       0.175908       0.397374
      15.540000       0.320426       0.175752       0.388635
      15.550000       0.323879       0.175702       0.379239
      15.560000       0.327158       0.175730       0.369208
      15.570000       0.330148       0.175803       0.358635
      15.580000       0.332758       0.175882       0.347648
      15.590000       0.334907       0.175931       0.336390
      15.600000       0.336538       0.175911       0.325014
      15.610000       0.337622       0.175796       0.313678
      15.620000       0.338170       0.175565       0.302550
      15.630000       0.338239       0.175210       0.291801
      15.640000       0.337918       0.174732       0.281592
      15.650000       0.337317       0.174146       0.272056
      15.660000       0.336541       0.173480       0.263285
      15.670000       0.335678       0.172773       0.255322
      15.680000       0.334779       0.172079       0.248162
      15.690000       0.333856       0.171454       0.241760
      15.700000       0.332889       0.170956       0.236039
      15.710000       0.331847       0.170634       0.230900
      15.720000       0.330698       0.170524       0.226233
      15.730000       0.329428       0.170644       0.221923
      15.740000       0.328028       0.170993       0.217858
      15.750000       0.326484       0.171561       0.213939
      15.760000       0.324770       0.172329       0.210087
      15.770000       0.322833       0.173278       0.206256
      15.780000       0.320609       0.174386       0.202435
      15.790000       0.318032       0.175629       0.198648
      15.800000       0.315053       0.176972       0.194939
      15.810000       0.311660       0.178374       0.191364
      15.820000       0.307890       0.179783       0.187976
      15.830000       0.303823       0.181141       0.184811
      15.840000       0.299567       0.182381       0.181886
      15.850000       0.295234       0.183432       0.179195
      15.860000       0.290928       0.184217       0.176714
      15.870000       0.286730       0.184664       0.174409
      15.880000       0.282709       0.184713       0.172238
      15.890000       0.278927       0.184334       0.170163
      15.900000       0.275431       0.183535       0.168154
      15.910000       0.272250       0.182362       0.166195
      15.920000       0.269381       0.180893       0.164278
      15.930000       0.266780       0.179224       0.162406
      15.940000       0.264377       0.177457       0.160585
      15.950000       0.262089       0.175686       0.158828
      15.960000       0.259850       0.173995       0.157156
      15.970000       0.257628       0.172457       0.155589
      15.980000       0.255433       0.171138       0.154154
      15.990000       0.253317       0.170091       0.152875
      16.000000       0.251355       0.169357       0.151774
      16.010000       0.249635       0.168952       0.150875
      16.020000       0.248245       0.168862       0.150203
      16.030000       0.247256       0.169043       0.149781
      16.040000       0.246722       0.169424       0.149635
      16.050000       0.246674       0.169923       0.149786
      16.060000       0.247124       0.170460       0.150254
      16.070000       0.248067       0.170972       0.151053
      16.080000       0.249472       0.171427       0.152189
      16.090000       0.251282       0.171828       0.153656
      16.100000       0.253401       0.172203       0.155431
      16.110000       0.255698       0.172598       0.157465
      16.120000       0.258009       0.173057       0.159689
      16.130000       0.260159       0.173611       0.162012
      16.140000       0.261993       0.174263       0.164329
      16.150000       0.263407       0.174992       0.166527
      16.160000       0.264383       0.175754       0.168492
      16.170000       0.264989       0.176487       0.170113
      16.180000       0.265368       0.177125       0.171291
      16.190000       0.265705       0.177601       0.171950
      16.200000       0.266191       0.177860       0.172050
      16.210000       0.266990       0.177869       0.171587
      16.220000       0.268220       0.177622       0.170602
      16.230000       0.269951       0.177145       0.169170
      16.240000       0.272208       0.176491       0.167391
      16.250000       0.274978       0.175735       0.165380
      16.260000       0.278216       0.174965       0.163250
      16.270000       0.281841       0.174270       0.161102
      16.280000       0.285717       0.173724       0.159010
      16.290000       0.289649       0.173375       0.157021
      16.300000       0.293376       0.173237       0.155156
      16.310000       0.296590       0.173284       0.153415
      16.320000       0.298978       0.173454       0.151785
      16.330000       0.300281       0.173656       0.150253
      16.340000       0.300341       0.173783       0.148809
      16.350000       0.299137       0.173718       0.147456
      16.360000       0.296785       0.173352       0.146211
      16.370000       0.293501       0.172595       0.145102
      16.380000       0.289553       0.171393       0.144157
      16.390000       0.285215       0.169743       0.143393
      16.400000       0.280723       0.167691       0.142807
      16.410000       0.276250       0.165331       0.142374
      16.420000       0.271901       0.162785       0.142046
      16.430000       0.267718       0.160186       0.141764
      16.440000       0.263703       0.157660       0.141468
      16.450000       0.259838       0.155311       0.141108
      16.460000       0.256103       0.153211       0.140652
      16.470000       0.252477       0.151396       0.140089
      16.480000       0.248942       0.149871       0.139419
      16.490000       0.245475       0.148617       0.138650
      16.500000       0.242042       0.147603       0.137793
      16.510000       0.238595       0.146798       0.136863
      16.520000       0.235075       0.146177       0.135880
      16.530000       0.231422       0.145724       0.134876
      16.540000       0.227586       0.145433       0.133893
      16.550000       0.223541       0.145298       0.132974
      16.560000       0.219284       0.145309       0.132160
      16.570000       0.214837       0.145445       0.131479
      16.580000       0.210242       0.145676       0.130942
      16.590000       0.205547       0.145963       0.130540
      16.600000       0.200812       0.146268       0.130252
      16.610000       0.196097       0.146558       0.130051
      16.620000       0.191464       0.146805       0.129915
      16.630000       0.186971       0.146992       0.129834
      16.640000       0.182673       0.147101       0.129813
      16.650000       0.178620       0.147115       0.129872
      16.660000       0.174853       0.147013       0.130039
      16.670000       0.171406       0.146777       0.130345
      16.680000       0.168301       0.146388       0.130817
      16.690000       0.165549       0.145836       0.131472
      16.700000       0.163139       0.145120       0.132318
      16.710000       0.161048       0.144251       0.133345
      16.720000       0.159231       0.143251       0.134529
      16.730000       0.157632       0.142157       0.135830
      16.740000       0.156190       0.141014       0.137188
      16.750000       0.154846       0.139876       0.138534
      16.760000       0.153553       0.138795       0.139785
      16.770000       0.152280       0.137816       0.140862
      16.780000       0.151018       0.136975       0.141694
      16.790000       0.149774       0.136293       0.142232
      16.800000       0.148573       0.135774       0.142451
      16.810000       0.147447       0.135411       0.142353
      16.820000       0.146433       0.135179       0.141962
      16.830000       0.145572       0.135044       0.141320
      16.840000       0.144903       0.134960       0.140475
      16.850000       0.144463       0.134875       0.139479
      16.860000       0.144284       0.134739       0.138380
      16.870000       0.144386       0.134505       0.137222
      16.880000       0.144780       0.134146       0.136044
      16.890000       0.145462       0.133655       0.134877
      16.900000       0.146413       0.133052       0.133750
      16.910000       0.147604       0.132380       0.132684
      16.920000       0.148994       0.131701       0.131696
      16.930000       0.150542       0.131084       0.130803
      16.940000       0.152206       0.130588       0.130015
      16.950000       0.153955       0.130256       0.129340
      16.960000       0.155772       0.130105       0.128776
      16.970000       0.157663       0.130129       0.128316
      16.980000       0.159660       0.130300       0.127945
      16.990000       0.161819       0.130584       0.127643
      17.000000       0.164215       0.130937       0.127394
      17.010000       0.166929       0.131323       0.127187
      17.020000       0.170034       0.131704       0.127015
      17.030000       0.173586       0.132048       0.126873
      17.040000       0.177616       0.132327       0.126755
      17.050000       0.182120       0.132515       0.126651
      17.060000       0.187060       0.132587       0.126544
      17.070000       0.192353       0.132520       0.126417
      17.080000       0.197864       0.132295       0.126256
      17.090000       0.203403       0.131900       0.126056
      17.100000       0.208727       0.131336       0.125819
      17.110000       0.213557       0.130621       0.125553
      17.120000       0.217596       0.129793       0.125268
      17.130000       0.220572       0.128903       0.124968
      17.140000       0.222276       0.128007       0.124649
      17.150000       0.222603       0.127156       0.124298
      17.160000       0.221571       0.126385       0.123897
      17.170000       0.219321       0.125707       0.123426
      17.180000       0.216087       0.125112       0.122866
      17.190000       0.212152       0.124572       0.122203
      17.200000       0.207805       0.124045       0.121430
      17.210000       0.203302       0.123491       0.120546
      17.220000       0.198852       0.122875       0.119558
      17.230000       0.194603       0.122172       0.118474
      17.240000       0.190654       0.121371       0.117309
      17.250000       0.187055       0.120469       0.116080
      17.260000       0.183827       0.119475       0.114814
      17.270000       0.180963       0.118404       0.113544
      17.280000       0.178435       0.117285       0.112312
      17.290000       0.176195       0.116155       0.111165
      17.300000       0.174177       0.115057       0.110147
      17.310000       0.172304       0.114042       0.109298
      17.320000       0.170496       0.113155       0.108646
      17.330000       0.168681       0.112435       0.108199
      17.340000       0.166803       0.111907       0.107947
      17.350000       0.164827       0.111583       0.107860
      17.360000       0.162748       0.111464       0.107893
      17.370000       0.160591       0.111542       0.107992
      17.380000       0.158410       0.111806       0.108108
      17.390000       0.156282       0.112243       0.108205
      17.400000       0.154287       0.112841       0.108267
      17.410000       0.152496       0.113593       0.108303
      17.420000       0.150954       0.114489       0.108337
      17.430000       0.149678       0.115516       0.108404
      17.440000       0.148657       0.116649       0.108537
      17.450000       0.147866       0.117857       0.108759
      17.460000       0.147269       0.119098       0.109077
      17.470000       0.146831       0.120326       0.109483
      17.480000       0.146522       0.121496       0.109960
      17.490000       0.146316       0.122567       0.110484
      17.500000       0.146193       0.123513       0.111033
      17.510000       0.146133       0.124319       0.111593
      17.520000       0.146112       0.124980       0.112156
      17.530000       0.146101       0.125502       0.112722
      17.540000       0.146066       0.125896       0.113297
      17.550000       0.145972       0.126168       0.113889
      17.560000       0.145789       0.126327       0.114508
      17.570000       0.145489       0.126374       0.115165
      17.580000       0.145060       0.126309       0.115873
      17.590000       0.144505       0.126132       0.116644
      17.600000       0.143846       0.125840       0.117489
      17.610000       0.143133       0.125433       0.118418
      17.620000       0.142429       0.124914       0.119440
      17.630000       0.141809       0.124292       0.120566
      17.640000       0.141340       0.123584       0.121809
      17.650000       0.141077       0.122811       0.123188
      17.660000       0.141045       0.121994       0.124724
      17.670000       0.141242       0.121148       0.126439
      17.680000       0.141638       0.120284       0.128354
      17.690000       0.142174       0.119404       0.130479
      17.700000       0.142776       0.118505       0.132813
      17.710000       0.143352       0.117584       0.135335
      17.720000       0.143811       0.116640       0.138008
      17.730000       0.144063       0.115670       0.140781
      17.740000       0.144038       0.114681       0.143594
      17.750000       0.143687       0.113681       0.146391
      17.760000       0.142991       0.112687       0.149120
      17.770000       0.141960       0.111723       0.151743
      17.780000       0.140631       0.110815       0.154237
      17.790000       0.139061       0.109988       0.156589
      17.800000       0.137321       0.109261       0.158798
      17.810000       0.135484       0.108644       0.160875
      17.820000       0.133623       0.108134       0.162842
      17.830000       0.131803       0.107720       0.164730
      17.840000       0.130077       0.107388       0.166577
      17.850000       0.128487       0.107116       0.168424
      17.860000       0.127062       0.106890       0.170311
      17.870000       0.125821       0.106696       0.172283
      17.880000       0.124772       0.106525       0.174388
      17.890000       0.123922       0.106372       0.176677
      17.900000       0.123272       0.106235       0.179196
      17.910000       0.122824       0.106113       0.181981
      17.920000       0.122579       0.106006       0.185052
      17.930000       0.122536       0.105913       0.188403
      17.940000       0.122696       0.105829       0.192016
      17.950000       0.123058       0.105747       0.195861
      17.960000       0.123618       0.105657       0.199911
      17.970000       0.124367       0.105549       0.204146
      17.980000       0.125287       0.105416       0.208557
      17.990000       0.126361       0.105257       0.213142
      18.000000       0.127571       0.105082       0.217899
      18.010000       0.128907       0.104905       0.222816
      18.020000       0.130371       0.104747       0.227867
      18.030000       0.131973       0.104619       0.233018
      18.040000       0.133718       0.104526       0.238233
      18.050000       0.135608       0.104459       0.243495
      18.060000       0.137626       0.104401       0.248822
      18.070000       0.139743       0.104335       0.254276
      18.080000       0.141918       0.104250       0.259962
      18.090000       0.144103       0.104145       0.266007
      18.100000       0.146245       0.104034       0.272537
      18.110000       0.148288       0.103934       0.279639
      18.120000       0.150171       0.103865       0.287331
      18.130000       0.151833       0.103844       0.295549
      18.140000       0.153221       0.103875       0.304145
      18.150000       0.154300       0.103957       0.312907
      18.160000       0.155069       0.104077       0.321598
      18.170000       0.155570       0.104218       0.329994
      18.180000       0.155875       0.104360       0.337930
      18.190000       0.156077       0.104485       0.345326
      18.200000       0.156261       0.104581       0.352183
      18.210000       0.156489       0.104640       0.358570
      18.220000       0.156779       0.104661       0.364587
      18.230000       0.157101       0.104645       0.370327
      18.240000       0.157377       0.104597       0.375846
      18.250000       0.157489       0.104523       0.381144
      18.260000       0.157298       0.104430       0.386162
      18.270000       0.156678       0.104322       0.390798
      18.280000       0.155542       0.104198       0.394936
      18.290000       0.153865       0.104049       0.398479
      18.300000       0.151682       0.103855       0.401377
      18.310000       0.149083       0.103593       0.403644
      18.320000       0.146192       0.103233       0.405362
      18.330000       0.143144       0.102752       0.406662
      18.340000       0.140073       0.102134       0.407691
      18.350000       0.137097       0.101373       0.408572
      18.360000       0.134310       0.100476       0.409353
      18.370000       0.131778       0.099462       0.409983
      18.380000       0.129541       0.098355       0.410302
      18.390000       0.127609       0.097184       0.410070
      18.400000       0.125969       0.095976       0.409019
      18.410000       0.124587       0.094754       0.406915
      18.420000       0.123412       0.093536       0.403621
      18.430000       0.122382       0.092332       0.399133
      18.440000       0.121428       0.091147       0.393595
      18.450000       0.120484       0.089985       0.387278
      18.460000       0.119486       0.088850       0.380534
      18.470000       0.118386       0.087750       0.373737
      18.480000       0.117151       0.086694       0.367226
      18.490000       0.115769       0.085695       0.361264
      18.500000       0.114245       0.084770       0.356011
      18.510000       0.112605       0.083933       0.351531
      18.520000       0.110886       0.083199       0.347812
      18.530000       0.109137       0.082582       0.344792
      18.540000       0.107410       0.082093       0.342380
      18.550000       0.105752       0.081738       0.340471
      18.560000       0.104204       0.081519       0.338948
      18.570000       0.102798       0.081430       0.337686
      18.580000       0.101555       0.081458       0.336554
      18.590000       0.100489       0.081585       0.335422
      18.600000       0.099607       0.081790       0.334175
      18.610000       0.098912       0.082048       0.332726
      18.620000       0.098398       0.082335       0.331021
      18.630000       0.098056       0.082632       0.329038
      18.640000       0.097870       0.082920       0.326785
      18.650000       0.097827       0.083187       0.324280
      18.660000       0.097913       0.083425       0.321549
      18.670000       0.098117       0.083625       0.318604
      18.680000       0.098429       0.083777       0.315440
      18.690000       0.098845       0.083870       0.312032
      18.700000       0.099360       0.083891       0.308340
      18.710000       0.099972       0.083827       0.304331
      18.720000       0.100686       0.083670       0.300002
      18.730000       0.101511       0.083415       0.295404
      18.740000       0.102457       0.083067       0.290642
      18.750000       0.103536       0.082634       0.285871
      18.760000       0.104751       0.082134       0.281271
      18.770000       0.106097       0.081590       0.277027
      18.780000       0.107557       0.081025       0.273312
      18.790000       0.109104       0.080466       0.270272
      18.800000       0.110706       0.079931       0.268015
      18.810000       0.112331       0.079435       0.266597
      18.820000       0.113947       0.078980       0.266020
      18.830000       0.115525       0.078562       0.266237
      18.840000       0.117032       0.078169       0.267151
      18.850000       0.118431       0.077787       0.268642
      18.860000       0.119676       0.077404       0.270573
      18.870000       0.120722       0.077012       0.272812
      18.880000       0.121529       0.076614       0.275244
      18.890000       0.122071       0.076218       0.277769
      18.900000       0.122341       0.075839       0.280308
      18.910000       0.122346       0.075492       0.282791
      18.920000       0.122107       0.075190       0.285144
      18.930000       0.121650       0.074939       0.287278
      18.940000       0.121002       0.074742       0.289078
      18.950000       0.120194       0.074594       0.290416
      18.960000       0.119255       0.074490       0.291166
      18.970000       0.118214       0.074425       0.291235
      18.980000       0.117103       0.074398       0.290575
      18.990000       0.115944       0.074412       0.289192
      19.000000       0.114754       0.074471       0.287135
      19.010000       0.113542       0.074585       0.284476
      19.020000       0.112311       0.074760       0.281292
      19.030000       0.111064       0.075005       0.277659
      19.040000       0.109812       0.075320       0.273651
      19.050000       0.108571       0.075705       0.269350
      19.060000       0.107370       0.076155       0.264852
      19.070000       0.106240       0.076663       0.260273
      19.080000       0.105213       0.077218       0.255742
      19.090000       0.104318       0.077810       0.251388
      19.100000       0.103576       0.078426       0.247327
      19.110000       0.103001       0.079051       0.243642
      19.120000       0.102596       0.079665       0.240385
      19.130000       0.102352       0.080244       0.237574
      19.140000       0.102249       0.080764       0.235203
      19.150000       0.102259       0.081197       0.233250
      19.160000       0.102352       0.081522       0.231679
      19.170000       0.102495       0.081728       0.230449
      19.180000       0.102662       0.081813       0.229523
      19.190000       0.102829       0.081787       0.228870
      19.200000       0.102978       0.081669       0.228470
      19.210000       0.103097       0.081481       0.228313
      19.220000       0.103177       0.081249       0.228396
      19.230000       0.103216       0.080994       0.228721
      19.240000       0.103212       0.080732       0.229283
      19.250000       0.103171       0.080477       0.230065
      19.260000       0.103097       0.080236       0.231034
      19.270000       0.102993       0.080016       0.232141
      19.280000       0.102862       0.079825       0.233330
      19.290000       0.102701       0.079671       0.234553
      19.300000       0.102506       0.079565       0.235779
      19.310000       0.102269       0.079516       0.237001
      19.320000       0.101983       0.079526       0.238235
      19.330000       0.101645       0.079590       0.239506
      19.340000       0.101256       0.079691       0.240838
      19.350000       0.100824       0.079806       0.242245
      19.360000       0.100364       0.079906       0.243722
      19.370000       0.099898       0.079963       0.245249
      19.380000       0.099451       0.079957       0.246790
      19.390000       0.099048       0.079879       0.248297
      19.400000       0.098712       0.079730       0.249725
      19.410000       0.098459       0.079524       0.251040
      19.420000       0.098294       0.079280       0.252230
      19.430000       0.098215       0.079017       0.253304
      19.440000       0.098208       0.078751       0.254288
      19.450000       0.098255       0.078494       0.255217
      19.460000       0.098330       0.078253       0.256130
      19.470000       0.098407       0.078033       0.257071
      19.480000       0.098463       0.077832       0.258091
      19.490000       0.098483       0.077652       0.259252
      19.500000       0.098465       0.077487       0.260622
      19.510000       0.098414       0.077331       0.262269
      19.520000       0.098343       0.077175       0.264251
      19.530000       0.098263       0.077004       0.266597
      19.540000       0.098181       0.076803       0.269301
      19.550000       0.098097       0.076560       0.272312
      19.560000       0.098002       0.076269       0.275535
      19.570000       0.097884       0.075936       0.278835
      19.580000       0.097726       0.075572       0.282054
      19.590000       0.097513       0.075199       0.285027
      19.600000       0.097234       0.074835       0.287600
      19.610000       0.096878       0.074498       0.289649
      19.620000       0.096442       0.074194       0.291085
      19.630000       0.095927       0.073921       0.291846
      19.640000       0.095340       0.073665       0.291900
      19.650000       0.094692       0.073407       0.291236
      19.660000       0.093994       0.073127       0.289875
      19.670000       0.093258       0.072809       0.287876
      19.680000       0.092496       0.072443       0.285342
      19.690000       0.091715       0.072027       0.282421
      19.700000       0.090927       0.071569       0.279287
      19.710000       0.090141       0.071080       0.276128
      19.720000       0.089367       0.070582       0.273117
      19.730000       0.088611       0.070093       0.270397
      19.740000       0.087878       0.069633       0.268077
      19.750000       0.087170       0.069214       0.266214
      19.760000       0.086486       0.068843       0.264820
      19.770000       0.085824       0.068518       0.263851
      19.780000       0.085182       0.068232       0.263219
      19.790000       0.084558       0.067974       0.262810
      19.800000       0.083952       0.067729       0.262507
      19.810000       0.083370       0.067481       0.262219
      19.820000       0.082817       0.067212       0.261895
      19.830000       0.082298       0.066908       0.261525
      19.840000       0.081813       0.066558       0.261134
      19.850000       0.081356       0.066157       0.260762
      19.860000       0.080913       0.065709       0.260451
      19.870000       0.080466       0.065221       0.260227
      19.880000       0.079998       0.064707       0.260099
      19.890000       0.079493       0.064180       0.260058
      19.900000       0.078945       0.063650       0.260075
      19.910000       0.078352       0.063122       0.260112
      19.920000       0.077721       0.062593       0.260121
      19.930000       0.077058       0.062062       0.260058
      19.940000       0.076371       0.061524       0.259901
      19.950000       0.075664       0.060982       0.259665
      19.960000       0.074938       0.060440       0.259414
      19.970000       0.074194       0.059904       0.259258
      19.980000       0.073434       0.059384       0.259335
      19.990000       0.072667       0.058888       0.259788
      20.000000       0.071905       0.058421       0.260732
