  # energy grid [eV]     epsr_x  epsr_y  epsr_z
       0.000000            NaN            NaN            NaN
       0.010000 -140395.849233 -177500.494521       2.623363
       0.020000  -35076.476274  -44371.716245       2.543079
       0.030000  -15572.846990  -19718.238209       2.491765
       0.040000   -8746.527303  -11089.520215       2.445502
       0.050000   -5586.861961   -7095.655713       2.397151
       0.060000   -3870.442328   -4926.148284       2.345587
       0.070000   -2835.434300   -3618.002916       2.291862
       0.080000   -2163.610722   -2768.965429       2.237890
       0.090000   -1702.944988   -2186.867287       2.185805
       0.100000   -1373.365856   -1770.495077       2.137520
       0.110000   -1129.445123   -1462.425912       2.094419
       0.120000    -943.852252   -1228.113258       2.057198
       0.130000    -799.344606   -1045.762171       2.025876
       0.140000    -684.607963    -901.071487       1.999940
       0.150000    -591.968685    -784.341841       1.978562
       0.160000    -516.073441    -688.806724       1.960820
       0.170000    -453.095623    -609.629272       1.945887
       0.180000    -400.241359    -543.277742       1.933137
       0.190000    -355.432532    -487.124681       1.922181
       0.200000    -317.097909    -439.182711       1.912828
       0.210000    -284.032265    -397.926176       1.904997
       0.220000    -255.299400    -362.168184       1.898630
       0.230000    -230.164178    -330.974193       1.893627
       0.240000    -208.044175    -303.600233       1.889821
       0.250000    -188.474846    -279.448019       1.886992
       0.260000    -171.084194    -258.031887       1.884903
       0.270000    -155.574211    -238.954129       1.883337
       0.280000    -141.707198    -221.886430       1.882137
       0.290000    -129.295541    -206.555785       1.881226
       0.300000    -118.193804    -192.733734       1.880610
       0.310000    -108.292103    -180.228035       1.880354
       0.320000     -99.509710    -168.876115       1.880553
       0.330000     -91.787890    -158.539826       1.881285
       0.340000     -85.081209    -149.101175       1.882592
       0.350000     -79.347136    -140.458872       1.884462
       0.360000     -74.534834    -132.525517       1.886841
       0.370000     -70.575147    -125.225357       1.889645
       0.380000     -67.374491    -118.492476       1.892773
       0.390000     -64.815022    -112.269326       1.896123
       0.400000     -62.762116    -106.505516       1.899595
       0.410000     -61.078052    -101.156782       1.903092
       0.420000     -59.638458     -96.184119       1.906521
       0.430000     -58.346240     -91.553034       1.909788
       0.440000     -57.137876     -87.232926       1.912794
       0.450000     -55.979772     -83.196555       1.915431
       0.460000     -54.856942     -79.419603       1.917580
       0.470000     -53.759795     -75.880299       1.919114
       0.480000     -52.675374     -72.559100       1.919905
       0.490000     -51.586478     -69.438429       1.919838
       0.500000     -50.477462     -66.502434       1.918832
       0.510000     -49.341945     -63.736792       1.916872
       0.520000     -48.187198     -61.128537       1.914024
       0.530000     -47.032485     -58.665904       1.910449
       0.540000     -45.902151     -56.338203       1.906385
       0.550000     -44.816671     -54.135698       1.902112
       0.560000     -43.785629     -52.049514       1.897917
       0.570000     -42.805613     -50.071540       1.894048
       0.580000     -41.863848     -48.194361       1.890701
       0.590000     -40.945665     -46.411182       1.888008
       0.600000     -40.042077     -44.715771       1.886037
       0.610000     -39.153898     -43.102400       1.884798
       0.620000     -38.290817     -41.565801       1.884249
       0.630000     -37.466418     -40.101119       1.884308
       0.640000     -36.691776     -38.703872       1.884866
       0.650000     -35.970658     -37.369922       1.885804
       0.660000     -35.298431     -36.095440       1.887004
       0.670000     -34.664933     -34.876877       1.888363
       0.680000     -34.059525     -33.710945       1.889795
       0.690000     -33.475417     -32.594589       1.891243
       0.700000     -32.910945     -31.524970       1.892677
       0.710000     -32.367412     -30.499446       1.894093
       0.720000     -31.845074     -29.515558       1.895507
       0.730000     -31.339763     -28.571010       1.896943
       0.740000     -30.842106     -27.663662       1.898428
       0.750000     -30.339622     -26.791513       1.899976
       0.760000     -29.820274     -25.952693       1.901593
       0.770000     -29.275329     -25.145453       1.903278
       0.780000     -28.700135     -24.368154       1.905024
       0.790000     -28.092936     -23.619263       1.906824
       0.800000     -27.453025     -22.897343       1.908675
       0.810000     -26.779624     -22.201048       1.910573
       0.820000     -26.072043     -21.529117       1.912512
       0.830000     -25.330708     -20.880373       1.914483
       0.840000     -24.558177     -20.253718       1.916470
       0.850000     -23.759508     -19.648130       1.918449
       0.860000     -22.941915     -19.062665       1.920388
       0.870000     -22.114037     -18.496455       1.922248
       0.880000     -21.285195     -17.948714       1.923980
       0.890000     -20.464896     -17.418737       1.925528
       0.900000     -19.662612     -16.905905       1.926828
       0.910000     -18.887741     -16.409686       1.927810
       0.920000     -18.149620     -15.929633       1.928405
       0.930000     -17.457400     -15.465371       1.928553
       0.940000     -16.819645     -15.016577       1.928216
       0.950000     -16.243576     -14.582935       1.927387
       0.960000     -15.734015     -14.164085       1.926105
       0.970000     -15.292305     -13.759558       1.924448
       0.980000     -14.915629     -13.368725       1.922526
       0.990000     -14.597164     -12.990779       1.920464
       1.000000     -14.327172     -12.624755       1.918387
       1.010000     -14.094759     -12.269604       1.916406
       1.020000     -13.889639     -11.924275       1.914618
       1.030000     -13.703398     -11.587799       1.913108
       1.040000     -13.530049     -11.259332       1.911940
       1.050000     -13.366055     -10.938188       1.911161
       1.060000     -13.210067     -10.623837       1.910791
       1.070000     -13.062458     -10.315896       1.910822
       1.080000     -12.924731     -10.014110       1.911223
       1.090000     -12.798963      -9.718328       1.911944
       1.100000     -12.687520      -9.428490       1.912931
       1.110000     -12.593067      -9.144620       1.914129
       1.120000     -12.518674      -8.866835       1.915489
       1.130000     -12.467747      -8.595354       1.916970
       1.140000     -12.443815      -8.330499       1.918535
       1.150000     -12.450367      -8.072689       1.920149
       1.160000     -12.490839      -7.822423       1.921775
       1.170000     -12.568597      -7.580235       1.923370
       1.180000     -12.686689      -7.346610       1.924888
       1.190000     -12.847340      -7.121874       1.926281
       1.200000     -13.051259      -6.906058       1.927503
       1.210000     -13.296832      -6.698805       1.928513
       1.220000     -13.579212      -6.499374       1.929288
       1.230000     -13.889433      -6.306769       1.929818
       1.240000     -14.213901      -6.119987       1.930115
       1.250000     -14.534722      -5.938278       1.930207
       1.260000     -14.831210      -5.761310       1.930128
       1.270000     -15.082529      -5.589139       1.929915
       1.280000     -15.270893      -5.421987       1.929605
       1.290000     -15.384313      -5.259905       1.929233
       1.300000     -15.417993      -5.102459       1.928842
       1.310000     -15.374055      -4.948567       1.928476
       1.320000     -15.259942      -4.796599       1.928181
       1.330000     -15.086263      -4.644702       1.927994
       1.340000     -14.864778      -4.491244       1.927936
       1.350000     -14.606899      -4.335198       1.928009
       1.360000     -14.322804      -4.176336       1.928201
       1.370000     -14.021046      -4.015214       1.928494
       1.380000     -13.708509      -3.853015       1.928864
       1.390000     -13.390545      -3.691315       1.929285
       1.400000     -13.071204      -3.531844       1.929724
       1.410000     -12.753470      -3.376263       1.930140
       1.420000     -12.439488      -3.225949       1.930487
       1.430000     -12.130756      -3.081822       1.930723
       1.440000     -11.828280      -2.944245       1.930817
       1.450000     -11.532700      -2.813068       1.930761
       1.460000     -11.244389      -2.687831       1.930575
       1.470000     -10.963523      -2.568082       1.930300
       1.480000     -10.690141      -2.453672       1.929988
       1.490000     -10.424190      -2.344861       1.929690
       1.500000     -10.165553      -2.242160       1.929443
       1.510000      -9.914082      -2.145917       1.929271
       1.520000      -9.669608      -2.055826       1.929188
       1.530000      -9.431959      -1.970545       1.929207
       1.540000      -9.200967      -1.887635       1.929339
       1.550000      -8.976462      -1.803894       1.929591
       1.560000      -8.758268      -1.715996       1.929963
       1.570000      -8.546187      -1.621198       1.930441
       1.580000      -8.339976      -1.517880       1.931004
       1.590000      -8.139340      -1.405777       1.931627
       1.600000      -7.943936      -1.285909       1.932291
       1.610000      -7.753404      -1.160333       1.932996
       1.620000      -7.567417      -1.031829       1.933760
       1.630000      -7.385745      -0.903617       1.934618
       1.640000      -7.208295      -0.779099       1.935608
       1.650000      -7.035128      -0.661617       1.936764
       1.660000      -6.866442      -0.554176       1.938105
       1.670000      -6.702536      -0.459120       1.939630
       1.680000      -6.543752      -0.377795       1.941322
       1.690000      -6.390423      -0.310289       1.943149
       1.700000      -6.242812      -0.255352       1.945072
       1.710000      -6.101085      -0.210536       1.947045
       1.720000      -5.965293      -0.172503       1.949022
       1.730000      -5.835386      -0.137401       1.950950
       1.740000      -5.711252      -0.101224       1.952777
       1.750000      -5.592760      -0.060175       1.954450
       1.760000      -5.479802      -0.011057       1.955915
       1.770000      -5.372311       0.048322       1.957125
       1.780000      -5.270278       0.118801       1.958047
       1.790000      -5.173768       0.199678       1.958661
       1.800000      -5.082940       0.288721       1.958975
       1.810000      -4.998035       0.382352       1.959020
       1.820000      -4.919358       0.475931       1.958851
       1.830000      -4.847234       0.564053       1.958539
       1.840000      -4.782004       0.640811       1.958168
       1.850000      -4.724043       0.699984       1.957821
       1.860000      -4.673774       0.735176       1.957578
       1.870000      -4.631677       0.739972       1.957510
       1.880000      -4.598254       0.708224       1.957671
       1.890000      -4.573980       0.634601       1.958091
       1.900000      -4.559213       0.515490       1.958770
       1.910000      -4.554074       0.350193       1.959676
       1.920000      -4.558307       0.142139       1.960751
       1.930000      -4.571128      -0.100362       1.961917
       1.940000      -4.591105      -0.364352       1.963087
       1.950000      -4.616068      -0.633770       1.964173
       1.960000      -4.643100      -0.892087       1.965102
       1.970000      -4.668671      -1.125263       1.965820
       1.980000      -4.688958      -1.323999       1.966301
       1.990000      -4.700340      -1.484590       1.966548
       2.000000      -4.699932      -1.608318       1.966582
       2.010000      -4.686006      -1.699855       1.966436
       2.020000      -4.658134      -1.765347       1.966144
       2.030000      -4.617051      -1.810735       1.965736
       2.040000      -4.564316      -1.840665       1.965238
       2.050000      -4.501914      -1.858088       1.964680
       2.060000      -4.431917      -1.864446       1.964099
       2.070000      -4.356244      -1.860178       1.963536
       2.080000      -4.276540      -1.845309       1.963035
       2.090000      -4.194139      -1.819886       1.962639
       2.100000      -4.110088      -1.784195       1.962387
       2.110000      -4.025192      -1.738785       1.962315
       2.120000      -3.940076      -1.684403       1.962454
       2.130000      -3.855229      -1.621935       1.962828
       2.140000      -3.771041      -1.552404       1.963447
       2.150000      -3.687825      -1.476956       1.964308
       2.160000      -3.605831      -1.396800       1.965387
       2.170000      -3.525254      -1.313093       1.966655
       2.180000      -3.446247      -1.226853       1.968074
       2.190000      -3.368922      -1.138956       1.969604
       2.200000      -3.293354      -1.050196       1.971200
       2.210000      -3.219580      -0.961332       1.972810
       2.220000      -3.147600      -0.873046       1.974375
       2.230000      -3.077376      -0.785814       1.975830
       2.240000      -3.008845      -0.699758       1.977113
       2.250000      -2.941928      -0.614578       1.978175
       2.260000      -2.876540      -0.529616       1.978996
       2.270000      -2.812592      -0.444081       1.979590
       2.280000      -2.749991      -0.357373       1.980004
       2.290000      -2.688626      -0.269430       1.980308
       2.300000      -2.628372      -0.180971       1.980572
       2.310000      -2.569098      -0.093592       1.980853
       2.320000      -2.510688      -0.009690       1.981177
       2.330000      -2.453060       0.067687       1.981546
       2.340000      -2.396180       0.135022       1.981951
       2.350000      -2.340058       0.188492       1.982390
       2.360000      -2.284742       0.224152       1.982879
       2.370000      -2.230299       0.238191       1.983460
       2.380000      -2.176796       0.227300       1.984183
       2.390000      -2.124273       0.189088       1.985096
       2.400000      -2.072719       0.122482       1.986226
       2.410000      -2.022058       0.027982       1.987562
       2.420000      -1.972151      -0.092213       1.989061
       2.430000      -1.922814      -0.234187       1.990653
       2.440000      -1.873853      -0.392355       1.992245
       2.450000      -1.825108      -0.559615       1.993736
       2.460000      -1.776480      -0.727688       1.995029
       2.470000      -1.727947      -0.887778       1.996036
       2.480000      -1.679560      -1.031528       1.996697
       2.490000      -1.631429      -1.152107       1.996988
       2.500000      -1.583702      -1.245097       1.996929
       2.510000      -1.536551      -1.308860       1.996590
       2.520000      -1.490156      -1.344311       1.996077
       2.530000      -1.444678      -1.354199       1.995515
       2.540000      -1.400246      -1.342217       1.995025
       2.550000      -1.356928      -1.312217       1.994707
       2.560000      -1.314717      -1.267715       1.994624
       2.570000      -1.273539      -1.211712       1.994805
       2.580000      -1.233279      -1.146761       1.995245
       2.590000      -1.193835      -1.075111       1.995920
       2.600000      -1.155174      -0.998836       1.996802
       2.610000      -1.117370      -0.919858       1.997865
       2.620000      -1.080603      -0.839875       1.999089
       2.630000      -1.045124      -0.760227       2.000452
       2.640000      -1.011205      -0.681763       2.001924
       2.650000      -0.979071      -0.604771       2.003457
       2.660000      -0.948861      -0.529017       2.004979
       2.670000      -0.920629      -0.453926       2.006400
       2.680000      -0.894373      -0.378832       2.007614
       2.690000      -0.870094      -0.303233       2.008520
       2.700000      -0.847836      -0.226956       2.009036
       2.710000      -0.827683      -0.150199       2.009121
       2.720000      -0.809715      -0.073452       2.008785
       2.730000      -0.793933       0.002638       2.008101
       2.740000      -0.780196       0.077435       2.007185
       2.750000      -0.768163       0.150440       2.006182
       2.760000      -0.757277       0.221376       2.005235
       2.770000      -0.746787       0.290184       2.004464
       2.780000      -0.735814       0.356972       2.003956
       2.790000      -0.723457       0.421941       2.003764
       2.800000      -0.708923       0.485330       2.003912
       2.810000      -0.691647       0.547410       2.004401
       2.820000      -0.671351       0.608488       2.005211
       2.830000      -0.648055       0.668919       2.006309
       2.840000      -0.622021       0.729082       2.007649
       2.850000      -0.593664       0.789341       2.009172
       2.860000      -0.563466       0.850018       2.010804
       2.870000      -0.531885       0.911380       2.012455
       2.880000      -0.499310       0.973639       2.014024
       2.890000      -0.466026       1.036938       2.015409
       2.900000      -0.432219       1.101300       2.016524
       2.910000      -0.398001       1.166571       2.017319
       2.920000      -0.363434       1.232383       2.017799
       2.930000      -0.328566       1.298173       2.018026
       2.940000      -0.293438       1.363229       2.018108
       2.950000      -0.258098       1.426763       2.018169
       2.960000      -0.222597       1.487956       2.018322
       2.970000      -0.186988       1.546000       2.018637
       2.980000      -0.151331       1.600114       2.019133
       2.990000      -0.115689       1.649529       2.019781
       3.000000      -0.080122       1.693446       2.020516
       3.010000      -0.044690       1.730982       2.021257
       3.020000      -0.009436       1.761132       2.021924
       3.030000       0.025620       1.782796       2.022443
       3.040000       0.060487       1.794856       2.022752
       3.050000       0.095205       1.796299       2.022803
       3.060000       0.129843       1.786370       2.022560
       3.070000       0.164484       1.764715       2.022004
       3.080000       0.199215       1.731476       2.021136
       3.090000       0.234109       1.687293       2.019989
       3.100000       0.269212       1.633198       2.018633
       3.110000       0.304520       1.570501       2.017178
       3.120000       0.339967       1.500752       2.015752
       3.130000       0.375418       1.425843       2.014485
       3.140000       0.410648       1.348171       2.013473
       3.150000       0.445343       1.270716       2.012761
       3.160000       0.479080       1.196898       2.012339
       3.170000       0.511321       1.130166       2.012155
       3.180000       0.541404       1.073429       2.012139
       3.190000       0.568545       1.028542       2.012234
       3.200000       0.591856       0.996017       2.012411
       3.210000       0.610388       0.975051       2.012680
       3.220000       0.623219       0.963822       2.013076
       3.230000       0.629599       0.959942       2.013640
       3.240000       0.629152       0.960935       2.014401
       3.250000       0.622094       0.964621       2.015363
       3.260000       0.609382       0.969325       2.016499
       3.270000       0.592706       0.973833       2.017756
       3.280000       0.574266       0.977132       2.019055
       3.290000       0.556379       0.978067       2.020308
       3.300000       0.541048       0.975119       2.021425
       3.310000       0.529629       0.966485       2.022335
       3.320000       0.522689       0.950484       2.022999
       3.330000       0.520052       0.926143       2.023426
       3.340000       0.521002       0.893716       2.023680
       3.350000       0.524570       0.854883       2.023870
       3.360000       0.529843       0.812563       2.024137
       3.370000       0.536226       0.770430       2.024615
       3.380000       0.543588       0.732363       2.025412
       3.390000       0.552253       0.701974       2.026578
       3.400000       0.562846       0.682265       2.028103
       3.410000       0.576052       0.675348       2.029920
       3.420000       0.592381       0.682259       2.031921
       3.430000       0.612020       0.702891       2.033971
       3.440000       0.634789       0.736088       2.035931
       3.450000       0.660174       0.779878       2.037663
       3.460000       0.687410       0.831747       2.039048
       3.470000       0.715569       0.888906       2.039987
       3.480000       0.743642       0.948478       2.040413
       3.490000       0.770613       1.007623       2.040305
       3.500000       0.795537       1.063610       2.039695
       3.510000       0.817638       1.113895       2.038687
       3.520000       0.836413       1.156258       2.037449
       3.530000       0.851724       1.189029       2.036197
       3.540000       0.863833       1.211408       2.035162
       3.550000       0.873327       1.223768       2.034540
       3.560000       0.880936       1.227836       2.034461
       3.570000       0.887281       1.226583       2.034957
       3.580000       0.892647       1.223770       2.035974
       3.590000       0.896853       1.223234       2.037386
       3.600000       0.899268       1.228145       2.039030
       3.610000       0.898934       1.240490       2.040732
       3.620000       0.894796       1.260908       2.042330
       3.630000       0.885976       1.288834       2.043680
       3.640000       0.872063       1.322796       2.044667
       3.650000       0.853338       1.360738       2.045199
       3.660000       0.830886       1.400267       2.045216
       3.670000       0.806529       1.438856       2.044697
       3.680000       0.782589       1.474032       2.043669
       3.690000       0.761522       1.503596       2.042199
       3.700000       0.745509       1.525877       2.040388
       3.710000       0.736125       1.539963       2.038351
       3.720000       0.734173       1.545813       2.036210
       3.730000       0.739699       1.544165       2.034089
       3.740000       0.752164       1.536209       2.032117
       3.750000       0.770653       1.523112       2.030436
       3.760000       0.794092       1.505551       2.029196
       3.770000       0.821401       1.483416       2.028543
       3.780000       0.851587       1.455783       2.028600
       3.790000       0.883798       1.421207       2.029444
       3.800000       0.917329       1.378273       2.031090
       3.810000       0.951628       1.326262       2.033487
       3.820000       0.986285       1.265721       2.036532
       3.830000       1.021029       1.198734       2.040077
       3.840000       1.055703       1.128757       2.043951
       3.850000       1.090242       1.060070       2.047971
       3.860000       1.124629       0.997026       2.051962
       3.870000       1.158853       0.943351       2.055762
       3.880000       1.192890       0.901701       2.059239
       3.890000       1.226693       0.873498       2.062297
       3.900000       1.260192       0.858996       2.064890
       3.910000       1.293282       0.857459       2.067014
       3.920000       1.325782       0.867391       2.068715
       3.930000       1.357394       0.886776       2.070070
       3.940000       1.387649       0.913316       2.071176
       3.950000       1.415901       0.944645       2.072124
       3.960000       1.441343       0.978480       2.072979
       3.970000       1.463092       1.012742       2.073762
       3.980000       1.480316       1.045658       2.074449
       3.990000       1.492411       1.075885       2.074977
       4.000000       1.499179       1.102684       2.075263
       4.010000       1.500976       1.126088       2.075226
       4.020000       1.498737       1.146978       2.074810
       4.030000       1.493865       1.166958       2.074005
       4.040000       1.487980       1.187990       2.072848
       4.050000       1.482589       1.211870       2.071421
       4.060000       1.478778       1.239734       2.069838
       4.070000       1.477003       1.271767       2.068229
       4.080000       1.477051       1.307203       2.066735
       4.090000       1.478189       1.344565       2.065505
       4.100000       1.479442       1.382064       2.064688
       4.110000       1.479953       1.418020       2.064418
       4.120000       1.479319       1.451242       2.064793
       4.130000       1.477816       1.481273       2.065857
       4.140000       1.476419       1.508424       2.067585
       4.150000       1.476592       1.533560       2.069884
       4.160000       1.479913       1.557695       2.072602
       4.170000       1.487683       1.581527       2.075546
       4.180000       1.500666       1.605120       2.078504
       4.190000       1.519029       1.627844       2.081263
       4.200000       1.542450       1.648590       2.083634
       4.210000       1.570302       1.666168       2.085466
       4.220000       1.601840       1.679736       2.086654
       4.230000       1.636331       1.689122       2.087149
       4.240000       1.673131       1.694918       2.086964
       4.250000       1.711695       1.698285       2.086176
       4.260000       1.751553       1.700574       2.084923
       4.270000       1.792273       1.702913       2.083389
       4.280000       1.833406       1.705926       2.081783
       4.290000       1.874446       1.709646       2.080306
       4.300000       1.914791       1.713607       2.079120
       4.310000       1.953715       1.717008       2.078325
       4.320000       1.990377       1.718938       2.077951
       4.330000       2.023854       1.718613       2.077957
       4.340000       2.053214       1.715609       2.078244
       4.350000       2.077615       1.710013       2.078679
       4.360000       2.096413       1.702477       2.079116
       4.370000       2.109258       1.694111       2.079419
       4.380000       2.116152       1.686301       2.079490
       4.390000       2.117439       1.680459       2.079268
       4.400000       2.113721       1.677794       2.078731
       4.410000       2.105696       1.679095       2.077892
       4.420000       2.093953       1.684561       2.076793
       4.430000       2.078771       1.693695       2.075503
       4.440000       2.059976       1.705300       2.074116
       4.450000       2.036903       1.717631       2.072743
       4.460000       2.008477       1.728657       2.071500
       4.470000       1.973392       1.736397       2.070484
       4.480000       1.930364       1.739217       2.069760
       4.490000       1.878420       1.736042       2.069353
       4.500000       1.817211       1.726433       2.069256
       4.510000       1.747309       1.710561       2.069435
       4.520000       1.670394       1.689069       2.069838
       4.530000       1.589220       1.662854       2.070399
       4.540000       1.507306       1.632797       2.071033
       4.550000       1.428409       1.599517       2.071639
       4.560000       1.355928       1.563227       2.072099
       4.570000       1.292414       1.523735       2.072294
       4.580000       1.239290       1.480605       2.072113
       4.590000       1.196840       1.433415       2.071466
       4.600000       1.164418       1.382020       2.070286
       4.610000       1.140780       1.326722       2.068529
       4.620000       1.124431       1.268282       2.066166
       4.630000       1.113889       1.207819       2.063193
       4.640000       1.107874       1.146662       2.059643
       4.650000       1.105414       1.086224       2.055605
       4.660000       1.105893       1.027903       2.051245
       4.670000       1.109031       0.973003       2.046798
       4.680000       1.114793       0.922658       2.042553
       4.690000       1.123245       0.877753       2.038809
       4.700000       1.134424       0.838842       2.035832
       4.710000       1.148252       0.806109       2.033816
       4.720000       1.164525       0.779377       2.032860
       4.730000       1.182960       0.758233       2.032964
       4.740000       1.203301       0.742247       2.034040
       4.750000       1.225426       0.731223       2.035932
       4.760000       1.249416       0.725354       2.038440
       4.770000       1.275549       0.725174       2.041352
       4.780000       1.304195       0.731324       2.044467
       4.790000       1.335665       0.744208       2.047618
       4.800000       1.370066       0.763707       2.050675
       4.810000       1.407207       0.789028       2.053539
       4.820000       1.446547       0.818731       2.056133
       4.830000       1.487187       0.850896       2.058390
       4.840000       1.527865       0.883385       2.060253
       4.850000       1.566982       0.914154       2.061683
       4.860000       1.602641       0.941530       2.062665
       4.870000       1.632730       0.964388       2.063217
       4.880000       1.655040       0.982183       2.063395
       4.890000       1.667429       0.994834       2.063284
       4.900000       1.668016       1.002575       2.062990
       4.910000       1.655382       1.005850       2.062617
       4.920000       1.628765       1.005324       2.062255
       4.930000       1.588190       1.001930       2.061967
       4.940000       1.534532       0.996868       2.061783
       4.950000       1.469509       0.991473       2.061707
       4.960000       1.395620       0.987009       2.061725
       4.970000       1.316047       0.984501       2.061824
       4.980000       1.234513       0.984717       2.062005
       4.990000       1.155033       0.988272       2.062300
       5.000000       1.081525       0.995765       2.062776
       5.010000       1.017312       1.007791       2.063524
       5.020000       0.964627       1.024785       2.064650
       5.030000       0.924311       1.046781       2.066250
       5.040000       0.895832       1.073231       2.068398
       5.050000       0.877642       1.103018       2.071128
       5.060000       0.867738       1.134681       2.074425
       5.070000       0.864261       1.166761       2.078222
       5.080000       0.865938       1.198122       2.082401
       5.090000       0.872249       1.228131       2.086811
       5.100000       0.883299       1.256606       2.091280
       5.110000       0.899497       1.283586       2.095638
       5.120000       0.921194       1.309004       2.099732
       5.130000       0.948430       1.332448       2.103440
       5.140000       0.980851       1.353088       2.106678
       5.150000       1.017755       1.369811       2.109403
       5.160000       1.058201       1.381498       2.111607
       5.170000       1.101118       1.387312       2.113316
       5.180000       1.145397       1.386890       2.114581
       5.190000       1.189982       1.380391       2.115475
       5.200000       1.233955       1.368403       2.116095
       5.210000       1.276606       1.351814       2.116567
       5.220000       1.317463       1.331688       2.117037
       5.230000       1.356238       1.309178       2.117673
       5.240000       1.392705       1.285421       2.118639
       5.250000       1.426550       1.261387       2.120078
       5.260000       1.457271       1.237739       2.122089
       5.270000       1.484182       1.214780       2.124707
       5.280000       1.506538       1.192523       2.127899
       5.290000       1.523715       1.170832       2.131558
       5.300000       1.535375       1.149545       2.135528
       5.310000       1.541556       1.128523       2.139616
       5.320000       1.542647       1.107659       2.143623
       5.330000       1.539293       1.086899       2.147366
       5.340000       1.532252       1.066323       2.150700
       5.350000       1.522256       1.046223       2.153532
       5.360000       1.509906       1.027136       2.155829
       5.370000       1.495623       1.009768       2.157612
       5.380000       1.479669       0.994871       2.158949
       5.390000       1.462245       0.983133       2.159942
       5.400000       1.443638       0.975161       2.160712
       5.410000       1.424343       0.971517       2.161396
       5.420000       1.405115       0.972769       2.162126
       5.430000       1.386891       0.979458       2.163029
       5.440000       1.370617       0.991995       2.164204
       5.450000       1.357046       1.010518       2.165719
       5.460000       1.346563       1.034784       2.167605
       5.470000       1.339118       1.064158       2.169855
       5.480000       1.334292       1.097694       2.172436
       5.490000       1.331495       1.134294       2.175294
       5.500000       1.330199       1.172865       2.178369
       5.510000       1.330121       1.212411       2.181600
       5.520000       1.331261       1.252040       2.184922
       5.530000       1.333791       1.290894       2.188264
       5.540000       1.337883       1.328087       2.191544
       5.550000       1.343572       1.362710       2.194674
       5.560000       1.350704       1.393884       2.197563
       5.570000       1.358976       1.420841       2.200141
       5.580000       1.367995       1.442936       2.202372
       5.590000       1.377323       1.459598       2.204269
       5.600000       1.386488       1.470274       2.205893
       5.610000       1.394994       1.474447       2.207339
       5.620000       1.402376       1.471812       2.208713
       5.630000       1.408321       1.462566       2.210113
       5.640000       1.412835       1.447720       2.211622
       5.650000       1.416350       1.429234       2.213304
       5.660000       1.419704       1.409865       2.215205
       5.670000       1.423942       1.392698       2.217352
       5.680000       1.430005       1.380498       2.219750
       5.690000       1.438426       1.375102       2.222383
       5.700000       1.449141       1.377044       2.225215
       5.710000       1.461507       1.385511       2.228203
       5.720000       1.474491       1.398596       2.231313
       5.730000       1.486971       1.413729       2.234525
       5.740000       1.498040       1.428170       2.237840
       5.750000       1.507231       1.439448       2.241271
       5.760000       1.514610       1.445747       2.244827
       5.770000       1.520751       1.446183       2.248500
       5.780000       1.526610       1.440975       2.252259
       5.790000       1.533354       1.431426       2.256058
       5.800000       1.542167       1.419688       2.259842
       5.810000       1.554066       1.408302       2.263567
       5.820000       1.569742       1.399624       2.267205
       5.830000       1.589475       1.395308       2.270748
       5.840000       1.613138       1.396008       2.274205
       5.850000       1.640283       1.401337       2.277600
       5.860000       1.670267       1.410063       2.280963
       5.870000       1.702339       1.420399       2.284324
       5.880000       1.735681       1.430291       2.287721
       5.890000       1.769392       1.437687       2.291193
       5.900000       1.802481       1.440782       2.294788
       5.910000       1.833887       1.438273       2.298557
       5.920000       1.862592       1.429601       2.302543
       5.930000       1.887772       1.415105       2.306769
       5.940000       1.908941       1.396018       2.311224
       5.950000       1.926024       1.374283       2.315862
       5.960000       1.939294       1.352206       2.320600
       5.970000       1.949181       1.332041       2.325328
       5.980000       1.956020       1.315605       2.329923
       5.990000       1.959819       1.304006       2.334262
       6.000000       1.960164       1.297537       2.338244
       6.010000       1.956307       1.295739       2.341806
       6.020000       1.947451       1.297621       2.344932
       6.030000       1.933134       1.301999       2.347652
       6.040000       1.913591       1.307859       2.350032
       6.050000       1.889928       1.314655       2.352164
       6.060000       1.864018       1.322406       2.354147
       6.070000       1.838135       1.331579       2.356081
       6.080000       1.814460       1.342788       2.358055
       6.090000       1.794641       1.356473       2.360147
       6.100000       1.779566       1.372686       2.362411
       6.110000       1.769367       1.391055       2.364873
       6.120000       1.763566       1.410913       2.367529
       6.130000       1.761268       1.431465       2.370347
       6.140000       1.761290       1.451919       2.373267
       6.150000       1.762243       1.471543       2.376219
       6.160000       1.762592       1.489689       2.379130
       6.170000       1.760759       1.505878       2.381945
       6.180000       1.755267       1.519935       2.384640
       6.190000       1.744902       1.532130       2.387236
       6.200000       1.728856       1.543205       2.389804
       6.210000       1.706830       1.554246       2.392450
       6.220000       1.679102       1.566430       2.395296
       6.230000       1.646561       1.580745       2.398450
       6.240000       1.610670       1.597762       2.401978
       6.250000       1.573327       1.617502       2.405887
       6.260000       1.536614       1.639442       2.410120
       6.270000       1.502481       1.662621       2.414560
       6.280000       1.472419       1.685821       2.419054
       6.290000       1.447195       1.707710       2.423435
       6.300000       1.426705       1.726889       2.427559
       6.310000       1.409984       1.741842       2.431319
       6.320000       1.395379       1.750879       2.434668
       6.330000       1.380873       1.752156       2.437606
       6.340000       1.364442       1.743816       2.440172
       6.350000       1.344394       1.724221       2.442422
       6.360000       1.319591       1.692198       2.444415
       6.370000       1.289537       1.647262       2.446206
       6.380000       1.254344       1.589760       2.447844
       6.390000       1.214593       1.520883       2.449375
       6.400000       1.171136       1.442505       2.450851
       6.410000       1.124890       1.356836       2.452333
       6.420000       1.076620       1.265965       2.453892
       6.430000       1.026779       1.171455       2.455594
       6.440000       0.975421       1.074161       2.457491
       6.450000       0.922255       0.974374       2.459605
       6.460000       0.866809       0.872205       2.461927
       6.470000       0.808657       0.768051       2.464424
       6.480000       0.747615       0.662897       2.467063
       6.490000       0.683834       0.558357       2.469821
       6.500000       0.617758       0.456452       2.472698
       6.510000       0.549971       0.359259       2.475725
       6.520000       0.481035       0.268585       2.478948
       6.530000       0.411394       0.185766       2.482413
       6.540000       0.341411       0.111670       2.486143
       6.550000       0.271532       0.046816       2.490123
       6.560000       0.202491      -0.008465       2.494301
       6.570000       0.135423      -0.053961       2.498592
       6.580000       0.071781      -0.089633       2.502905
       6.590000       0.013043      -0.115751       2.507159
       6.600000      -0.039692      -0.132992       2.511301
       6.610000      -0.086035      -0.142432       2.515314
       6.620000      -0.126420      -0.145405       2.519214
       6.630000      -0.161938      -0.143290       2.523053
       6.640000      -0.193984      -0.137307       2.526904
       6.650000      -0.223835      -0.128395       2.530863
       6.660000      -0.252320      -0.117203       2.535033
       6.670000      -0.279666      -0.104216       2.539523
       6.680000      -0.305549      -0.089945       2.544434
       6.690000      -0.329302      -0.075094       2.549849
       6.700000      -0.350198      -0.060653       2.555830
       6.710000      -0.367710      -0.047846       2.562413
       6.720000      -0.381655      -0.037949       2.569604
       6.730000      -0.392177      -0.032016       2.577380
       6.740000      -0.399603      -0.030573       2.585688
       6.750000      -0.404244      -0.033368       2.594450
       6.760000      -0.406243      -0.039257       2.603563
       6.770000      -0.405526      -0.046287       2.612914
       6.780000      -0.401887      -0.051975       2.622386
       6.790000      -0.395148      -0.053722       2.631873
       6.800000      -0.385320      -0.049264       2.641297
       6.810000      -0.372695      -0.037038       2.650613
       6.820000      -0.357829      -0.016371       2.659821
       6.830000      -0.341437       0.012515       2.668954
       6.840000      -0.324238       0.048642       2.678055
       6.850000      -0.306833       0.090506       2.687153
       6.860000      -0.289643       0.136309       2.696237
       6.870000      -0.272964       0.184166       2.705249
       6.880000      -0.257105       0.232251       2.714088
       6.890000      -0.242544       0.278891       2.722627
       6.900000      -0.230025       0.322607       2.730747
       6.910000      -0.220543       0.362126       2.738366
       6.920000      -0.215220       0.396371       2.745474
       6.930000      -0.215136       0.424443       2.752152
       6.940000      -0.221141       0.445612       2.758579
       6.950000      -0.233719       0.459314       2.765018
       6.960000      -0.252890       0.465166       2.771779
       6.970000      -0.278173       0.462996       2.779176
       6.980000      -0.308617       0.452873       2.787480
       6.990000      -0.342880       0.435129       2.796877
       7.000000      -0.379346       0.410379       2.807456
       7.010000      -0.416261       0.379522       2.819207
       7.020000      -0.451866       0.343757       2.832052
       7.030000      -0.484512       0.304559       2.845876
       7.040000      -0.512778       0.263557       2.860565
       7.050000      -0.535562       0.222320       2.876031
       7.060000      -0.552144       0.182111       2.892217
       7.070000      -0.562192       0.143747       2.909084
       7.080000      -0.565718       0.107657       2.926581
       7.090000      -0.562998       0.074106       2.944616
       7.100000      -0.554492       0.043440       2.963039
       7.110000      -0.540791       0.016165       2.981643
       7.120000      -0.522606      -0.007197       3.000167
       7.130000      -0.500770      -0.026407       3.018330
       7.140000      -0.476244      -0.041757       3.035845
       7.150000      -0.450081      -0.054131       3.052446
       7.160000      -0.423340      -0.064823       3.067907
       7.170000      -0.396972      -0.075233       3.082044
       7.180000      -0.371693      -0.086554       3.094719
       7.190000      -0.347898      -0.099572       3.105834
       7.200000      -0.325632      -0.114613       3.115323
       7.210000      -0.304633      -0.131603       3.123149
       7.220000      -0.284431      -0.150214       3.129291
       7.230000      -0.264480      -0.170028       3.133738
       7.240000      -0.244270      -0.190649       3.136487
       7.250000      -0.223410      -0.211729       3.137556
       7.260000      -0.201667      -0.232908       3.137001
       7.270000      -0.178981      -0.253752       3.134934
       7.280000      -0.155481      -0.273736       3.131525
       7.290000      -0.131495      -0.292340       3.126982
       7.300000      -0.107546      -0.309200       3.121526
       7.310000      -0.084321      -0.324259       3.115351
       7.320000      -0.062591      -0.337793       3.108594
       7.330000      -0.043098      -0.350328       3.101316
       7.340000      -0.026443      -0.362444       3.093504
       7.350000      -0.013002      -0.374582       3.085097
       7.360000      -0.002904      -0.386923       3.076036
       7.370000       0.003957      -0.399382       3.066319
       7.380000       0.007877      -0.411698       3.056044
       7.390000       0.009318      -0.423549       3.045425
       7.400000       0.008871      -0.434631       3.034757
       7.410000       0.007232      -0.444682       3.024354
       7.420000       0.005139      -0.453445       3.014478
       7.430000       0.003296      -0.460641       3.005296
       7.440000       0.002278      -0.465997       2.996870
       7.450000       0.002455      -0.469344       2.989174
       7.460000       0.003951      -0.470758       2.982126
       7.470000       0.006648      -0.470672       2.975606
       7.480000       0.010235      -0.469887       2.969457
       7.490000       0.014262      -0.469482       2.963474
       7.500000       0.018208      -0.470619       2.957402
       7.510000       0.021539      -0.474310       2.950929
       7.520000       0.023780      -0.481197       2.943715
       7.530000       0.024601      -0.491411       2.935414
       7.540000       0.023902      -0.504563       2.925721
       7.550000       0.021862      -0.519849       2.914418
       7.560000       0.018919      -0.536268       2.901418
       7.570000       0.015692      -0.552847       2.886802
       7.580000       0.012861      -0.568846       2.870824
       7.590000       0.011052      -0.583884       2.853888
       7.600000       0.010732      -0.597965       2.836496
       7.610000       0.012154      -0.611391       2.819197
       7.620000       0.015342      -0.624583       2.802550
       7.630000       0.020135      -0.637835       2.787102
       7.640000       0.026271      -0.651089       2.773387
       7.650000       0.033486      -0.663813       2.761921
       7.660000       0.041586      -0.675049       2.753196
       7.670000       0.050470      -0.683620       2.747647
       7.680000       0.060087      -0.688434       2.745620
       7.690000       0.070375      -0.688758       2.747329
       7.700000       0.081206      -0.684382       2.752823
       7.710000       0.092390      -0.675626       2.761980
       7.720000       0.103717      -0.663226       2.774518
       7.730000       0.115021      -0.648174       2.790024
       7.740000       0.126225      -0.631571       2.808003
       7.750000       0.137337      -0.614507       2.827930
       7.760000       0.148402      -0.597956       2.849305
       7.770000       0.159441      -0.582683       2.871702
       7.780000       0.170411      -0.569156       2.894801
       7.790000       0.181206      -0.557489       2.918396
       7.800000       0.191699      -0.547452       2.942387
       7.810000       0.201794      -0.538556       2.966755
       7.820000       0.211473      -0.530194       2.991531
       7.830000       0.220808      -0.521788       3.016764
       7.840000       0.229955      -0.512893       3.042495
       7.850000       0.239123      -0.503217       3.068733
       7.860000       0.248535      -0.492613       3.095437
       7.870000       0.258387      -0.481062       3.122489
       7.880000       0.268806      -0.468681       3.149691
       7.890000       0.279839      -0.455745       3.176764
       7.900000       0.291458      -0.442673       3.203352
       7.910000       0.303579      -0.429979       3.229027
       7.920000       0.316098      -0.418161       3.253281
       7.930000       0.328913      -0.407571       3.275532
       7.940000       0.341927      -0.398296       3.295140
       7.950000       0.355052      -0.390100       3.311458
       7.960000       0.368183      -0.382451       3.323928
       7.970000       0.381196      -0.374630       3.332176
       7.980000       0.393943      -0.365911       3.336095
       7.990000       0.406272      -0.355718       3.335869
       8.000000       0.418047      -0.343726       3.331909
       8.010000       0.429164      -0.329879       3.324748
       8.020000       0.439538      -0.314346       3.314919
       8.030000       0.449053      -0.297448       3.302892
       8.040000       0.457513      -0.279586       3.289093
       8.050000       0.464604      -0.261160       3.273958
       8.060000       0.469927      -0.242488       3.257994
       8.070000       0.473086      -0.223732       3.241757
       8.080000       0.473817      -0.204864       3.225765
       8.090000       0.472119      -0.185683       3.210370
       8.100000       0.468326      -0.165882       3.195669
       8.110000       0.463090      -0.145143       3.181503
       8.120000       0.457260      -0.123225       3.167543
       8.130000       0.451708      -0.100030       3.153443
       8.140000       0.447157      -0.075624       3.138989
       8.150000       0.444070      -0.050219       3.124208
       8.160000       0.442621      -0.024119       3.109388
       8.170000       0.442734       0.002343       3.095026
       8.180000       0.444148       0.028843       3.081709
       8.190000       0.446485       0.055088       3.070009
       8.200000       0.449317       0.080808       3.060393
       8.210000       0.452221       0.105745       3.053190
       8.220000       0.454844       0.129674       3.048604
       8.230000       0.456962       0.152426       3.046735
       8.240000       0.458522       0.173939       3.047620
       8.250000       0.459659       0.194298       3.051258
       8.260000       0.460661       0.213741       3.057658
       8.270000       0.461920       0.232659       3.066877
       8.280000       0.463876       0.251555       3.079065
       8.290000       0.466970       0.270998       3.094476
       8.300000       0.471600       0.291549       3.113418
       8.310000       0.478079       0.313662       3.136156
       8.320000       0.486589       0.337585       3.162786
       8.330000       0.497142       0.363276       3.193139
       8.340000       0.509567       0.390383       3.226747
       8.350000       0.523529       0.418285       3.262889
       8.360000       0.538576       0.446188       3.300700
       8.370000       0.554205       0.473233       3.339322
       8.380000       0.569922       0.498594       3.378039
       8.390000       0.585297       0.521530       3.416368
       8.400000       0.599996       0.541406       3.454078
       8.410000       0.613802       0.557674       3.491137
       8.420000       0.626614       0.569867       3.527612
       8.430000       0.638437       0.577604       3.563572
       8.440000       0.649356       0.580631       3.599014
       8.450000       0.659498       0.578872       3.633839
       8.460000       0.669005       0.572470       3.667880
       8.470000       0.678009       0.561782       3.700954
       8.480000       0.686617       0.547327       3.732899
       8.490000       0.694912       0.529719       3.763558
       8.500000       0.702958       0.509628       3.792705
       8.510000       0.710830       0.487788       3.819929
       8.520000       0.718648       0.465043       3.844528
       8.530000       0.726606       0.442376       3.865440
       8.540000       0.734979       0.420864       3.881234
       8.550000       0.744095       0.401539       3.890151
       8.560000       0.754283       0.385197       3.890175
       8.570000       0.765808       0.372253       3.879131
       8.580000       0.778812       0.362724       3.854816
       8.590000       0.793280       0.356352       3.815150
       8.600000       0.809032       0.352800       3.758357
       8.610000       0.825740       0.351801       3.683149
       8.620000       0.842959       0.353194       3.588926
       8.630000       0.860175       0.356838       3.475962
       8.640000       0.876843       0.362487       3.345565
       8.650000       0.892431       0.369699       3.200128
       8.660000       0.906450       0.377829       3.043028
       8.670000       0.918477       0.386086       2.878350
       8.680000       0.928184       0.393617       2.710493
       8.690000       0.935344       0.399602       2.543767
       8.700000       0.939836       0.403353       2.382058
       8.710000       0.941634       0.404409       2.228613
       8.720000       0.940793       0.402610       2.085948
       8.730000       0.937451       0.398103       1.955846
       8.740000       0.931842       0.391283       1.839397
       8.750000       0.924326       0.382707       1.737043
       8.760000       0.915419       0.372992       1.648593
       8.770000       0.905791       0.362734       1.573259
       8.780000       0.896217       0.352438       1.509759
       8.790000       0.887488       0.342439       1.456522
       8.800000       0.880295       0.332865       1.411932
       8.810000       0.875127       0.323653       1.374539
       8.820000       0.872227       0.314637       1.343127
       8.830000       0.871599       0.305653       1.316653
       8.840000       0.873066       0.296604       1.294119
       8.850000       0.876357       0.287500       1.274508
       8.860000       0.881167       0.278469       1.256832
       8.870000       0.887208       0.269790       1.240263
       8.880000       0.894234       0.261934       1.224262
       8.890000       0.902046       0.255581       1.208612
       8.900000       0.910504       0.251570       1.193340
       8.910000       0.919536       0.250789       1.178587
       8.920000       0.929133       0.254017       1.164493
       8.930000       0.939334       0.261779       1.151178
       8.940000       0.950196       0.274242       1.138784
       8.950000       0.961751       0.291178       1.127531
       8.960000       0.973974       0.311978       1.117699
       8.970000       0.986754       0.335722       1.109545
       8.980000       0.999901       0.361273       1.103198
       8.990000       1.013161       0.387400       1.098589
       9.000000       1.026249       0.412913       1.095475
       9.010000       1.038895       0.436799       1.093518
       9.020000       1.050868       0.458323       1.092410
       9.030000       1.061998       0.477058       1.091945
       9.040000       1.072183       0.492843       1.092034
       9.050000       1.081376       0.505669       1.092640
       9.060000       1.089576       0.515559       1.093684
       9.070000       1.096795       0.522464       1.094978
       9.080000       1.103045       0.526207       1.096202
       9.090000       1.108323       0.526463       1.096946
       9.100000       1.112616       0.522781       1.096801
       9.110000       1.115926       0.514643       1.095476
       9.120000       1.118300       0.501566       1.092930
       9.130000       1.119866       0.483231       1.089466
       9.140000       1.120857       0.459596       1.085771
       9.150000       1.121598       0.430956       1.082858
       9.160000       1.122467       0.397913       1.081918
       9.170000       1.123823       0.361290       1.084113
       9.180000       1.125935       0.322009       1.090400
       9.190000       1.128935       0.280994       1.101413
       9.200000       1.132813       0.239099       1.117436
       9.210000       1.137441       0.197036       1.138449
       9.220000       1.142617       0.155297       1.164215
       9.230000       1.148116       0.114109       1.194372
       9.240000       1.153744       0.073493       1.228516
       9.250000       1.159376       0.033474       1.266237
       9.260000       1.164974      -0.005654       1.307122
       9.270000       1.170557      -0.043124       1.350720
       9.280000       1.176142      -0.077689       1.396478
       9.290000       1.181676      -0.107837       1.443667
       9.300000       1.186999      -0.132126       1.491330
       9.310000       1.191841      -0.149530       1.538284
       9.320000       1.195867      -0.159670       1.583172
       9.330000       1.198740      -0.162887       1.624583
       9.340000       1.200175      -0.160163       1.661183
       9.350000       1.199990      -0.152941       1.691855
       9.360000       1.198113      -0.142898       1.715801
       9.370000       1.194576      -0.131724       1.732613
       9.380000       1.189508      -0.120913       1.742306
       9.390000       1.183127      -0.111601       1.745302
       9.400000       1.175757      -0.104434       1.742397
       9.410000       1.167845      -0.099526       1.734680
       9.420000       1.159969      -0.096486       1.723437
       9.430000       1.152798      -0.094548       1.710022
       9.440000       1.147006      -0.092763       1.695706
       9.450000       1.143157      -0.090223       1.681517
       9.460000       1.141592      -0.086265       1.668087
       9.470000       1.142338      -0.080625       1.655530
       9.480000       1.145078      -0.073510       1.643402
       9.490000       1.149190      -0.065581       1.630752
       9.500000       1.153854      -0.057864       1.616290
       9.510000       1.158194      -0.051620       1.598646
       9.520000       1.161425      -0.048184       1.576664
       9.530000       1.162961      -0.048804       1.549644
       9.540000       1.162460      -0.054485       1.517476
       9.550000       1.159814      -0.065870       1.480642
       9.560000       1.155110      -0.083173       1.440104
       9.570000       1.148579      -0.106173       1.397116
       9.580000       1.140573      -0.134250       1.353014
       9.590000       1.131540      -0.166441       1.309016
       9.600000       1.121970      -0.201486       1.266054
       9.610000       1.112309      -0.237882       1.224655
       9.620000       1.102858      -0.273966       1.184883
       9.630000       1.093716      -0.308075       1.146349
       9.640000       1.084814      -0.338743       1.108330
       9.650000       1.076030      -0.364911       1.069958
       9.660000       1.067335      -0.386063       1.030469
       9.670000       1.058897      -0.402243       0.989414
       9.680000       1.051082      -0.413941       0.946788
       9.690000       1.044362      -0.421887       0.903032
       9.700000       1.039175      -0.426839       0.858921
       9.710000       1.035801      -0.429436       0.815364
       9.720000       1.034287      -0.430158       0.773196
       9.730000       1.034434      -0.429372       0.733029
       9.740000       1.035850      -0.427417       0.695201
       9.750000       1.038020      -0.424663       0.659844
       9.760000       1.040397      -0.421499       0.626986
       9.770000       1.042483      -0.418267       0.596631
       9.780000       1.043889      -0.415186       0.568748
       9.790000       1.044359      -0.412299       0.543206
       9.800000       1.043784      -0.409505       0.519702
       9.810000       1.042202      -0.406630       0.497761
       9.820000       1.039782      -0.403512       0.476837
       9.830000       1.036812      -0.400054       0.456476
       9.840000       1.033651      -0.396224       0.436472
       9.850000       1.030685      -0.392012       0.416942
       9.860000       1.028277      -0.387389       0.398283
       9.870000       1.026748      -0.382287       0.381046
       9.880000       1.026378      -0.376625       0.365787
       9.890000       1.027412      -0.370351       0.352938
       9.900000       1.030056      -0.363478       0.342742
       9.910000       1.034460      -0.356095       0.335219
       9.920000       1.040707      -0.348367       0.330183
       9.930000       1.048814      -0.340528       0.327253
       9.940000       1.058743      -0.332887       0.325882
       9.950000       1.070404      -0.325823       0.325391
       9.960000       1.083643      -0.319744       0.325033
       9.970000       1.098242      -0.315014       0.324077
       9.980000       1.113932      -0.311861       0.321909
       9.990000       1.130439      -0.310294       0.318111
      10.000000       1.147517      -0.310083       0.312516
      10.010000       1.164974      -0.310806       0.305204
      10.020000       1.182646      -0.311947       0.296464
      10.030000       1.200371      -0.313015       0.286741
      10.040000       1.217958      -0.313638       0.276568
      10.050000       1.235185      -0.313604       0.266489
      10.060000       1.251831      -0.312850       0.256999
      10.070000       1.267716      -0.311434       0.248509
      10.080000       1.282747      -0.309506       0.241342
      10.090000       1.296939      -0.307283       0.235780
      10.100000       1.310405      -0.305033       0.232110
      10.110000       1.323307      -0.303046       0.230637
      10.120000       1.335779      -0.301593       0.231636
      10.130000       1.347857      -0.300887       0.235269
      10.140000       1.359424      -0.301056       0.241500
      10.150000       1.370212      -0.302127       0.250075
      10.160000       1.379836      -0.304038       0.260557
      10.170000       1.387873      -0.306669       0.272412
      10.180000       1.393960      -0.309868       0.285105
      10.190000       1.397882      -0.313475       0.298190
      10.200000       1.399656      -0.317327       0.311363
      10.210000       1.399573      -0.321243       0.324477
      10.220000       1.398188      -0.325020       0.337523
      10.230000       1.396229      -0.328429       0.350567
      10.240000       1.394446      -0.331236       0.363681
      10.250000       1.393435      -0.333229       0.376885
      10.260000       1.393497      -0.334250       0.390121
      10.270000       1.394578      -0.334205       0.403254
      10.280000       1.396295      -0.333066       0.416093
      10.290000       1.398035      -0.330832       0.428443
      10.300000       1.399063      -0.327500       0.440167
      10.310000       1.398628      -0.323036       0.451247
      10.320000       1.396058      -0.317377       0.461833
      10.330000       1.390839      -0.310463       0.472246
      10.340000       1.382661      -0.302294       0.482940
      10.350000       1.371447      -0.292977       0.494436
      10.360000       1.357329      -0.282756       0.507229
      10.370000       1.340605      -0.272004       0.521727
      10.380000       1.321663      -0.261180       0.538204
      10.390000       1.300881      -0.250757       0.556786
      10.400000       1.278496      -0.241151       0.577460
      10.410000       1.254446      -0.232659       0.600093
      10.420000       1.228227      -0.225422       0.624459
      10.430000       1.198841      -0.219417       0.650268
      10.440000       1.164912      -0.214478       0.677202
      10.450000       1.124971      -0.210338       0.704941
      10.460000       1.077894      -0.206690       0.733160
      10.470000       1.023366      -0.203240       0.761495
      10.480000       0.962228      -0.199764       0.789475
      10.490000       0.896568      -0.196130       0.816450
      10.500000       0.829487      -0.192308       0.841551
      10.510000       0.764563      -0.188351       0.863699
      10.520000       0.705171      -0.184359       0.881677
      10.530000       0.653848      -0.180444       0.894224
      10.540000       0.611930      -0.176690       0.900127
      10.550000       0.579535      -0.173138       0.898265
      10.560000       0.555855      -0.169772       0.887613
      10.570000       0.539602      -0.166539       0.867210
      10.580000       0.529429      -0.163371       0.836161
      10.590000       0.524205      -0.160227       0.793690
      10.600000       0.523099      -0.157116       0.739253
      10.610000       0.525521      -0.154118       0.672664
      10.620000       0.530987      -0.151378       0.594189
      10.630000       0.539005      -0.149085       0.504563
      10.640000       0.549014      -0.147425       0.404943
      10.650000       0.560394      -0.146532       0.296843
      10.660000       0.572507      -0.146417       0.182084
      10.670000       0.584712      -0.146939       0.062790
      10.680000       0.596354      -0.147811      -0.058600
      10.690000       0.606706      -0.148650      -0.179346
      10.700000       0.614929      -0.149058      -0.296522
      10.710000       0.620061      -0.148700      -0.407229
      10.720000       0.621073      -0.147351      -0.508888
      10.730000       0.616949      -0.144914      -0.599519
      10.740000       0.606778      -0.141416      -0.677936
      10.750000       0.589834      -0.136986      -0.743781
      10.760000       0.565656      -0.131838      -0.797411
      10.770000       0.534179      -0.126241      -0.839685
      10.780000       0.495884      -0.120512      -0.871737
      10.790000       0.451945      -0.115001      -0.894798
      10.800000       0.404243      -0.110092      -0.910069
      10.810000       0.355205      -0.106185      -0.918636
      10.820000       0.307432      -0.103638      -0.921406
      10.830000       0.263261      -0.102684      -0.919061
      10.840000       0.224427      -0.103343      -0.912073
      10.850000       0.191943      -0.105365      -0.900776
      10.860000       0.166176      -0.108236      -0.885478
      10.870000       0.147005      -0.111272      -0.866569
      10.880000       0.133937      -0.113745      -0.844562
      10.890000       0.126166      -0.115014      -0.820074
      10.900000       0.122616      -0.114623      -0.793748
      10.910000       0.122043      -0.112332      -0.766167
      10.920000       0.123217      -0.108118      -0.737802
      10.930000       0.125148      -0.102124      -0.709004
      10.940000       0.127259      -0.094602      -0.680070
      10.950000       0.129466      -0.085850      -0.651319
      10.960000       0.132094      -0.076179      -0.623160
      10.970000       0.135693      -0.065893      -0.596092
      10.980000       0.140809      -0.055292      -0.570667
      10.990000       0.147800      -0.044684      -0.547408
      11.000000       0.156749      -0.034374      -0.526734
      11.010000       0.167488      -0.024657      -0.508902
      11.020000       0.179689      -0.015797      -0.493995
      11.030000       0.192992      -0.008012      -0.481920
      11.040000       0.207093      -0.001464      -0.472443
      11.050000       0.221781       0.003737      -0.465235
      11.060000       0.236920       0.007540      -0.459931
      11.070000       0.252400       0.009965      -0.456177
      11.080000       0.268098       0.011111      -0.453647
      11.090000       0.283871       0.011157      -0.452018
      11.100000       0.299560       0.010346      -0.450941
      11.110000       0.315017       0.008961      -0.450036
      11.120000       0.330103       0.007298      -0.448935
      11.130000       0.344677       0.005650      -0.447380
      11.140000       0.358565       0.004290      -0.445319
      11.150000       0.371531       0.003459      -0.442970
      11.160000       0.383272       0.003338      -0.440803
      11.170000       0.393440       0.004032      -0.439440
      11.180000       0.401686       0.005551      -0.439512
      11.190000       0.407707       0.007818      -0.441495
      11.200000       0.411286       0.010689      -0.445608
      11.210000       0.412309       0.013992      -0.451776
      11.220000       0.410773       0.017570      -0.459662
      11.230000       0.406765       0.021324      -0.468740
      11.240000       0.400436       0.025232      -0.478383
      11.250000       0.391966       0.029353      -0.487947
      11.260000       0.381507       0.033794      -0.496867
      11.270000       0.369121       0.038667      -0.504742
      11.280000       0.354699       0.044044      -0.511382
      11.290000       0.337881       0.049927      -0.516803
      11.300000       0.318030       0.056238      -0.521179
      11.310000       0.294267       0.062835      -0.524763
      11.320000       0.265593       0.069535      -0.527811
      11.330000       0.231076       0.076147      -0.530515
      11.340000       0.190096       0.082494      -0.532946
      11.350000       0.142627       0.088444      -0.535010
      11.360000       0.089488       0.093921      -0.536435
      11.370000       0.032467       0.098910      -0.536806
      11.380000      -0.025808       0.103445      -0.535639
      11.390000      -0.082268       0.107595      -0.532492
      11.400000      -0.133959       0.111448      -0.527071
      11.410000      -0.178556       0.115104      -0.519300
      11.420000      -0.214667       0.118681      -0.509333
      11.430000      -0.241861       0.122313      -0.497520
      11.440000      -0.260493       0.126137      -0.484347
      11.450000      -0.271452       0.130268      -0.470359
      11.460000      -0.275915       0.134758      -0.456095
      11.470000      -0.275166       0.139553      -0.442020
      11.480000      -0.270465       0.144480      -0.428485
      11.490000      -0.262949       0.149262      -0.415700
      11.500000      -0.253542       0.153573      -0.403750
      11.510000      -0.242886       0.157106      -0.392613
      11.520000      -0.231323       0.159645      -0.382204
      11.530000      -0.218938       0.161110      -0.372399
      11.540000      -0.205655       0.161564      -0.363066
      11.550000      -0.191355       0.161185      -0.354072
      11.560000      -0.175980       0.160203      -0.345287
      11.570000      -0.159600       0.158842      -0.336584
      11.580000      -0.142417       0.157280      -0.327839
      11.590000      -0.124727       0.155640      -0.318934
      11.600000      -0.106859       0.154003      -0.309777
      11.610000      -0.089125       0.152412      -0.300321
      11.620000      -0.071772       0.150887      -0.290580
      11.630000      -0.054971       0.149430      -0.280639
      11.640000      -0.038795       0.148041      -0.270643
      11.650000      -0.023218       0.146742      -0.260775
      11.660000      -0.008116       0.145596      -0.251229
      11.670000       0.006714       0.144713      -0.242167
      11.680000       0.021516       0.144223      -0.233694
      11.690000       0.036530       0.144241      -0.225833
      11.700000       0.051950       0.144832      -0.218530
      11.710000       0.067897       0.146000      -0.211673
      11.720000       0.084406       0.147706      -0.205117
      11.730000       0.101425       0.149901      -0.198714
      11.740000       0.118813       0.152565      -0.192335
      11.750000       0.136363       0.155728      -0.185886
      11.760000       0.153820       0.159467      -0.179318
      11.770000       0.170926       0.163882      -0.172630
      11.780000       0.187440       0.169059      -0.165861
      11.790000       0.203158       0.175050      -0.159065
      11.800000       0.217909       0.181844      -0.152291
      11.810000       0.231528       0.189372      -0.145568
      11.820000       0.243826       0.197504      -0.138912
      11.830000       0.254552       0.206066      -0.132339
      11.840000       0.263366       0.214852      -0.125889
      11.850000       0.269825       0.223656      -0.119626
      11.860000       0.273400       0.232291      -0.113637
      11.870000       0.273529       0.240625      -0.108007
      11.880000       0.269688       0.248600      -0.102798
      11.890000       0.261455       0.256242      -0.098036
      11.900000       0.248546       0.263649      -0.093688
      11.910000       0.230816       0.270956      -0.089654
      11.920000       0.208261       0.278300      -0.085759
      11.930000       0.181056       0.285786      -0.081764
      11.940000       0.149660       0.293468      -0.077401
      11.950000       0.114933       0.301346      -0.072418
      11.960000       0.078201       0.309364      -0.066639
      11.970000       0.041205       0.317429      -0.060004
      11.980000       0.005898       0.325430      -0.052578
      11.990000      -0.025849       0.333270      -0.044534
      12.000000      -0.052541       0.340899      -0.036120
      12.010000      -0.073261       0.348330      -0.027604
      12.020000      -0.087728       0.355638      -0.019235
      12.030000      -0.096205       0.362931      -0.011209
      12.040000      -0.099341       0.370306      -0.003651
      12.050000      -0.097991       0.377807       0.003378
      12.060000      -0.093059       0.385402       0.009859
      12.070000      -0.085391       0.392975       0.015781
      12.080000      -0.075710       0.400332       0.021113
      12.090000      -0.064595       0.407225       0.025804
      12.100000      -0.052496       0.413372       0.029797
      12.110000      -0.039771       0.418491       0.033060
      12.120000      -0.026732       0.422336       0.035611
      12.130000      -0.013692       0.424724       0.037526
      12.140000      -0.000980       0.425573       0.038925
      12.150000       0.011050       0.424903       0.039947
      12.160000       0.022054       0.422839       0.040729
      12.170000       0.031743       0.419574       0.041399
      12.180000       0.039936       0.415333       0.042077
      12.190000       0.046618       0.410325       0.042892
      12.200000       0.051956       0.404703       0.043973
      12.210000       0.056269       0.398553       0.045442
      12.220000       0.059969       0.391896       0.047385
      12.230000       0.063478       0.384710       0.049833
      12.240000       0.067161       0.376978       0.052739
      12.250000       0.071284       0.368728       0.055969
      12.260000       0.075990       0.360068       0.059313
      12.270000       0.081298       0.351200       0.062495
      12.280000       0.087115       0.342413       0.065215
      12.290000       0.093276       0.334050       0.067202
      12.300000       0.099583       0.326462       0.068276
      12.310000       0.105851       0.319955       0.068410
      12.320000       0.111940       0.314748       0.067764
      12.330000       0.117779       0.310939       0.066670
      12.340000       0.123373       0.308495       0.065581
      12.350000       0.128791       0.307272       0.064988
      12.360000       0.134142       0.307054       0.065325
      12.370000       0.139533       0.307605       0.066907
      12.380000       0.145038       0.308732       0.069890
      12.390000       0.150680       0.310317       0.074273
      12.400000       0.156448       0.312329       0.079921
      12.410000       0.162310       0.314800       0.086601
      12.420000       0.168242       0.317780       0.094022
      12.430000       0.174220       0.321285       0.101872
      12.440000       0.180217       0.325258       0.109838
      12.450000       0.186194       0.329544       0.117625
      12.460000       0.192113       0.333913       0.124958
      12.470000       0.197964       0.338085       0.131602
      12.480000       0.203781       0.341784       0.137364
      12.490000       0.209640       0.344769       0.142105
      12.500000       0.215617       0.346863       0.145747
      12.510000       0.221734       0.347953       0.148279
      12.520000       0.227900       0.347981       0.149753
      12.530000       0.233874       0.346929       0.150280
      12.540000       0.239264       0.344811       0.150017
      12.550000       0.243560       0.341674       0.149159
      12.560000       0.246200       0.337614       0.147935
      12.570000       0.246647       0.332796       0.146601
      12.580000       0.244458       0.327462       0.145427
      12.590000       0.239331       0.321923       0.144679
      12.600000       0.231102       0.316521       0.144581
      12.610000       0.219732       0.311576       0.145293
      12.620000       0.205285       0.307331       0.146899
      12.630000       0.187946       0.303916       0.149422
      12.640000       0.168074       0.301339       0.152834
      12.650000       0.146255       0.299523       0.157075
      12.660000       0.123331       0.298351       0.162055
      12.670000       0.100347       0.297716       0.167655
      12.680000       0.078436       0.297555       0.173723
      12.690000       0.058653       0.297842       0.180082
      12.700000       0.041837       0.298574       0.186538
      12.710000       0.028522       0.299747       0.192894
      12.720000       0.018920       0.301324       0.198974
      12.730000       0.012961       0.303206       0.204631
      12.740000       0.010364       0.305216       0.209760
      12.750000       0.010715       0.307093       0.214308
      12.760000       0.013541       0.308521       0.218273
      12.770000       0.018381       0.309181       0.221706
      12.780000       0.024823       0.308826       0.224702
      12.790000       0.032537       0.307343       0.227378
      12.800000       0.041276       0.304792       0.229862
      12.810000       0.050876       0.301386       0.232266
      12.820000       0.061255       0.297451       0.234682
      12.830000       0.072396       0.293352       0.237175
      12.840000       0.084335       0.289439       0.239787
      12.850000       0.097121       0.286013       0.242547
      12.860000       0.110777       0.283308       0.245462
      12.870000       0.125259       0.281484       0.248520
      12.880000       0.140434       0.280625       0.251689
      12.890000       0.156070       0.280744       0.254917
      12.900000       0.171853       0.281791       0.258144
      12.910000       0.187402       0.283662       0.261319
      12.920000       0.202305       0.286218       0.264411
      12.930000       0.216146       0.289303       0.267421
      12.940000       0.228536       0.292767       0.270389
      12.950000       0.239141       0.296466       0.273399
      12.960000       0.247709       0.300270       0.276569
      12.970000       0.254069       0.304038       0.280037
      12.980000       0.258130       0.307606       0.283932
      12.990000       0.259866       0.310776       0.288348
      13.000000       0.259309       0.313329       0.293320
      13.010000       0.256561       0.315047       0.298813
      13.020000       0.251819       0.315753       0.304733
      13.030000       0.245398       0.315339       0.310938
      13.040000       0.237731       0.313788       0.317270
      13.050000       0.229335       0.311171       0.323571
      13.060000       0.220759       0.307613       0.329708
      13.070000       0.212508       0.303256       0.335582
      13.080000       0.205000       0.298221       0.341134
      13.090000       0.198541       0.292583       0.346338
      13.100000       0.193352       0.286388       0.351194
      13.110000       0.189589       0.279687       0.355717
      13.120000       0.187371       0.272583       0.359934
      13.130000       0.186768       0.265256       0.363883
      13.140000       0.187769       0.257967       0.367615
      13.150000       0.190241       0.251027       0.371199
      13.160000       0.193921       0.244749       0.374718
      13.170000       0.198426       0.239391       0.378267
      13.180000       0.203294       0.235115       0.381933
      13.190000       0.208032       0.231960       0.385783
      13.200000       0.212171       0.229842       0.389846
      13.210000       0.215317       0.228580       0.394107
      13.220000       0.217206       0.227953       0.398515
      13.230000       0.217742       0.227753       0.402998
      13.240000       0.217015       0.227840       0.407489
      13.250000       0.215281       0.228168       0.411939
      13.260000       0.212909       0.228774       0.416334
      13.270000       0.210291       0.229747       0.420695
      13.280000       0.207758       0.231183       0.425063
      13.290000       0.205499       0.233148       0.429486
      13.300000       0.203520       0.235660       0.434003
      13.310000       0.201663       0.238691       0.438635
      13.320000       0.199646       0.242175       0.443391
      13.330000       0.197135       0.246020       0.448265
      13.340000       0.193816       0.250109       0.453245
      13.350000       0.189437       0.254299       0.458312
      13.360000       0.183836       0.258414       0.463446
      13.370000       0.176946       0.262236       0.468633
      13.380000       0.168813       0.265507       0.473864
      13.390000       0.159627       0.267944       0.479145
      13.400000       0.149765       0.269273       0.484495
      13.410000       0.139806       0.269272       0.489936
      13.420000       0.130492       0.267811       0.495489
      13.430000       0.122621       0.264894       0.501162
      13.440000       0.116898       0.260668       0.506940
      13.450000       0.113811       0.255422       0.512789
      13.460000       0.113558       0.249566       0.518651
      13.470000       0.116058       0.243585       0.524461
      13.480000       0.121024       0.237985       0.530149
      13.490000       0.128054       0.233224       0.535656
      13.500000       0.136718       0.229649       0.540935
      13.510000       0.146603       0.227451       0.545958
      13.520000       0.157334       0.226652       0.550711
      13.530000       0.168565       0.227127       0.555202
      13.540000       0.179969       0.228644       0.559456
      13.550000       0.191236       0.230929       0.563517
      13.560000       0.202081       0.233716       0.567445
      13.570000       0.212254       0.236783       0.571310
      13.580000       0.221558       0.239966       0.575184
      13.590000       0.229865       0.243159       0.579130
      13.600000       0.237124       0.246301       0.583191
      13.610000       0.243378       0.249361       0.587385
      13.620000       0.248762       0.252322       0.591703
      13.630000       0.253488       0.255173       0.596115
      13.640000       0.257813       0.257891       0.600581
      13.650000       0.261981       0.260429       0.605060
      13.660000       0.266178       0.262696       0.609513
      13.670000       0.270487       0.264552       0.613903
      13.680000       0.274895       0.265809       0.618187
      13.690000       0.279316       0.266248       0.622312
      13.700000       0.283645       0.265646       0.626215
      13.710000       0.287800       0.263798       0.629822
      13.720000       0.291741       0.260547       0.633045
      13.730000       0.295477       0.255802       0.635797
      13.740000       0.299042       0.249571       0.637991
      13.750000       0.302481       0.241984       0.639558
      13.760000       0.305825       0.233316       0.640459
      13.770000       0.309069       0.223976       0.640684
      13.780000       0.312168       0.214473       0.640261
      13.790000       0.315040       0.205349       0.639248
      13.800000       0.317590       0.197096       0.637722
      13.810000       0.319746       0.190090       0.635774
      13.820000       0.321482       0.184554       0.633486
      13.830000       0.322845       0.180559       0.630921
      13.840000       0.323948       0.178057       0.628105
      13.850000       0.324968       0.176923       0.625026
      13.860000       0.326126       0.176983       0.621641
      13.870000       0.327646       0.178044       0.617887
      13.880000       0.329723       0.179904       0.613699
      13.890000       0.332477       0.182373       0.609020
      13.900000       0.335922       0.185284       0.603803
      13.910000       0.339960       0.188504       0.598006
      13.920000       0.344386       0.191936       0.591591
      13.930000       0.348916       0.195510       0.584522
      13.940000       0.353227       0.199152       0.576765
      13.950000       0.357007       0.202764       0.568300
      13.960000       0.359994       0.206195       0.559127
      13.970000       0.362018       0.209251       0.549278
      13.980000       0.363014       0.211707       0.538825
      13.990000       0.363029       0.213355       0.527883
      14.000000       0.362209       0.214029       0.516606
      14.010000       0.360768       0.213632       0.505178
      14.020000       0.358957       0.212130       0.493804
      14.030000       0.357029       0.209547       0.482698
      14.040000       0.355205       0.205950       0.472076
      14.050000       0.353644       0.201458       0.462150
      14.060000       0.352416       0.196259       0.453115
      14.070000       0.351488       0.190633       0.445146
      14.080000       0.350733       0.184953       0.438387
      14.090000       0.349974       0.179655       0.432933
      14.100000       0.349031       0.175177       0.428831
      14.110000       0.347770       0.171873       0.426066
      14.120000       0.346128       0.169947       0.424575
      14.130000       0.344098       0.169417       0.424257
      14.140000       0.341709       0.170117       0.424993
      14.150000       0.339000       0.171742       0.426658
      14.160000       0.336014       0.173904       0.429143
      14.170000       0.332808       0.176198       0.432360
      14.180000       0.329461       0.178250       0.436246
      14.190000       0.326071       0.179766       0.440762
      14.200000       0.322729       0.180563       0.445883
      14.210000       0.319501       0.180586       0.451581
      14.220000       0.316419       0.179914       0.457811
      14.230000       0.313490       0.178739       0.464505
      14.240000       0.310718       0.177326       0.471570
      14.250000       0.308129       0.175956       0.478893
      14.260000       0.305790       0.174872       0.486357
      14.270000       0.303805       0.174246       0.493848
      14.280000       0.302297       0.174166       0.501266
      14.290000       0.301371       0.174637       0.508529
      14.300000       0.301076       0.175606       0.515569
      14.310000       0.301388       0.176979       0.522336
      14.320000       0.302215       0.178650       0.528798
      14.330000       0.303420       0.180521       0.534936
      14.340000       0.304849       0.182522       0.540753
      14.350000       0.306350       0.184616       0.546272
      14.360000       0.307803       0.186797       0.551537
      14.370000       0.309135       0.189078       0.556607
      14.380000       0.310352       0.191476       0.561559
      14.390000       0.311547       0.193996       0.566477
      14.400000       0.312899       0.196626       0.571448
      14.410000       0.314636       0.199336       0.576553
      14.420000       0.316989       0.202092       0.581853
      14.430000       0.320133       0.204862       0.587384
      14.440000       0.324156       0.207634       0.593148
      14.450000       0.329039       0.210420       0.599110
      14.460000       0.334670       0.213256       0.605204
      14.470000       0.340862       0.216186       0.611338
      14.480000       0.347377       0.219239       0.617408
      14.490000       0.353953       0.222414       0.623314
      14.500000       0.360323       0.225664       0.628974
      14.510000       0.366241       0.228913       0.634337
      14.520000       0.371506       0.232073       0.639396
      14.530000       0.375985       0.235072       0.644187
      14.540000       0.379635       0.237877       0.648788
      14.550000       0.382510       0.240503       0.653306
      14.560000       0.384753       0.243004       0.657858
      14.570000       0.386573       0.245463       0.662550
      14.580000       0.388211       0.247972       0.667457
      14.590000       0.389898       0.250616       0.672618
      14.600000       0.391817       0.253459       0.678033
      14.610000       0.394066       0.256533       0.683672
      14.620000       0.396645       0.259835       0.689492
      14.630000       0.399459       0.263326       0.695444
      14.640000       0.402340       0.266942       0.701483
      14.650000       0.405089       0.270600       0.707568
      14.660000       0.407520       0.274213       0.713662
      14.670000       0.409497       0.277709       0.719733
      14.680000       0.410961       0.281032       0.725757
      14.690000       0.411924       0.284153       0.731721
      14.700000       0.412451       0.287062       0.737627
      14.710000       0.412629       0.289769       0.743483
      14.720000       0.412537       0.292295       0.749299
      14.730000       0.412228       0.294671       0.755081
      14.740000       0.411708       0.296934       0.760821
      14.750000       0.410945       0.299117       0.766506
      14.760000       0.409879       0.301244       0.772116
      14.770000       0.408445       0.303330       0.777626
      14.780000       0.406597       0.305378       0.783007
      14.790000       0.404326       0.307383       0.788221
      14.800000       0.401668       0.309341       0.793219
      14.810000       0.398697       0.311248       0.797942
      14.820000       0.395502       0.313104       0.802330
      14.830000       0.392182       0.314914       0.806337
      14.840000       0.388840       0.316692       0.809941
      14.850000       0.385589       0.318460       0.813152
      14.860000       0.382550       0.320242       0.816012
      14.870000       0.379838       0.322057       0.818589
      14.880000       0.377545       0.323906       0.820969
      14.890000       0.375709       0.325772       0.823251
      14.900000       0.374322       0.327624       0.825536
      14.910000       0.373340       0.329431       0.827918
      14.920000       0.372720       0.331174       0.830464
      14.930000       0.372447       0.332854       0.833188
      14.940000       0.372531       0.334488       0.836042
      14.950000       0.372997       0.336097       0.838909
      14.960000       0.373846       0.337701       0.841606
      14.970000       0.375022       0.339307       0.843912
      14.980000       0.376401       0.340913       0.845583
      14.990000       0.377797       0.342514       0.846384
      15.000000       0.378989       0.344109       0.846112
      15.010000       0.379772       0.345707       0.844613
      15.020000       0.380003       0.347322       0.841799
      15.030000       0.379640       0.348971       0.837655
      15.040000       0.378752       0.350668       0.832238
      15.050000       0.377492       0.352407       0.825659
      15.060000       0.376046       0.354166       0.818061
      15.070000       0.374570       0.355899       0.809600
      15.080000       0.373158       0.357548       0.800430
      15.090000       0.371835       0.359047       0.790709
      15.100000       0.370578       0.360337       0.780587
      15.110000       0.369344       0.361372       0.770194
      15.120000       0.368104       0.362127       0.759615
      15.130000       0.366857       0.362596       0.748867
      15.140000       0.365629       0.362790       0.737880
      15.150000       0.364468       0.362725       0.726497
      15.160000       0.363435       0.362424       0.714498
      15.170000       0.362582       0.361917       0.701618
      15.180000       0.361947       0.361250       0.687585
      15.190000       0.361549       0.360487       0.672150
      15.200000       0.361381       0.359712       0.655118
      15.210000       0.361414       0.359019       0.636388
      15.220000       0.361604       0.358500       0.615980
      15.230000       0.361895       0.358240       0.594075
      15.240000       0.362247       0.358296       0.571026
      15.250000       0.362649       0.358698       0.547348
      15.260000       0.363144       0.359443       0.523681
      15.270000       0.363822       0.360498       0.500711
      15.280000       0.364805       0.361809       0.479090
      15.290000       0.366209       0.363309       0.459355
      15.300000       0.368110       0.364927       0.441872
      15.310000       0.370523       0.366601       0.426812
      15.320000       0.373396       0.368274       0.414169
      15.330000       0.376632       0.369904       0.403791
      15.340000       0.380116       0.371460       0.395439
      15.350000       0.383733       0.372921       0.388838
      15.360000       0.387386       0.374277       0.383718
      15.370000       0.390993       0.375526       0.379830
      15.380000       0.394482       0.376676       0.376939
      15.390000       0.397786       0.377743       0.374810
      15.400000       0.400853       0.378758       0.373207
      15.410000       0.403659       0.379760       0.371907
      15.420000       0.406231       0.380797       0.370727
      15.430000       0.408647       0.381916       0.369553
      15.440000       0.411024       0.383159       0.368345
      15.450000       0.413483       0.384554       0.367123
      15.460000       0.416111       0.386110       0.365916
      15.470000       0.418927       0.387822       0.364725
      15.480000       0.421871       0.389667       0.363493
      15.490000       0.424815       0.391615       0.362118
      15.500000       0.427585       0.393624       0.360481
      15.510000       0.429995       0.395654       0.358507
      15.520000       0.431878       0.397664       0.356198
      15.530000       0.433117       0.399618       0.353658
      15.540000       0.433657       0.401490       0.351071
      15.550000       0.433501       0.403255       0.348663
      15.560000       0.432696       0.404895       0.346658
      15.570000       0.431309       0.406399       0.345243
      15.580000       0.429419       0.407762       0.344556
      15.590000       0.427120       0.408993       0.344692
      15.600000       0.424523       0.410111       0.345712
      15.610000       0.421757       0.411145       0.347651
      15.620000       0.418956       0.412132       0.350510
      15.630000       0.416240       0.413113       0.354250
      15.640000       0.413698       0.414131       0.358786
      15.650000       0.411375       0.415231       0.363992
      15.660000       0.409271       0.416451       0.369710
      15.670000       0.407346       0.417825       0.375769
      15.680000       0.405538       0.419372       0.382003
      15.690000       0.403779       0.421093       0.388259
      15.700000       0.402017       0.422972       0.394413
      15.710000       0.400226       0.424974       0.400370
      15.720000       0.398402       0.427051       0.406068
      15.730000       0.396551       0.429146       0.411475
      15.740000       0.394669       0.431206       0.416595
      15.750000       0.392746       0.433184       0.421459
      15.760000       0.390765       0.435042       0.426128
      15.770000       0.388720       0.436746       0.430679
      15.780000       0.386628       0.438265       0.435193
      15.790000       0.384545       0.439565       0.439739
      15.800000       0.382557       0.440616       0.444362
      15.810000       0.380778       0.441388       0.449078
      15.820000       0.379327       0.441861       0.453876
      15.830000       0.378300       0.442021       0.458722
      15.840000       0.377758       0.441869       0.463570
      15.850000       0.377718       0.441417       0.468375
      15.860000       0.378165       0.440698       0.473099
      15.870000       0.379064       0.439771       0.477716
      15.880000       0.380372       0.438724       0.482218
      15.890000       0.382034       0.437663       0.486615
      15.900000       0.383984       0.436707       0.490925
      15.910000       0.386137       0.435965       0.495177
      15.920000       0.388402       0.435524       0.499397
      15.930000       0.390700       0.435440       0.503610
      15.940000       0.392982       0.435734       0.507839
      15.950000       0.395244       0.436403       0.512104
      15.960000       0.397525       0.437424       0.516420
      15.970000       0.399894       0.438760       0.520797
      15.980000       0.402427       0.440362       0.525238
      15.990000       0.405187       0.442168       0.529740
      16.000000       0.408209       0.444100       0.534296
      16.010000       0.411495       0.446069       0.538897
      16.020000       0.415014       0.447982       0.543528
      16.030000       0.418707       0.449758       0.548171
      16.040000       0.422496       0.451337       0.552800
      16.050000       0.426294       0.452694       0.557381
      16.060000       0.430004       0.453839       0.561875
      16.070000       0.433528       0.454812       0.566232
      16.080000       0.436761       0.455669       0.570395
      16.090000       0.439599       0.456469       0.574294
      16.100000       0.441945       0.457252       0.577856
      16.110000       0.443728       0.458035       0.581006
      16.120000       0.444925       0.458802       0.583678
      16.130000       0.445575       0.459514       0.585824
      16.140000       0.445788       0.460118       0.587416
      16.150000       0.445736       0.460563       0.588455
      16.160000       0.445622       0.460807       0.588966
      16.170000       0.445639       0.460829       0.589004
      16.180000       0.445931       0.460632       0.588655
      16.190000       0.446565       0.460243       0.588032
      16.200000       0.447528       0.459715       0.587267
      16.210000       0.448740       0.459119       0.586501
      16.220000       0.450073       0.458537       0.585868
      16.230000       0.451374       0.458048       0.585482
      16.240000       0.452485       0.457719       0.585423
      16.250000       0.453247       0.457592       0.585737
      16.260000       0.453499       0.457679       0.586431
      16.270000       0.453079       0.457958       0.587477
      16.280000       0.451830       0.458372       0.588826
      16.290000       0.449615       0.458839       0.590415
      16.300000       0.446354       0.459260       0.592187
      16.310000       0.442054       0.459538       0.594090
      16.320000       0.436842       0.459588       0.596092
      16.330000       0.430963       0.459352       0.598175
      16.340000       0.424753       0.458807       0.600337
      16.350000       0.418578       0.457967       0.602581
      16.360000       0.412777       0.456886       0.604910
      16.370000       0.407604       0.455661       0.607314
      16.380000       0.403209       0.454417       0.609763
      16.390000       0.399629       0.453296       0.612213
      16.400000       0.396813       0.452435       0.614610
      16.410000       0.394648       0.451944       0.616900
      16.420000       0.393000       0.451893       0.619044
      16.430000       0.391739       0.452303       0.621023
      16.440000       0.390761       0.453152       0.622845
      16.450000       0.389992       0.454379       0.624539
      16.460000       0.389380       0.455903       0.626146
      16.470000       0.388884       0.457633       0.627711
      16.480000       0.388469       0.459483       0.629272
      16.490000       0.388100       0.461386       0.630860
      16.500000       0.387742       0.463291       0.632503
      16.510000       0.387375       0.465171       0.634227
      16.520000       0.386992       0.467012       0.636059
      16.530000       0.386617       0.468801       0.638020
      16.540000       0.386294       0.470528       0.640123
      16.550000       0.386089       0.472172       0.642363
      16.560000       0.386072       0.473708       0.644718
      16.570000       0.386307       0.475108       0.647153
      16.580000       0.386850       0.476348       0.649626
      16.590000       0.387739       0.477416       0.652099
      16.600000       0.389002       0.478312       0.654546
      16.610000       0.390649       0.479047       0.656957
      16.620000       0.392681       0.479634       0.659339
      16.630000       0.395084       0.480089       0.661709
      16.640000       0.397832       0.480426       0.664086
      16.650000       0.400893       0.480657       0.666484
      16.660000       0.404223       0.480799       0.668903
      16.670000       0.407772       0.480872       0.671330
      16.680000       0.411481       0.480907       0.673738
      16.690000       0.415285       0.480939       0.676086
      16.700000       0.419120       0.481009       0.678326
      16.710000       0.422924       0.481159       0.680408
      16.720000       0.426646       0.481430       0.682279
      16.730000       0.430254       0.481856       0.683890
      16.740000       0.433735       0.482460       0.685203
      16.750000       0.437099       0.483248       0.686196
      16.760000       0.440377       0.484210       0.686868
      16.770000       0.443611       0.485319       0.687248
      16.780000       0.446850       0.486537       0.687386
      16.790000       0.450136       0.487817       0.687354
      16.800000       0.453506       0.489111       0.687234
      16.810000       0.456985       0.490370       0.687106
      16.820000       0.460586       0.491551       0.687045
      16.830000       0.464308       0.492621       0.687107
      16.840000       0.468143       0.493557       0.687331
      16.850000       0.472069       0.494356       0.687740
      16.860000       0.476054       0.495032       0.688344
      16.870000       0.480057       0.495618       0.689143
      16.880000       0.484032       0.496165       0.690128
      16.890000       0.487931       0.496734       0.691287
      16.900000       0.491711       0.497386       0.692602
      16.910000       0.495334       0.498167       0.694057
      16.920000       0.498778       0.499104       0.695629
      16.930000       0.502035       0.500194       0.697299
      16.940000       0.505115       0.501408       0.699043
      16.950000       0.508043       0.502693       0.700834
      16.960000       0.510857       0.503988       0.702646
      16.970000       0.513603       0.505233       0.704452
      16.980000       0.516322       0.506380       0.706232
      16.990000       0.519042       0.507394       0.707975
      17.000000       0.521764       0.508255       0.709677
      17.010000       0.524453       0.508956       0.711338
      17.020000       0.527044       0.509500       0.712960
      17.030000       0.529439       0.509893       0.714538
      17.040000       0.531517       0.510147       0.716068
      17.050000       0.533140       0.510278       0.717542
      17.060000       0.534158       0.510306       0.718958
      17.070000       0.534415       0.510253       0.720321
      17.080000       0.533767       0.510154       0.721642
      17.090000       0.532091       0.510048       0.722937
      17.100000       0.529315       0.509983       0.724220
      17.110000       0.525438       0.510007       0.725499
      17.120000       0.520549       0.510160       0.726773
      17.130000       0.514841       0.510465       0.728034
      17.140000       0.508598       0.510923       0.729272
      17.150000       0.502171       0.511512       0.730477
      17.160000       0.495927       0.512190       0.731647
      17.170000       0.490202       0.512908       0.732788
      17.180000       0.485250       0.513618       0.733916
      17.190000       0.481223       0.514285       0.735050
      17.200000       0.478169       0.514889       0.736217
      17.210000       0.476051       0.515433       0.737442
      17.220000       0.474774       0.515935       0.738750
      17.230000       0.474208       0.516423       0.740166
      17.240000       0.474214       0.516932       0.741713
      17.250000       0.474654       0.517495       0.743414
      17.260000       0.475403       0.518147       0.745291
      17.270000       0.476348       0.518922       0.747360
      17.280000       0.477389       0.519849       0.749632
      17.290000       0.478443       0.520952       0.752100
      17.300000       0.479447       0.522241       0.754746
      17.310000       0.480363       0.523713       0.757536
      17.320000       0.481185       0.525351       0.760421
      17.330000       0.481932       0.527122       0.763349
      17.340000       0.482649       0.528987       0.766263
      17.350000       0.483397       0.530903       0.769116
      17.360000       0.484247       0.532830       0.771876
      17.370000       0.485268       0.534734       0.774535
      17.380000       0.486515       0.536586       0.777106
      17.390000       0.488013       0.538367       0.779622
      17.400000       0.489754       0.540056       0.782125
      17.410000       0.491696       0.541636       0.784658
      17.420000       0.493774       0.543084       0.787250
      17.430000       0.495919       0.544373       0.789913
      17.440000       0.498065       0.545477       0.792640
      17.450000       0.500159       0.546370       0.795409
      17.460000       0.502167       0.547039       0.798190
      17.470000       0.504071       0.547481       0.800959
      17.480000       0.505860       0.547707       0.803696
      17.490000       0.507528       0.547742       0.806397
      17.500000       0.509072       0.547618       0.809066
      17.510000       0.510485       0.547371       0.811717
      17.520000       0.511759       0.547036       0.814367
      17.530000       0.512892       0.546640       0.817034
      17.540000       0.513888       0.546203       0.819730
      17.550000       0.514761       0.545737       0.822468
      17.560000       0.515537       0.545249       0.825257
      17.570000       0.516251       0.544747       0.828100
      17.580000       0.516951       0.544238       0.831003
      17.590000       0.517691       0.543730       0.833965
      17.600000       0.518525       0.543234       0.836984
      17.610000       0.519497       0.542766       0.840058
      17.620000       0.520633       0.542342       0.843185
      17.630000       0.521927       0.541983       0.846362
      17.640000       0.523345       0.541702       0.849590
      17.650000       0.524829       0.541509       0.852864
      17.660000       0.526299       0.541404       0.856173
      17.670000       0.527675       0.541379       0.859499
      17.680000       0.528875       0.541425       0.862810
      17.690000       0.529835       0.541532       0.866068
      17.700000       0.530508       0.541695       0.869225
      17.710000       0.530877       0.541914       0.872232
      17.720000       0.530949       0.542194       0.875047
      17.730000       0.530766       0.542543       0.877644
      17.740000       0.530392       0.542972       0.880012
      17.750000       0.529913       0.543493       0.882162
      17.760000       0.529424       0.544117       0.884123
      17.770000       0.529019       0.544849       0.885934
      17.780000       0.528784       0.545684       0.887641
      17.790000       0.528785       0.546608       0.889292
      17.800000       0.529069       0.547598       0.890935
      17.810000       0.529658       0.548624       0.892618
      17.820000       0.530555       0.549660       0.894384
      17.830000       0.531747       0.550679       0.896269
      17.840000       0.533206       0.551665       0.898298
      17.850000       0.534898       0.552609       0.900491
      17.860000       0.536785       0.553509       0.902856
      17.870000       0.538831       0.554367       0.905398
      17.880000       0.541002       0.555189       0.908114
      17.890000       0.543268       0.555979       0.910986
      17.900000       0.545605       0.556742       0.913983
      17.910000       0.547989       0.557479       0.917058
      17.920000       0.550400       0.558189       0.920153
      17.930000       0.552816       0.558871       0.923212
      17.940000       0.555219       0.559521       0.926191
      17.950000       0.557585       0.560136       0.929060
      17.960000       0.559892       0.560717       0.931806
      17.970000       0.562114       0.561272       0.934426
      17.980000       0.564231       0.561811       0.936921
      17.990000       0.566230       0.562351       0.939284
      18.000000       0.568107       0.562907       0.941501
      18.010000       0.569863       0.563486       0.943554
      18.020000       0.571497       0.564086       0.945427
      18.030000       0.573000       0.564694       0.947121
      18.040000       0.574350       0.565291       0.948661
      18.050000       0.575511       0.565860       0.950097
      18.060000       0.576445       0.566395       0.951494
      18.070000       0.577117       0.566899       0.952914
      18.080000       0.577497       0.567388       0.954382
      18.090000       0.577569       0.567879       0.955872
      18.100000       0.577324       0.568387       0.957291
      18.110000       0.576765       0.568919       0.958481
      18.120000       0.575906       0.569469       0.959244
      18.130000       0.574783       0.570022       0.959371
      18.140000       0.573450       0.570559       0.958685
      18.150000       0.571987       0.571056       0.957076
      18.160000       0.570485       0.571497       0.954523
      18.170000       0.569031       0.571869       0.951098
      18.180000       0.567680       0.572169       0.946949
      18.190000       0.566450       0.572403       0.942257
      18.200000       0.565310       0.572579       0.937198
      18.210000       0.564189       0.572708       0.931902
      18.220000       0.562995       0.572803       0.926431
      18.230000       0.561629       0.572871       0.920782
      18.240000       0.560010       0.572918       0.914899
      18.250000       0.558098       0.572948       0.908705
      18.260000       0.555908       0.572957       0.902132
      18.270000       0.553522       0.572938       0.895155
      18.280000       0.551071       0.572877       0.887807
      18.290000       0.548716       0.572761       0.880178
      18.300000       0.546613       0.572579       0.872403
      18.310000       0.544893       0.572330       0.864626
      18.320000       0.543641       0.572021       0.856972
      18.330000       0.542899       0.571676       0.849510
      18.340000       0.542662       0.571323       0.842231
      18.350000       0.542889       0.570996       0.835041
      18.360000       0.543514       0.570732       0.827784
      18.370000       0.544452       0.570559       0.820282
      18.380000       0.545610       0.570499       0.812396
      18.390000       0.546896       0.570563       0.804075
      18.400000       0.548223       0.570755       0.795395
      18.410000       0.549516       0.571067       0.786563
      18.420000       0.550717       0.571492       0.777890
      18.430000       0.551786       0.572018       0.769738
      18.440000       0.552704       0.572638       0.762458
      18.450000       0.553473       0.573348       0.756324
      18.460000       0.554116       0.574147       0.751493
      18.470000       0.554673       0.575036       0.747981
      18.480000       0.555198       0.576017       0.745678
      18.490000       0.555749       0.577089       0.744378
      18.500000       0.556384       0.578249       0.743824
      18.510000       0.557156       0.579487       0.743757
      18.520000       0.558103       0.580793       0.743943
      18.530000       0.559253       0.582150       0.744190
      18.540000       0.560611       0.583539       0.744348
      18.550000       0.562172       0.584937       0.744302
      18.560000       0.563916       0.586319       0.743966
      18.570000       0.565816       0.587657       0.743283
      18.580000       0.567843       0.588929       0.742227
      18.590000       0.569966       0.590113       0.740811
      18.600000       0.572154       0.591195       0.739079
      18.610000       0.574379       0.592168       0.737104
      18.620000       0.576612       0.593030       0.734976
      18.630000       0.578830       0.593785       0.732780
      18.640000       0.581015       0.594442       0.730591
      18.650000       0.583154       0.595009       0.728460
      18.660000       0.585241       0.595493       0.726420
      18.670000       0.587273       0.595902       0.724486
      18.680000       0.589247       0.596239       0.722666
      18.690000       0.591163       0.596511       0.720977
      18.700000       0.593020       0.596729       0.719464
      18.710000       0.594822       0.596906       0.718208
      18.720000       0.596567       0.597061       0.717328
      18.730000       0.598254       0.597218       0.716954
      18.740000       0.599872       0.597400       0.717207
      18.750000       0.601402       0.597630       0.718169
      18.760000       0.602816       0.597927       0.719870
      18.770000       0.604084       0.598304       0.722282
      18.780000       0.605175       0.598766       0.725325
      18.790000       0.606061       0.599309       0.728869
      18.800000       0.606728       0.599920       0.732752
      18.810000       0.607166       0.600582       0.736784
      18.820000       0.607370       0.601274       0.740772
      18.830000       0.607339       0.601979       0.744533
      18.840000       0.607072       0.602686       0.747912
      18.850000       0.606569       0.603392       0.750793
      18.860000       0.605843       0.604104       0.753104
      18.870000       0.604918       0.604831       0.754809
      18.880000       0.603835       0.605588       0.755904
      18.890000       0.602647       0.606388       0.756398
      18.900000       0.601411       0.607235       0.756307
      18.910000       0.600182       0.608128       0.755638
      18.920000       0.599003       0.609058       0.754393
      18.930000       0.597909       0.610014       0.752569
      18.940000       0.596926       0.610983       0.750181
      18.950000       0.596074       0.611956       0.747278
      18.960000       0.595365       0.612928       0.743954
      18.970000       0.594808       0.613898       0.740349
      18.980000       0.594402       0.614869       0.736626
      18.990000       0.594140       0.615845       0.732950
      19.000000       0.594011       0.616824       0.729463
      19.010000       0.594007       0.617806       0.726275
      19.020000       0.594124       0.618782       0.723468
      19.030000       0.594366       0.619743       0.721110
      19.040000       0.594744       0.620674       0.719259
      19.050000       0.595269       0.621562       0.717971
      19.060000       0.595947       0.622394       0.717299
      19.070000       0.596774       0.623155       0.717275
      19.080000       0.597738       0.623837       0.717904
      19.090000       0.598815       0.624429       0.719153
      19.100000       0.599974       0.624924       0.720956
      19.110000       0.601179       0.625312       0.723218
      19.120000       0.602390       0.625589       0.725834
      19.130000       0.603567       0.625752       0.728703
      19.140000       0.604676       0.625807       0.731732
      19.150000       0.605694       0.625768       0.734845
      19.160000       0.606604       0.625660       0.737983
      19.170000       0.607403       0.625513       0.741105
      19.180000       0.608093       0.625360       0.744187
      19.190000       0.608682       0.625233       0.747217
      19.200000       0.609185       0.625154       0.750190
      19.210000       0.609614       0.625140       0.753102
      19.220000       0.609986       0.625196       0.755942
      19.230000       0.610314       0.625322       0.758689
      19.240000       0.610611       0.625511       0.761314
      19.250000       0.610888       0.625755       0.763781
      19.260000       0.611149       0.626046       0.766055
      19.270000       0.611398       0.626379       0.768113
      19.280000       0.611633       0.626748       0.769955
      19.290000       0.611854       0.627148       0.771602
      19.300000       0.612062       0.627567       0.773095
      19.310000       0.612261       0.627990       0.774476
      19.320000       0.612461       0.628397       0.775775
      19.330000       0.612675       0.628764       0.777006
      19.340000       0.612920       0.629069       0.778160
      19.350000       0.613214       0.629301       0.779216
      19.360000       0.613572       0.629456       0.780143
      19.370000       0.614004       0.629544       0.780914
      19.380000       0.614513       0.629586       0.781511
      19.390000       0.615090       0.629609       0.781935
      19.400000       0.615720       0.629639       0.782208
      19.410000       0.616379       0.629697       0.782372
      19.420000       0.617040       0.629796       0.782480
      19.430000       0.617674       0.629940       0.782586
      19.440000       0.618257       0.630123       0.782731
      19.450000       0.618770       0.630339       0.782948
      19.460000       0.619202       0.630577       0.783257
      19.470000       0.619554       0.630827       0.783672
      19.480000       0.619836       0.631080       0.784203
      19.490000       0.620065       0.631327       0.784842
      19.500000       0.620262       0.631560       0.785566
      19.510000       0.620442       0.631769       0.786322
      19.520000       0.620613       0.631949       0.787028
      19.530000       0.620773       0.632097       0.787573
      19.540000       0.620912       0.632218       0.787832
      19.550000       0.621019       0.632325       0.787678
      19.560000       0.621082       0.632436       0.786997
      19.570000       0.621097       0.632569       0.785708
      19.580000       0.621063       0.632741       0.783772
      19.590000       0.620986       0.632957       0.781206
      19.600000       0.620878       0.633214       0.778071
      19.610000       0.620752       0.633500       0.774468
      19.620000       0.620626       0.633794       0.770520
      19.630000       0.620518       0.634076       0.766360
      19.640000       0.620444       0.634330       0.762126
      19.650000       0.620416       0.634549       0.757964
      19.660000       0.620442       0.634734       0.754026
      19.670000       0.620526       0.634898       0.750466
      19.680000       0.620669       0.635058       0.747428
      19.690000       0.620872       0.635232       0.745023
      19.700000       0.621136       0.635440       0.743311
      19.710000       0.621457       0.635696       0.742299
      19.720000       0.621831       0.636009       0.741935
      19.730000       0.622252       0.636377       0.742124
      19.740000       0.622711       0.636793       0.742738
      19.750000       0.623200       0.637241       0.743627
      19.760000       0.623713       0.637703       0.744636
      19.770000       0.624245       0.638161       0.745621
      19.780000       0.624793       0.638598       0.746472
      19.790000       0.625357       0.639003       0.747130
      19.800000       0.625938       0.639367       0.747589
      19.810000       0.626535       0.639689       0.747889
      19.820000       0.627145       0.639971       0.748098
      19.830000       0.627758       0.640221       0.748286
      19.840000       0.628362       0.640455       0.748503
      19.850000       0.628942       0.640689       0.748776
      19.860000       0.629488       0.640941       0.749099
      19.870000       0.629996       0.641223       0.749449
      19.880000       0.630471       0.641545       0.749792
      19.890000       0.630925       0.641906       0.750097
      19.900000       0.631374       0.642304       0.750337
      19.910000       0.631833       0.642731       0.750503
      19.920000       0.632315       0.643181       0.750608
      19.930000       0.632829       0.643654       0.750693
      19.940000       0.633378       0.644153       0.750827
      19.950000       0.633964       0.644683       0.751098
      19.960000       0.634588       0.645251       0.751591
      19.970000       0.635256       0.645860       0.752362
      19.980000       0.635977       0.646509       0.753414
      19.990000       0.636760       0.647197       0.754691
      20.000000       0.637611       0.647918       0.756079
