  # energy grid [eV]     epsi_x  epsi_y  epsi_z
       0.000000            NaN            NaN            NaN
       0.010000       0.000141       0.000017       0.000171
       0.020000       0.000281       0.000035       0.000342
       0.030000       0.000422       0.000052       0.000513
       0.040000       0.000562       0.000070       0.000685
       0.050000       0.000703       0.000087       0.000859
       0.060000       0.000844       0.000105       0.001033
       0.070000       0.000984       0.000122       0.001209
       0.080000       0.001125       0.000139       0.001387
       0.090000       0.001266       0.000157       0.001567
       0.100000       0.001407       0.000174       0.001750
       0.110000       0.001548       0.000192       0.001935
       0.120000       0.001689       0.000209       0.002124
       0.130000       0.001830       0.000227       0.002315
       0.140000       0.001971       0.000244       0.002511
       0.150000       0.002113       0.000261       0.002711
       0.160000       0.002254       0.000279       0.002916
       0.170000       0.002396       0.000296       0.003127
       0.180000       0.002538       0.000314       0.003343
       0.190000       0.002679       0.000331       0.003565
       0.200000       0.002821       0.000349       0.003795
       0.210000       0.002964       0.000366       0.004032
       0.220000       0.003106       0.000384       0.004278
       0.230000       0.003248       0.000401       0.004534
       0.240000       0.003391       0.000419       0.004800
       0.250000       0.003534       0.000436       0.005078
       0.260000       0.003677       0.000454       0.005368
       0.270000       0.003820       0.000471       0.005673
       0.280000       0.003963       0.000489       0.005993
       0.290000       0.004107       0.000506       0.006331
       0.300000       0.004251       0.000524       0.006688
       0.310000       0.004395       0.000542       0.007067
       0.320000       0.004539       0.000559       0.007469
       0.330000       0.004683       0.000577       0.007899
       0.340000       0.004828       0.000594       0.008358
       0.350000       0.004973       0.000612       0.008852
       0.360000       0.005119       0.000630       0.009383
       0.370000       0.005264       0.000647       0.009958
       0.380000       0.005410       0.000665       0.010581
       0.390000       0.005556       0.000682       0.011258
       0.400000       0.005703       0.000700       0.011998
       0.410000       0.005849       0.000718       0.012809
       0.420000       0.005996       0.000736       0.013700
       0.430000       0.006144       0.000753       0.014682
       0.440000       0.006291       0.000771       0.015770
       0.450000       0.006439       0.000789       0.016976
       0.460000       0.006588       0.000806       0.018317
       0.470000       0.006737       0.000824       0.019811
       0.480000       0.006886       0.000842       0.021477
       0.490000       0.007035       0.000860       0.023335
       0.500000       0.007185       0.000878       0.025403
       0.510000       0.007335       0.000895       0.027697
       0.520000       0.007486       0.000913       0.030225
       0.530000       0.007637       0.000931       0.032984
       0.540000       0.007789       0.000949       0.035950
       0.550000       0.007941       0.000967       0.039070
       0.560000       0.008093       0.000985       0.042254
       0.570000       0.008246       0.001003       0.045365
       0.580000       0.008399       0.001021       0.048225
       0.590000       0.008553       0.001039       0.050626
       0.600000       0.008707       0.001057       0.052359
       0.610000       0.008862       0.001075       0.053258
       0.620000       0.009017       0.001093       0.053240
       0.630000       0.009173       0.001111       0.052326
       0.640000       0.009329       0.001129       0.050637
       0.650000       0.009486       0.001147       0.048362
       0.660000       0.009643       0.001165       0.045713
       0.670000       0.009801       0.001183       0.042892
       0.680000       0.009960       0.001201       0.040060
       0.690000       0.010119       0.001219       0.037336
       0.700000       0.010278       0.001237       0.034794
       0.710000       0.010438       0.001256       0.032476
       0.720000       0.010599       0.001274       0.030397
       0.730000       0.010761       0.001292       0.028555
       0.740000       0.010923       0.001310       0.026939
       0.750000       0.011085       0.001329       0.025533
       0.760000       0.011249       0.001347       0.024319
       0.770000       0.011413       0.001365       0.023276
       0.780000       0.011577       0.001384       0.022389
       0.790000       0.011743       0.001402       0.021640
       0.800000       0.011909       0.001421       0.021015
       0.810000       0.012075       0.001439       0.020501
       0.820000       0.012243       0.001458       0.020087
       0.830000       0.012411       0.001476       0.019764
       0.840000       0.012580       0.001495       0.019525
       0.850000       0.012749       0.001513       0.019363
       0.860000       0.012920       0.001532       0.019272
       0.870000       0.013091       0.001550       0.019250
       0.880000       0.013263       0.001569       0.019292
       0.890000       0.013436       0.001588       0.019397
       0.900000       0.013610       0.001606       0.019563
       0.910000       0.013784       0.001625       0.019790
       0.920000       0.013960       0.001644       0.020080
       0.930000       0.014136       0.001663       0.020433
       0.940000       0.014313       0.001682       0.020851
       0.950000       0.014491       0.001701       0.021339
       0.960000       0.014670       0.001719       0.021899
       0.970000       0.014850       0.001738       0.022538
       0.980000       0.015030       0.001757       0.023262
       0.990000       0.015212       0.001776       0.024078
       1.000000       0.015395       0.001795       0.024997
       1.010000       0.015578       0.001814       0.026029
       1.020000       0.015763       0.001834       0.027188
       1.030000       0.015949       0.001853       0.028488
       1.040000       0.016136       0.001872       0.029946
       1.050000       0.016323       0.001891       0.031585
       1.060000       0.016512       0.001910       0.033426
       1.070000       0.016702       0.001930       0.035496
       1.080000       0.016893       0.001949       0.037824
       1.090000       0.017085       0.001968       0.040443
       1.100000       0.017279       0.001988       0.043385
       1.110000       0.017473       0.002007       0.046685
       1.120000       0.017669       0.002027       0.050371
       1.130000       0.017866       0.002046       0.054465
       1.140000       0.018064       0.002066       0.058970
       1.150000       0.018263       0.002085       0.063863
       1.160000       0.018464       0.002105       0.069077
       1.170000       0.018666       0.002125       0.074487
       1.180000       0.018869       0.002144       0.079897
       1.190000       0.019073       0.002164       0.085034
       1.200000       0.019279       0.002184       0.089563
       1.210000       0.019486       0.002204       0.093122
       1.220000       0.019695       0.002224       0.095385
       1.230000       0.019905       0.002244       0.096129
       1.240000       0.020116       0.002264       0.095292
       1.250000       0.020329       0.002284       0.092986
       1.260000       0.020543       0.002304       0.089468
       1.270000       0.020759       0.002324       0.085082
       1.280000       0.020976       0.002344       0.080187
       1.290000       0.021195       0.002364       0.075103
       1.300000       0.021416       0.002385       0.070082
       1.310000       0.021638       0.002405       0.065299
       1.320000       0.021862       0.002425       0.060863
       1.330000       0.022087       0.002446       0.056827
       1.340000       0.022314       0.002466       0.053207
       1.350000       0.022543       0.002487       0.049995
       1.360000       0.022773       0.002507       0.047166
       1.370000       0.023006       0.002528       0.044692
       1.380000       0.023240       0.002548       0.042538
       1.390000       0.023476       0.002569       0.040672
       1.400000       0.023713       0.002590       0.039064
       1.410000       0.023953       0.002611       0.037686
       1.420000       0.024195       0.002632       0.036513
       1.430000       0.024438       0.002653       0.035524
       1.440000       0.024684       0.002674       0.034700
       1.450000       0.024931       0.002695       0.034026
       1.460000       0.025181       0.002716       0.033488
       1.470000       0.025433       0.002737       0.033074
       1.480000       0.025687       0.002758       0.032777
       1.490000       0.025943       0.002780       0.032589
       1.500000       0.026201       0.002801       0.032503
       1.510000       0.026462       0.002822       0.032518
       1.520000       0.026724       0.002844       0.032628
       1.530000       0.026990       0.002865       0.032835
       1.540000       0.027257       0.002887       0.033137
       1.550000       0.027527       0.002909       0.033537
       1.560000       0.027799       0.002930       0.034036
       1.570000       0.028074       0.002952       0.034641
       1.580000       0.028352       0.002974       0.035356
       1.590000       0.028632       0.002996       0.036189
       1.600000       0.028914       0.003018       0.037149
       1.610000       0.029200       0.003040       0.038248
       1.620000       0.029488       0.003062       0.039500
       1.630000       0.029779       0.003084       0.040921
       1.640000       0.030072       0.003106       0.042530
       1.650000       0.030369       0.003129       0.044349
       1.660000       0.030668       0.003151       0.046404
       1.670000       0.030971       0.003174       0.048724
       1.680000       0.031277       0.003196       0.051341
       1.690000       0.031585       0.003219       0.054292
       1.700000       0.031897       0.003241       0.057615
       1.710000       0.032212       0.003264       0.061347
       1.720000       0.032531       0.003287       0.065526
       1.730000       0.032853       0.003310       0.070176
       1.740000       0.033178       0.003333       0.075309
       1.750000       0.033507       0.003356       0.080907
       1.760000       0.033839       0.003379       0.086908
       1.770000       0.034175       0.003402       0.093190
       1.780000       0.034515       0.003426       0.099558
       1.790000       0.034858       0.003449       0.105732
       1.800000       0.035206       0.003472       0.111358
       1.810000       0.035557       0.003496       0.116045
       1.820000       0.035912       0.003520       0.119413
       1.830000       0.036272       0.003543       0.121171
       1.840000       0.036635       0.003567       0.121170
       1.850000       0.037003       0.003591       0.119443
       1.860000       0.037376       0.003615       0.116193
       1.870000       0.037752       0.003639       0.111748
       1.880000       0.038134       0.003663       0.106496
       1.890000       0.038520       0.003687       0.100820
       1.900000       0.038911       0.003712       0.095048
       1.910000       0.039306       0.003736       0.089435
       1.920000       0.039707       0.003761       0.084152
       1.930000       0.040113       0.003785       0.079301
       1.940000       0.040524       0.003810       0.074930
       1.950000       0.040940       0.003835       0.071049
       1.960000       0.041362       0.003860       0.067644
       1.970000       0.041789       0.003885       0.064685
       1.980000       0.042222       0.003910       0.062137
       1.990000       0.042661       0.003935       0.059964
       2.000000       0.043106       0.003960       0.058130
       2.010000       0.043557       0.003986       0.056601
       2.020000       0.044014       0.004011       0.055349
       2.030000       0.044478       0.004037       0.054346
       2.040000       0.044948       0.004062       0.053572
       2.050000       0.045425       0.004088       0.053006
       2.060000       0.045909       0.004114       0.052635
       2.070000       0.046400       0.004140       0.052446
       2.080000       0.046898       0.004166       0.052429
       2.090000       0.047404       0.004193       0.052578
       2.100000       0.047917       0.004219       0.052889
       2.110000       0.048438       0.004245       0.053359
       2.120000       0.048967       0.004272       0.053991
       2.130000       0.049505       0.004299       0.054785
       2.140000       0.050051       0.004326       0.055748
       2.150000       0.050605       0.004353       0.056888
       2.160000       0.051169       0.004380       0.058215
       2.170000       0.051741       0.004407       0.059742
       2.180000       0.052323       0.004434       0.061485
       2.190000       0.052915       0.004462       0.063465
       2.200000       0.053517       0.004489       0.065705
       2.210000       0.054129       0.004517       0.068232
       2.220000       0.054751       0.004545       0.071080
       2.230000       0.055385       0.004573       0.074287
       2.240000       0.056029       0.004601       0.077893
       2.250000       0.056685       0.004629       0.081948
       2.260000       0.057353       0.004658       0.086504
       2.270000       0.058034       0.004686       0.091614
       2.280000       0.058726       0.004715       0.097336
       2.290000       0.059432       0.004744       0.103720
       2.300000       0.060151       0.004773       0.110802
       2.310000       0.060884       0.004802       0.118597
       2.320000       0.061632       0.004831       0.127079
       2.330000       0.062394       0.004861       0.136163
       2.340000       0.063171       0.004890       0.145686
       2.350000       0.063964       0.004920       0.155391
       2.360000       0.064773       0.004950       0.164924
       2.370000       0.065600       0.004980       0.173850
       2.380000       0.066443       0.005010       0.181694
       2.390000       0.067305       0.005041       0.188002
       2.400000       0.068185       0.005071       0.192401
       2.410000       0.069085       0.005102       0.194654
       2.420000       0.070005       0.005133       0.194691
       2.430000       0.070946       0.005164       0.192610
       2.440000       0.071908       0.005195       0.188659
       2.450000       0.072893       0.005227       0.183202
       2.460000       0.073901       0.005258       0.176671
       2.470000       0.074933       0.005290       0.169521
       2.480000       0.075991       0.005322       0.162174
       2.490000       0.077075       0.005354       0.154994
       2.500000       0.078186       0.005387       0.148261
       2.510000       0.079326       0.005419       0.142172
       2.520000       0.080495       0.005452       0.136846
       2.530000       0.081696       0.005485       0.132346
       2.540000       0.082929       0.005519       0.128691
       2.550000       0.084195       0.005552       0.125875
       2.560000       0.085497       0.005586       0.123877
       2.570000       0.086836       0.005620       0.122672
       2.580000       0.088214       0.005654       0.122234
       2.590000       0.089632       0.005688       0.122539
       2.600000       0.091093       0.005723       0.123567
       2.610000       0.092598       0.005758       0.125300
       2.620000       0.094150       0.005793       0.127719
       2.630000       0.095752       0.005828       0.130797
       2.640000       0.097405       0.005864       0.134497
       2.650000       0.099113       0.005900       0.138766
       2.660000       0.100879       0.005936       0.143530
       2.670000       0.102705       0.005972       0.148702
       2.680000       0.104596       0.006009       0.154192
       2.690000       0.106554       0.006046       0.159924
       2.700000       0.108585       0.006083       0.165855
       2.710000       0.110691       0.006121       0.171989
       2.720000       0.112879       0.006158       0.178369
       2.730000       0.115152       0.006197       0.185051
       2.740000       0.117517       0.006235       0.192077
       2.750000       0.119980       0.006274       0.199445
       2.760000       0.122546       0.006313       0.207105
       2.770000       0.125224       0.006353       0.214973
       2.780000       0.128020       0.006393       0.222970
       2.790000       0.130944       0.006433       0.231068
       2.800000       0.134004       0.006473       0.239318
       2.810000       0.137211       0.006514       0.247852
       2.820000       0.140577       0.006556       0.256860
       2.830000       0.144113       0.006598       0.266538
       2.840000       0.147834       0.006640       0.277057
       2.850000       0.151755       0.006683       0.288533
       2.860000       0.155893       0.006726       0.301002
       2.870000       0.160267       0.006769       0.314410
       2.880000       0.164897       0.006813       0.328579
       2.890000       0.169809       0.006858       0.343196
       2.900000       0.175028       0.006903       0.357805
       2.910000       0.180584       0.006949       0.371843
       2.920000       0.186510       0.006995       0.384703
       2.930000       0.192846       0.007042       0.395824
       2.940000       0.199633       0.007089       0.404774
       2.950000       0.206922       0.007137       0.411307
       2.960000       0.214766       0.007186       0.415380
       2.970000       0.223231       0.007235       0.417135
       2.980000       0.232388       0.007285       0.416850
       2.990000       0.242319       0.007336       0.414891
       3.000000       0.253121       0.007388       0.411648
       3.010000       0.264901       0.007441       0.407493
       3.020000       0.277783       0.007494       0.402731
       3.030000       0.291910       0.007549       0.397583
       3.040000       0.307443       0.007604       0.392188
       3.050000       0.324563       0.007660       0.386638
       3.060000       0.343476       0.007718       0.381023
       3.070000       0.364406       0.007777       0.375482
       3.080000       0.387596       0.007837       0.370226
       3.090000       0.413298       0.007899       0.365529
       3.100000       0.441758       0.007962       0.361699
       3.110000       0.473192       0.008026       0.359011
       3.120000       0.507742       0.008093       0.357656
       3.130000       0.545419       0.008161       0.357691
       3.140000       0.586021       0.008231       0.359025
       3.150000       0.629034       0.008304       0.361435
       3.160000       0.673532       0.008379       0.364614
       3.170000       0.718108       0.008457       0.368236
       3.180000       0.760889       0.008538       0.372026
       3.190000       0.799706       0.008622       0.375805
       3.200000       0.832431       0.008710       0.379501
       3.210000       0.857444       0.008802       0.383133
       3.220000       0.874075       0.008898       0.386773
       3.230000       0.882849       0.009000       0.390505
       3.240000       0.885407       0.009108       0.394412
       3.250000       0.884145       0.009222       0.398564
       3.260000       0.881736       0.009343       0.403028
       3.270000       0.880712       0.009471       0.407867
       3.280000       0.883196       0.009609       0.413126
       3.290000       0.890787       0.009756       0.418812
       3.300000       0.904558       0.009914       0.424890
       3.310000       0.925069       0.010082       0.431299
       3.320000       0.952380       0.010260       0.437989
       3.330000       0.986005       0.010448       0.444959
       3.340000       1.024830       0.010644       0.452268
       3.350000       1.067000       0.010844       0.460022
       3.360000       1.109865       0.011044       0.468314
       3.370000       1.150051       0.011237       0.477157
       3.380000       1.183767       0.011415       0.486419
       3.390000       1.207380       0.011572       0.495797
       3.400000       1.218153       0.011703       0.504835
       3.410000       1.214909       0.011806       0.512990
       3.420000       1.198337       0.011883       0.519729
       3.430000       1.170788       0.011939       0.524615
       3.440000       1.135670       0.011982       0.527367
       3.450000       1.096701       0.012022       0.527881
       3.460000       1.057296       0.012064       0.526209
       3.470000       1.020214       0.012117       0.522506
       3.480000       0.987465       0.012186       0.516984
       3.490000       0.960379       0.012273       0.509870
       3.500000       0.939763       0.012382       0.501388
       3.510000       0.926061       0.012515       0.491758
       3.520000       0.919496       0.012674       0.481196
       3.530000       0.920178       0.012859       0.469911
       3.540000       0.928168       0.013074       0.458087
       3.550000       0.943515       0.013318       0.445871
       3.560000       0.966268       0.013593       0.433365
       3.570000       0.996447       0.013899       0.420636
       3.580000       1.033995       0.014236       0.407741
       3.590000       1.078696       0.014600       0.394766
       3.600000       1.130062       0.014987       0.381868
       3.610000       1.187205       0.015388       0.369289
       3.620000       1.248711       0.015791       0.357341
       3.630000       1.312577       0.016181       0.346363
       3.640000       1.376264       0.016539       0.336664
       3.650000       1.436929       0.016849       0.328486
       3.660000       1.491851       0.017100       0.321975
       3.670000       1.538961       0.017288       0.317184
       3.680000       1.577351       0.017421       0.314084
       3.690000       1.607550       0.017511       0.312589
       3.700000       1.631449       0.017578       0.312594
       3.710000       1.651882       0.017641       0.314011
       3.720000       1.672005       0.017719       0.316803
       3.730000       1.694673       0.017824       0.320996
       3.740000       1.722003       0.017965       0.326677
       3.750000       1.755190       0.018146       0.333964
       3.760000       1.794588       0.018367       0.342962
       3.770000       1.839974       0.018628       0.353721
       3.780000       1.890858       0.018926       0.366207
       3.790000       1.946697       0.019259       0.380276
       3.800000       2.006878       0.019623       0.395669
       3.810000       2.070467       0.020015       0.412026
       3.820000       2.135833       0.020429       0.428904
       3.830000       2.200375       0.020857       0.445817
       3.840000       2.260513       0.021289       0.462266
       3.850000       2.312069       0.021714       0.477784
       3.860000       2.350921       0.022120       0.491968
       3.870000       2.373766       0.022499       0.504494
       3.880000       2.378699       0.022842       0.515131
       3.890000       2.365460       0.023145       0.523731
       3.900000       2.335307       0.023403       0.530208
       3.910000       2.290633       0.023614       0.534508
       3.920000       2.234496       0.023779       0.536574
       3.930000       2.170173       0.023896       0.536316
       3.940000       2.100821       0.023966       0.533614
       3.950000       2.029321       0.023992       0.528344
       3.960000       1.958262       0.023977       0.520432
       3.970000       1.890025       0.023933       0.509918
       3.980000       1.826826       0.023873       0.497008
       3.990000       1.770696       0.023817       0.482095
       4.000000       1.723373       0.023785       0.465745
       4.010000       1.686188       0.023794       0.448642
       4.020000       1.659985       0.023858       0.431509
       4.030000       1.645087       0.023984       0.415024
       4.040000       1.641301       0.024176       0.399750
       4.050000       1.647953       0.024431       0.386098
       4.060000       1.663931       0.024743       0.374308
       4.070000       1.687770       0.025103       0.364473
       4.080000       1.717741       0.025503       0.356568
       4.090000       1.751973       0.025936       0.350498
       4.100000       1.788550       0.026401       0.346148
       4.110000       1.825611       0.026896       0.343427
       4.120000       1.861482       0.027423       0.342305
       4.130000       1.894859       0.027979       0.342812
       4.140000       1.925042       0.028559       0.345037
       4.150000       1.952123       0.029155       0.349091
       4.160000       1.977046       0.029757       0.355081
       4.170000       2.001505       0.030359       0.363079
       4.180000       2.027703       0.030959       0.373097
       4.190000       2.058032       0.031565       0.385068
       4.200000       2.094698       0.032191       0.398831
       4.210000       2.139360       0.032850       0.414123
       4.220000       2.192826       0.033556       0.430584
       4.230000       2.254901       0.034315       0.447781
       4.240000       2.324391       0.035127       0.465232
       4.250000       2.399294       0.035988       0.482450
       4.260000       2.477073       0.036894       0.498984
       4.270000       2.554934       0.037838       0.514451
       4.280000       2.629984       0.038813       0.528553
       4.290000       2.699254       0.039808       0.541074
       4.300000       2.759681       0.040797       0.551873
       4.310000       2.808166       0.041744       0.560867
       4.320000       2.841797       0.042600       0.568017
       4.330000       2.858162       0.043310       0.573319
       4.340000       2.855649       0.043829       0.576785
       4.350000       2.833654       0.044131       0.578430
       4.360000       2.792721       0.044221       0.578257
       4.370000       2.734623       0.044133       0.576256
       4.380000       2.662362       0.043925       0.572434
       4.390000       2.579975       0.043669       0.566868
       4.400000       2.492127       0.043438       0.559756
       4.410000       2.403578       0.043299       0.551454
       4.420000       2.318672       0.043309       0.542465
       4.430000       2.241006       0.043506       0.533375
       4.440000       2.173309       0.043915       0.524778
       4.450000       2.117474       0.044546       0.517205
       4.460000       2.074637       0.045389       0.511092
       4.470000       2.045227       0.046417       0.506781
       4.480000       2.028952       0.047581       0.504540
       4.490000       2.024756       0.048810       0.504590
       4.500000       2.030767       0.050011       0.507118
       4.510000       2.044304       0.051080       0.512269
       4.520000       2.061980       0.051915       0.520108
       4.530000       2.079944       0.052434       0.530588
       4.540000       2.094266       0.052593       0.543503
       4.550000       2.101444       0.052390       0.558472
       4.560000       2.098964       0.051870       0.574953
       4.570000       2.085774       0.051106       0.592289
       4.580000       2.062530       0.050185       0.609788
       4.590000       2.031490       0.049199       0.626809
       4.600000       1.996081       0.048230       0.642837
       4.610000       1.960282       0.047349       0.657509
       4.620000       1.928021       0.046610       0.670619
       4.630000       1.902723       0.046054       0.682079
       4.640000       1.887068       0.045708       0.691874
       4.650000       1.882906       0.045593       0.700015
       4.660000       1.891277       0.045719       0.706501
       4.670000       1.912439       0.046097       0.711293
       4.680000       1.945869       0.046730       0.714314
       4.690000       1.990234       0.047622       0.715472
       4.700000       2.043361       0.048772       0.714715
       4.710000       2.102290       0.050177       0.712115
       4.720000       2.163474       0.051822       0.707944
       4.730000       2.223183       0.053687       0.702729
       4.740000       2.278017       0.055734       0.697244
       4.750000       2.325388       0.057909       0.692436
       4.760000       2.363733       0.060137       0.689294
       4.770000       2.392407       0.062327       0.688724
       4.780000       2.411356       0.064374       0.691439
       4.790000       2.420803       0.066167       0.697892
       4.800000       2.421170       0.067611       0.708255
       4.810000       2.413271       0.068641       0.722427
       4.820000       2.398627       0.069242       0.740066
       4.830000       2.379652       0.069453       0.760628
       4.840000       2.359521       0.069367       0.783437
       4.850000       2.341711       0.069102       0.807743
       4.860000       2.329398       0.068782       0.832794
       4.870000       2.324908       0.068509       0.857892
       4.880000       2.329385       0.068352       0.882428
       4.890000       2.342673       0.068344       0.905887
       4.900000       2.363404       0.068481       0.927828
       4.910000       2.389198       0.068731       0.947867
       4.920000       2.416942       0.069046       0.965659
       4.930000       2.443147       0.069373       0.980911
       4.940000       2.464419       0.069665       0.993416
       4.950000       2.478055       0.069895       1.003107
       4.960000       2.482671       0.070063       1.010132
       4.970000       2.478624       0.070201       1.014908
       4.980000       2.467995       0.070367       1.018158
       4.990000       2.454079       0.070633       1.020870
       5.000000       2.440553       0.071068       1.024192
       5.010000       2.430630       0.071725       1.029265
       5.020000       2.426435       0.072632       1.037043
       5.030000       2.428741       0.073782       1.048133
       5.040000       2.437038       0.075135       1.062693
       5.050000       2.449852       0.076623       1.080401
       5.060000       2.465207       0.078155       1.100485
       5.070000       2.481097       0.079640       1.121808
       5.080000       2.495830       0.081003       1.142999
       5.090000       2.508171       0.082206       1.162607
       5.100000       2.517261       0.083253       1.179268
       5.110000       2.522436       0.084185       1.191846
       5.120000       2.523117       0.085059       1.199539
       5.130000       2.518901       0.085919       1.201939
       5.140000       2.509821       0.086780       1.199053
       5.150000       2.496590       0.087616       1.191245
       5.160000       2.480619       0.088371       1.179120
       5.170000       2.463761       0.088975       1.163317
       5.180000       2.447863       0.089375       1.144307
       5.190000       2.434320       0.089558       1.122238
       5.200000       2.423783       0.089557       1.096916
       5.210000       2.416081       0.089446       1.067921
       5.220000       2.410388       0.089316       1.034852
       5.230000       2.405574       0.089251       0.997586
       5.240000       2.400622       0.089303       0.956477
       5.250000       2.394945       0.089482       0.912398
       5.260000       2.388461       0.089754       0.866621
       5.270000       2.381422       0.090043       0.820594
       5.280000       2.374089       0.090247       0.775701
       5.290000       2.366440       0.090252       0.733089
       5.300000       2.358060       0.089961       0.693578
       5.310000       2.348292       0.089318       0.657656
       5.320000       2.336595       0.088326       0.625525
       5.330000       2.322985       0.087047       0.597165
       5.340000       2.308344       0.085592       0.572393
       5.350000       2.294476       0.084091       0.550927
       5.360000       2.283880       0.082675       0.532422
       5.370000       2.279346       0.081455       0.516517
       5.380000       2.283557       0.080514       0.502866
       5.390000       2.298782       0.079909       0.491172
       5.400000       2.326709       0.079675       0.481211
       5.410000       2.368379       0.079826       0.472838
       5.420000       2.424153       0.080363       0.465973
       5.430000       2.493672       0.081274       0.460582
       5.440000       2.575810       0.082539       0.456643
       5.450000       2.668636       0.084135       0.454123
       5.460000       2.769447       0.086034       0.452967
       5.470000       2.874963       0.088213       0.453090
       5.480000       2.981736       0.090661       0.454385
       5.490000       3.086763       0.093379       0.456741
       5.500000       3.188211       0.096381       0.460065
       5.510000       3.286028       0.099694       0.464302
       5.520000       3.382193       0.103352       0.469451
       5.530000       3.480476       0.107384       0.475564
       5.540000       3.585746       0.111800       0.482720
       5.550000       3.703056       0.116578       0.491012
       5.560000       3.836763       0.121641       0.500517
       5.570000       3.989859       0.126846       0.511290
       5.580000       4.163590       0.131982       0.523366
       5.590000       4.357355       0.136781       0.536782
       5.600000       4.568885       0.140958       0.551591
       5.610000       4.794649       0.144261       0.567886
       5.620000       5.030431       0.146524       0.585799
       5.630000       5.271910       0.147703       0.605497
       5.640000       5.515128       0.147874       0.627163
       5.650000       5.756714       0.147212       0.650988
       5.660000       5.993881       0.145941       0.677165
       5.670000       6.224224       0.144292       0.705900
       5.680000       6.445379       0.142462       0.737421
       5.690000       6.654645       0.140594       0.771986
       5.700000       6.848718       0.138773       0.809874
       5.710000       7.023705       0.137043       0.851382
       5.720000       7.175514       0.135424       0.896810
       5.730000       7.300552       0.133948       0.946453
       5.740000       7.396470       0.132668       1.000584
       5.750000       7.462659       0.131661       1.059431
       5.760000       7.500257       0.131015       1.123135
       5.770000       7.511674       0.130805       1.191695
       5.780000       7.499884       0.131078       1.264930
       5.790000       7.467755       0.131839       1.342450
       5.800000       7.417638       0.133046       1.423684
       5.810000       7.351247       0.134616       1.507942
       5.820000       7.269761       0.136433       1.594488
       5.830000       7.174089       0.138366       1.682584
       5.840000       7.065182       0.140281       1.771495
       5.850000       6.944299       0.142055       1.860461
       5.860000       6.813096       0.143591       1.948677
       5.870000       6.673527       0.144828       2.035323
       5.880000       6.527631       0.145757       2.119652
       5.890000       6.377289       0.146431       2.201128
       5.900000       6.224025       0.146960       2.279564
       5.910000       6.068906       0.147489       2.355200
       5.920000       5.912612       0.148168       2.428676
       5.930000       5.755646       0.149114       2.500904
       5.940000       5.598616       0.150390       2.572875
       5.950000       5.442458       0.151994       2.645505
       5.960000       5.288559       0.153858       2.719560
       5.970000       5.138828       0.155877       2.795680
       5.980000       4.995721       0.157936       2.874416
       5.990000       4.862199       0.159941       2.956220
       6.000000       4.741505       0.161846       3.041300
       6.010000       4.636735       0.163659       3.129347
       6.020000       4.550294       0.165424       3.219236
       6.030000       4.483436       0.167200       3.308824
       6.040000       4.436013       0.169032       3.395024
       6.050000       4.406480       0.170927       3.474184
       6.060000       4.392068       0.172842       3.542700
       6.070000       4.389013       0.174669       3.597641
       6.080000       4.392740       0.176242       3.637158
       6.090000       4.398023       0.177358       3.660578
       6.100000       4.399218       0.177813       3.668274
       6.110000       4.390702       0.177460       3.661466
       6.120000       4.367568       0.176251       3.642076
       6.130000       4.326486       0.174258       3.612579
       6.140000       4.266484       0.171665       3.575752
       6.150000       4.189341       0.168724       3.534294
       6.160000       4.099384       0.165706       3.490404
       6.170000       4.002702       0.162864       3.445502
       6.180000       3.906016       0.160403       3.400190
       6.190000       3.815562       0.158474       3.354489
       6.200000       3.736262       0.157176       3.308193
       6.210000       3.671354       0.156565       3.261180
       6.220000       3.622431       0.156663       3.213576
       6.230000       3.589779       0.157467       3.165755
       6.240000       3.572815       0.158962       3.118254
       6.250000       3.570453       0.161127       3.071659
       6.260000       3.581305       0.163945       3.026475
       6.270000       3.603710       0.167413       2.983002
       6.280000       3.635737       0.171553       2.941253
       6.290000       3.675281       0.176406       2.900975
       6.300000       3.720322       0.182036       2.861804
       6.310000       3.769285       0.188517       2.823504
       6.320000       3.821327       0.195920       2.786154
       6.330000       3.876358       0.204296       2.750150
       6.340000       3.934736       0.213666       2.715978
       6.350000       3.996704       0.223992       2.683887
       6.360000       4.061778       0.235161       2.653643
       6.370000       4.128294       0.246967       2.624563
       6.380000       4.193282       0.259096       2.595819
       6.390000       4.252709       0.271135       2.566855
       6.400000       4.302021       0.282601       2.537681
       6.410000       4.336793       0.293004       2.508862
       6.420000       4.353322       0.301928       2.481208
       6.430000       4.349035       0.309108       2.455342
       6.440000       4.322741       0.314484       2.431390
       6.450000       4.274803       0.318206       2.408928
       6.460000       4.207230       0.320592       2.387185
       6.470000       4.123668       0.322063       2.365374
       6.480000       4.029165       0.323069       2.342943
       6.490000       3.929681       0.324025       2.319643
       6.500000       3.831398       0.325277       2.295390
       6.510000       3.739993       0.327086       2.270056
       6.520000       3.660044       0.329640       2.243313
       6.530000       3.594701       0.333092       2.214676
       6.540000       3.545593       0.337595       2.183723
       6.550000       3.512914       0.343336       2.150405
       6.560000       3.495584       0.350530       2.115293
       6.570000       3.491482       0.359407       2.079634
       6.580000       3.497736       0.370174       2.045173
       6.590000       3.511120       0.382979       2.013835
       6.600000       3.528479       0.397887       1.987344
       6.610000       3.547107       0.414857       1.966889
       6.620000       3.564981       0.433738       1.952884
       6.630000       3.580830       0.454269       1.944864
       6.640000       3.594088       0.476095       1.941527
       6.650000       3.604752       0.498790       1.940945
       6.660000       3.613212       0.521885       1.940921
       6.670000       3.620095       0.544919       1.939397
       6.680000       3.626205       0.567487       1.934781
       6.690000       3.632583       0.589306       1.926103
       6.700000       3.640576       0.610277       1.912966
       6.710000       3.651795       0.630517       1.895376
       6.720000       3.667919       0.650332       1.873577
       6.730000       3.690432       0.670114       1.847972
       6.740000       3.720424       0.690187       1.819148
       6.750000       3.758497       0.710662       1.787943
       6.760000       3.804704       0.731328       1.755458
       6.770000       3.858449       0.751640       1.722960
       6.780000       3.918305       0.770788       1.691722
       6.790000       3.981813       0.787821       1.662881
       6.800000       4.045363       0.801809       1.637351
       6.810000       4.104266       0.812007       1.615825
       6.820000       4.153112       0.818013       1.598796
       6.830000       4.186469       0.819878       1.586592
       6.840000       4.199860       0.818124       1.579386
       6.850000       4.190792       0.813674       1.577213
       6.860000       4.159505       0.807680       1.579984
       6.870000       4.109135       0.801324       1.587511
       6.880000       4.045197       0.795612       1.599511
       6.890000       3.974583       0.791231       1.615567
       6.900000       3.904436       0.788469       1.635045
       6.910000       3.841232       0.787223       1.656958
       6.920000       3.790250       0.787078       1.679863
       6.930000       3.755399       0.787434       1.701859
       6.940000       3.739264       0.787658       1.720748
       6.950000       3.743212       0.787231       1.734357
       6.960000       3.767427       0.785887       1.740938
       6.970000       3.810903       0.783707       1.739488
       6.980000       3.871424       0.781148       1.729891
       6.990000       3.945675       0.778991       1.712806
       7.000000       4.029528       0.778210       1.689388
       7.010000       4.118538       0.779809       1.660959
       7.020000       4.208561       0.784652       1.628759
       7.030000       4.296306       0.793331       1.593855
       7.040000       4.379650       0.806065       1.557184
       7.050000       4.457588       0.822656       1.519655
       7.060000       4.529874       0.842481       1.482195
       7.070000       4.596585       0.864551       1.445720
       7.080000       4.657836       0.887618       1.411030
       7.090000       4.713787       0.910344       1.378710
       7.100000       4.764827       0.931488       1.349099
       7.110000       4.811757       0.950101       1.322345
       7.120000       4.855776       0.965681       1.298535
       7.130000       4.898293       0.978259       1.277834
       7.140000       4.940696       0.988388       1.260581
       7.150000       4.984232       0.997019       1.247299
       7.160000       5.030075       1.005270       1.238616
       7.170000       5.079478       1.014144       1.235099
       7.180000       5.133895       1.024264       1.237065
       7.190000       5.194925       1.035682       1.244418
       7.200000       5.264009       1.047801       1.256540
       7.210000       5.341922       1.059424       1.272288
       7.220000       5.428191       1.068930       1.290091
       7.230000       5.520636       1.074572       1.308164
       7.240000       5.615196       1.074842       1.324781
       7.250000       5.706117       1.068811       1.338536
       7.260000       5.786503       1.056341       1.348518
       7.270000       5.849152       1.038112       1.354350
       7.280000       5.887616       1.015440       1.356103
       7.290000       5.897331       0.989996       1.354158
       7.300000       5.876626       0.963499       1.349065
       7.310000       5.827290       0.937489       1.341445
       7.320000       5.754446       0.913202       1.331933
       7.330000       5.665686       0.891537       1.321161
       7.340000       5.569741       0.873096       1.309749
       7.350000       5.475098       0.858262       1.298289
       7.360000       5.388910       0.847282       1.287294
       7.370000       5.316302       0.840327       1.277134
       7.380000       5.260093       0.837518       1.267959
       7.390000       5.220869       0.838933       1.259658
       7.400000       5.197366       0.844599       1.251868
       7.410000       5.187063       0.854485       1.244046
       7.420000       5.186830       0.868495       1.235603
       7.430000       5.193415       0.886460       1.226091
       7.440000       5.203684       0.908110       1.215385
       7.450000       5.214636       0.933046       1.203805
       7.460000       5.223344       0.960687       1.192122
       7.470000       5.226989       0.990210       1.181411
       7.480000       5.223057       1.020522       1.172817
       7.490000       5.209631       1.050285       1.167290
       7.500000       5.185660       1.078021       1.165381
       7.510000       5.151007       1.102290       1.167127
       7.520000       5.106243       1.121894       1.172044
       7.530000       5.052268       1.136076       1.179191
       7.540000       4.989955       1.144630       1.187290
       7.550000       4.920004       1.147919       1.194891
       7.560000       4.843002       1.146765       1.200577
       7.570000       4.759592       1.142251       1.203172
       7.580000       4.670663       1.135501       1.201926
       7.590000       4.577502       1.127465       1.196610
       7.600000       4.481922       1.118768       1.187515
       7.610000       4.386332       1.109614       1.175342
       7.620000       4.293676       1.099777       1.161059
       7.630000       4.207219       1.088693       1.145729
       7.640000       4.130173       1.075664       1.130365
       7.650000       4.065270       1.060109       1.115809
       7.660000       4.014380       1.041773       1.102668
       7.670000       3.978276       1.020803       1.091313
       7.680000       3.956606       0.997687       1.081945
       7.690000       3.948029       0.973132       1.074676
       7.700000       3.950479       0.947964       1.069597
       7.710000       3.961450       0.923069       1.066790
       7.720000       3.978265       0.899379       1.066302
       7.730000       3.998261       0.877827       1.068088
       7.740000       4.018903       0.859284       1.071968
       7.750000       4.037808       0.844490       1.077594
       7.760000       4.052721       0.834002       1.084473
       7.770000       4.061443       0.828177       1.092032
       7.780000       4.061790       0.827172       1.099730
       7.790000       4.051636       0.830945       1.107149
       7.800000       4.029115       0.839239       1.114033
       7.810000       3.992976       0.851553       1.120262
       7.820000       3.943025       0.867107       1.125782
       7.830000       3.880472       0.884839       1.130536
       7.840000       3.808029       0.903461       1.134427
       7.850000       3.729668       0.921596       1.137333
       7.860000       3.650068       0.937981       1.139155
       7.870000       3.573894       0.951687       1.139898
       7.880000       3.505091       0.962288       1.139720
       7.890000       3.446336       0.969945       1.138935
       7.900000       3.398785       0.975359       1.137933
       7.910000       3.362112       0.979627       1.137057
       7.920000       3.334787       0.984021       1.136494
       7.930000       3.314435       0.989759       1.136210
       7.940000       3.298162       0.997815       1.135968
       7.950000       3.282792       1.008810       1.135398
       7.960000       3.265083       1.023019       1.134086
       7.970000       3.242006       1.040449       1.131667
       7.980000       3.211130       1.060955       1.127883
       7.990000       3.170994       1.084337       1.122601
       8.000000       3.121347       1.110357       1.115813
       8.010000       3.063154       1.138680       1.107622
       8.020000       2.998404       1.168779       1.098227
       8.030000       2.929784       1.199849       1.087906
       8.040000       2.860264       1.230812       1.076964
       8.050000       2.792666       1.260423       1.065683
       8.060000       2.729280       1.287443       1.054286
       8.070000       2.671605       1.310857       1.042946
       8.080000       2.620248       1.330028       1.031846
       8.090000       2.574962       1.344789       1.021244
       8.100000       2.534817       1.355422       1.011511
       8.110000       2.498467       1.362567       1.003089
       8.120000       2.464502       1.367069       0.996399
       8.130000       2.431805       1.369807       0.991726
       8.140000       2.399825       1.371494       0.989162
       8.150000       2.368686       1.372529       0.988607
       8.160000       2.339111       1.372905       0.989859
       8.170000       2.312199       1.372247       0.992707
       8.180000       2.289142       1.369946       0.996998
       8.190000       2.270972       1.365369       1.002632
       8.200000       2.258405       1.358041       1.009500
       8.210000       2.251786       1.347739       1.017416
       8.220000       2.251118       1.334474       1.026091
       8.230000       2.256142       1.318412       1.035171
       8.240000       2.266406       1.299799       1.044319
       8.250000       2.281310       1.278947       1.053270
       8.260000       2.300112       1.256286       1.061853
       8.270000       2.321915       1.232408       1.069956
       8.280000       2.345725       1.208096       1.077490
       8.290000       2.370564       1.184276       1.084367
       8.300000       2.395608       1.161935       1.090519
       8.310000       2.420259       1.142022       1.095914
       8.320000       2.444057       1.125349       1.100567
       8.330000       2.466449       1.112494       1.104557
       8.340000       2.486513       1.103712       1.108062
       8.350000       2.502755       1.098844       1.111394
       8.360000       2.513136       1.097288       1.115002
       8.370000       2.515367       1.098034       1.119383
       8.380000       2.507432       1.099798       1.124930
       8.390000       2.488155       1.101258       1.131753
       8.400000       2.457601       1.101317       1.139566
       8.410000       2.417179       1.099344       1.147675
       8.420000       2.369429       1.095290       1.155093
       8.430000       2.317593       1.089675       1.160742
       8.440000       2.265107       1.083446       1.163680
       8.450000       2.215147       1.077783       1.163295
       8.460000       2.170292       1.073892       1.159416
       8.470000       2.132332       1.072818       1.152323
       8.480000       2.102220       1.075310       1.142683
       8.490000       2.080156       1.081739       1.131429
       8.500000       2.065795       1.092106       1.119642
       8.510000       2.058508       1.106123       1.108421
       8.520000       2.057622       1.123356       1.098763
       8.530000       2.062548       1.143374       1.091450
       8.540000       2.072744       1.165832       1.086950
       8.550000       2.087578       1.190455       1.085374
       8.560000       2.106170       1.216935       1.086469
       8.570000       2.127328       1.244810       1.089666
       8.580000       2.149598       1.273407       1.094165
       8.590000       2.171410       1.301883       1.099060
       8.600000       2.191213       1.329334       1.103495
       8.610000       2.207554       1.354909       1.106826
       8.620000       2.219060       1.377866       1.108755
       8.630000       2.224425       1.397565       1.109388
       8.640000       2.222464       1.413448       1.109207
       8.650000       2.212278       1.425074       1.108979
       8.660000       2.193474       1.432198       1.109606
       8.670000       2.166354       1.434886       1.111965
       8.680000       2.131994       1.433609       1.116755
       8.690000       2.092183       1.429281       1.124368
       8.700000       2.049194       1.423211       1.134834
       8.710000       2.005452       1.416963       1.147836
       8.720000       1.963172       1.412146       1.162814
       8.730000       1.924085       1.410212       1.179124
       8.740000       1.889297       1.412277       1.196208
       8.750000       1.859287       1.419003       1.213735
       8.760000       1.833993       1.430539       1.231659
       8.770000       1.812939       1.446519       1.250187
       8.780000       1.795412       1.466136       1.269674
       8.790000       1.780654       1.488280       1.290480
       8.800000       1.768074       1.511705       1.312849
       8.810000       1.757410       1.535184       1.336828
       8.820000       1.748775       1.557585       1.362241
       8.830000       1.742590       1.577896       1.388705
       8.840000       1.739449       1.595226       1.415683
       8.850000       1.739984       1.608830       1.442555
       8.860000       1.744757       1.618170       1.468709
       8.870000       1.754170       1.622966       1.493652
       8.880000       1.768365       1.623213       1.517096
       8.890000       1.787103       1.619125       1.539012
       8.900000       1.809652       1.611058       1.559632
       8.910000       1.834737       1.599448       1.579410
       8.920000       1.860578       1.584813       1.598971
       8.930000       1.885035       1.567797       1.619037
       8.940000       1.905821       1.549206       1.640330
       8.950000       1.920736       1.529971       1.663452
       8.960000       1.927883       1.511059       1.688766
       8.970000       1.925875       1.493349       1.716312
       8.980000       1.914034       1.477556       1.745804
       8.990000       1.892573       1.464220       1.776685
       9.000000       1.862689       1.453757       1.808236
       9.010000       1.826469       1.446540       1.839696
       9.020000       1.786596       1.442968       1.870379
       9.030000       1.745911       1.443509       1.899798
       9.040000       1.706976       1.448684       1.927763
       9.050000       1.671756       1.458997       1.954448
       9.060000       1.641484       1.474815       1.980379
       9.070000       1.616676       1.496222       2.006340
       9.080000       1.597249       1.522897       2.033220
       9.090000       1.582673       1.554048       2.061854
       9.100000       1.572146       1.588424       2.092900
       9.110000       1.564774       1.624443       2.126764
       9.120000       1.559744       1.660409       2.163580
       9.130000       1.556447       1.694752       2.203216
       9.140000       1.554507       1.726215       2.245316
       9.150000       1.553727       1.753924       2.289383
       9.160000       1.553987       1.777341       2.334910
       9.170000       1.555154       1.796177       2.381531
       9.180000       1.557038       1.810317       2.429129
       9.190000       1.559396       1.819781       2.477883
       9.200000       1.561965       1.824728       2.528220
       9.210000       1.564516       1.825480       2.580721
       9.220000       1.566916       1.822595       2.635998
       9.230000       1.569215       1.816934       2.694578
       9.240000       1.571721       1.809693       2.756818
       9.250000       1.575036       1.802356       2.822869
       9.260000       1.580013       1.796561       2.892695
       9.270000       1.587617       1.793914       2.966142
       9.280000       1.598716       1.795784       3.043017
       9.290000       1.613880       1.803123       3.123179
       9.300000       1.633222       1.816327       3.206626
       9.310000       1.656356       1.835179       3.293588
       9.320000       1.682474       1.858859       3.384562
       9.330000       1.710526       1.886063       3.480275
       9.340000       1.739437       1.915191       3.581569
       9.350000       1.768278       1.944566       3.689267
       9.360000       1.796318       1.972603       3.804096
       9.370000       1.822957       1.997895       3.926695
       9.380000       1.847597       2.019233       4.057694
       9.390000       1.869562       2.035639       4.197808
       9.400000       1.888128       2.046493       4.347926
       9.410000       1.902651       2.051708       4.509169
       9.420000       1.912706       2.051819       4.682889
       9.430000       1.918150       2.047910       4.870578
       9.440000       1.919076       2.041386       5.073666
       9.450000       1.915700       2.033718       5.293214
       9.460000       1.908263       2.026283       5.529544
       9.470000       1.896997       2.020291       5.781859
       9.480000       1.882182       2.016774       6.047894
       9.490000       1.864250       2.016573       6.323644
       9.500000       1.843928       2.020351       6.603228
       9.510000       1.822333       2.028650       6.878978
       9.520000       1.800975       2.041978       7.141834
       9.530000       1.781630       2.060880       7.382125
       9.540000       1.766099       2.085894       7.590702
       9.550000       1.755923       2.117408       7.760217
       9.560000       1.752131       2.155449       7.886203
       9.570000       1.755072       2.199531       7.967595
       9.580000       1.764334       2.248646       8.006474
       9.590000       1.778766       2.301425       8.007136
       9.600000       1.796558       2.356402       7.974793
       9.610000       1.815414       2.412259       7.914424
       9.620000       1.832816       2.467928       7.830223
       9.630000       1.846357       2.522504       7.725782
       9.640000       1.854086       2.575044       7.604757
       9.650000       1.854751       2.624374       7.471459
       9.660000       1.847881       2.669051       7.330881
       9.670000       1.833704       2.707543       7.188075
       9.680000       1.812993       2.738585       7.047152
       9.690000       1.786905       2.761544       6.910438
       9.700000       1.756865       2.776604       6.778200
       9.710000       1.724442       2.784673       6.649097
       9.720000       1.691216       2.787055       6.521187
       9.730000       1.658610       2.785062       6.393056
       9.740000       1.627753       2.779725       6.264610
       9.750000       1.599371       2.771702       6.137231
       9.760000       1.573768       2.761328       6.013339
       9.770000       1.550867       2.748728       5.895611
       9.780000       1.530306       2.733922       5.786197
       9.790000       1.511575       2.716914       5.686162
       9.800000       1.494171       2.697799       5.595250
       9.810000       1.477727       2.676854       5.511967
       9.820000       1.462099       2.654583       5.433914
       9.830000       1.447355       2.631652       5.358253
       9.840000       1.433697       2.608724       5.282187
       9.850000       1.421338       2.586277       5.203368
       9.860000       1.410392       2.564513       5.120189
       9.870000       1.400813       2.543425       5.031920
       9.880000       1.392407       2.523011       4.938652
       9.890000       1.384905       2.503537       4.841069
       9.900000       1.378059       2.485729       4.740149
       9.910000       1.371722       2.470789       4.636957
       9.920000       1.365898       2.460208       4.532609
       9.930000       1.360729       2.455417       4.428355
       9.940000       1.356441       2.457400       4.325659
       9.950000       1.353265       2.466367       4.226140
       9.960000       1.351348       2.481573       4.131361
       9.970000       1.350666       2.501284       4.042521
       9.980000       1.350962       2.522918       3.960167
       9.990000       1.351734       2.543335       3.884014
      10.000000       1.352297       2.559300       3.812943
      10.010000       1.351918       2.568033       3.745208
      10.020000       1.349987       2.567733       3.678831
      10.030000       1.346151       2.557841       3.612089
      10.040000       1.340386       2.538992       3.543948
      10.050000       1.332978       2.512672       3.474294
      10.060000       1.324478       2.480798       3.403882
      10.070000       1.315632       2.445371       3.334059
      10.080000       1.307309       2.408286       3.266411
      10.090000       1.300406       2.371248       3.202470
      10.100000       1.295723       2.335730       3.143582
      10.110000       1.293825       2.302914       3.090870
      10.120000       1.294947       2.273614       3.045245
      10.130000       1.298957       2.248208       3.007398
      10.140000       1.305420       2.226626       2.977764
      10.150000       1.313733       2.208400       2.956479
      10.160000       1.323308       2.192790       2.943360
      10.170000       1.333741       2.178940       2.937891
      10.180000       1.344898       2.166016       2.939203
      10.190000       1.356885       2.153246       2.946055
      10.200000       1.369919       2.139877       2.956808
      10.210000       1.384153       2.125097       2.969457
      10.220000       1.399532       2.108016       2.981748
      10.230000       1.415713       2.087784       2.991392
      10.240000       1.432054       2.063827       2.996357
      10.250000       1.447656       2.036124       2.995165
      10.260000       1.461427       2.005393       2.987071
      10.270000       1.472168       1.973089       2.972079
      10.280000       1.478710       1.941230       2.950764
      10.290000       1.480076       1.912091       2.924013
      10.300000       1.475677       1.887880       2.892785
      10.310000       1.465447       1.870440       2.857966
      10.320000       1.449887       1.861039       2.820348
      10.330000       1.429974       1.860216       2.780678
      10.340000       1.406962       1.867692       2.739734
      10.350000       1.382159       1.882331       2.698381
      10.360000       1.356731       1.902197       2.657590
      10.370000       1.331598       1.924737       2.618436
      10.380000       1.307405       1.947125       2.582055
      10.390000       1.284559       1.966710       2.549577
      10.400000       1.263294       1.981442       2.522026
      10.410000       1.243730       1.990167       2.500184
      10.420000       1.225924       1.992677       2.484448
      10.430000       1.209904       1.989548       2.474666
      10.440000       1.195677       1.981824       2.469991
      10.450000       1.183220       1.970660       2.468788
      10.460000       1.172472       1.957039       2.468684
      10.470000       1.163323       1.941647       2.466813
      10.480000       1.155628       1.924938       2.460279
      10.490000       1.149235       1.907289       2.446709
      10.500000       1.144005       1.889133       2.424745
      10.510000       1.139833       1.870972       2.394271
      10.520000       1.136640       1.853309       2.356305
      10.530000       1.134364       1.836571       2.312625
      10.540000       1.132952       1.821108       2.265305
      10.550000       1.132345       1.807252       2.216344
      10.560000       1.132458       1.795390       2.167448
      10.570000       1.133154       1.785971       2.119970
      10.580000       1.134212       1.779471       2.074911
      10.590000       1.135308       1.776321       2.032955
      10.600000       1.136023       1.776872       1.994509
      10.610000       1.135879       1.781380       1.959762
      10.620000       1.134389       1.789994       1.928786
      10.630000       1.131118       1.802715       1.901651
      10.640000       1.125721       1.819320       1.878503
      10.650000       1.117985       1.839281       1.859566
      10.660000       1.107852       1.861711       1.845048
      10.670000       1.095443       1.885387       1.834977
      10.680000       1.081057       1.908841       1.829041
      10.690000       1.065140       1.930514       1.826478
      10.700000       1.048234       1.948920       1.826062
      10.710000       1.030903       1.962768       1.826213
      10.720000       1.013662       1.971057       1.825227
      10.730000       0.996929       1.973172       1.821599
      10.740000       0.981011       1.968997       1.814343
      10.750000       0.966118       1.959008       1.803191
      10.760000       0.952397       1.944227       1.788573
      10.770000       0.939951       1.926019       1.771381
      10.780000       0.928852       1.905762       1.752631
      10.790000       0.919143       1.884560       1.733183
      10.800000       0.910831       1.863090       1.713612
      10.810000       0.903903       1.841632       1.694244
      10.820000       0.898349       1.820212       1.675262
      10.830000       0.894193       1.798760       1.656773
      10.840000       0.891519       1.777211       1.638798
      10.850000       0.890466       1.755541       1.621210
      10.860000       0.891211       1.733775       1.603712
      10.870000       0.893917       1.712014       1.585881
      10.880000       0.898692       1.690484       1.567293
      10.890000       0.905550       1.669582       1.547644
      10.900000       0.914383       1.649890       1.526822
      10.910000       0.924928       1.632129       1.504890
      10.920000       0.936730       1.617067       1.482008
      10.930000       0.949100       1.605417       1.458348
      10.940000       0.961107       1.597726       1.434055
      10.950000       0.971622       1.594267       1.409260
      10.960000       0.979459       1.594950       1.384143
      10.970000       0.983575       1.599296       1.359004
      10.980000       0.983288       1.606488       1.334287
      10.990000       0.978421       1.615521       1.310527
      11.000000       0.969311       1.625393       1.288226
      11.010000       0.956670       1.635274       1.267705
      11.020000       0.941390       1.644628       1.248977
      11.030000       0.924354       1.653252       1.231713
      11.040000       0.906323       1.661257       1.215281
      11.050000       0.887897       1.668977       1.198869
      11.060000       0.869530       1.676816       1.181661
      11.070000       0.851566       1.685037       1.163004
      11.080000       0.834273       1.693529       1.142529
      11.090000       0.817868       1.701651       1.120193
      11.100000       0.802531       1.708229       1.096233
      11.110000       0.788396       1.711742       1.071067
      11.120000       0.775538       1.710663       1.045182
      11.130000       0.763974       1.703854       1.019052
      11.140000       0.753668       1.690891       0.993096
      11.150000       0.744554       1.672197       0.967674
      11.160000       0.736564       1.648960       0.943107
      11.170000       0.729632       1.622852       0.919692
      11.180000       0.723697       1.595657       0.897719
      11.190000       0.718695       1.568920       0.877468
      11.200000       0.714568       1.543743       0.859202
      11.210000       0.711285       1.520758       0.843139
      11.220000       0.708875       1.500247       0.829427
      11.230000       0.707437       1.482318       0.818105
      11.240000       0.707123       1.467035       0.809071
      11.250000       0.708089       1.454491       0.802058
      11.260000       0.710426       1.444796       0.796638
      11.270000       0.714102       1.438040       0.792264
      11.280000       0.718931       1.434243       0.788368
      11.290000       0.724588       1.433315       0.784479
      11.300000       0.730680       1.435040       0.780320
      11.310000       0.736817       1.439091       0.775863
      11.320000       0.742682       1.445074       0.771299
      11.330000       0.748040       1.452574       0.766957
      11.340000       0.752723       1.461198       0.763216
      11.350000       0.756603       1.470610       0.760433
      11.360000       0.759586       1.480576       0.758918
      11.370000       0.761655       1.490983       0.758904
      11.380000       0.762914       1.501828       0.760530
      11.390000       0.763620       1.513140       0.763808
      11.400000       0.764164       1.524847       0.768595
      11.410000       0.765009       1.536656       0.774588
      11.420000       0.766595       1.547987       0.781357
      11.430000       0.769252       1.558019       0.788415
      11.440000       0.773151       1.565816       0.795301
      11.450000       0.778309       1.570523       0.801665
      11.460000       0.784633       1.571536       0.807324
      11.470000       0.791993       1.568618       0.812267
      11.480000       0.800288       1.561915       0.816627
      11.490000       0.809488       1.551922       0.820613
      11.500000       0.819637       1.539413       0.824442
      11.510000       0.830832       1.525370       0.828270
      11.520000       0.843186       1.510903       0.832166
      11.530000       0.856804       1.497149       0.836106
      11.540000       0.871761       1.485151       0.840023
      11.550000       0.888073       1.475760       0.843867
      11.560000       0.905658       1.469553       0.847685
      11.570000       0.924274       1.466799       0.851650
      11.580000       0.943466       1.467443       0.856059
      11.590000       0.962523       1.471115       0.861270
      11.600000       0.980473       1.477136       0.867632
      11.610000       0.996139       1.484547       0.875427
      11.620000       1.008244       1.492159       0.884842
      11.630000       1.015593       1.498648       0.895975
      11.640000       1.017274       1.502684       0.908853
      11.650000       1.012826       1.503076       0.923454
      11.660000       1.002305       1.498922       0.939707
      11.670000       0.986220       1.489706       0.957510
      11.680000       0.965381       1.475349       0.976738
      11.690000       0.940721       1.456182       0.997279
      11.700000       0.913144       1.432860       1.019062
      11.710000       0.883455       1.406255       1.042077
      11.720000       0.852342       1.377333       1.066361
      11.730000       0.820409       1.347041       1.091972
      11.740000       0.788212       1.316212       1.118944
      11.750000       0.756309       1.285513       1.147260
      11.760000       0.725264       1.255445       1.176826
      11.770000       0.695635       1.226395       1.207461
      11.780000       0.667933       1.198717       1.238905
      11.790000       0.642584       1.172808       1.270849
      11.800000       0.619888       1.149142       1.302981
      11.810000       0.600004       1.128235       1.335026
      11.820000       0.582941       1.110559       1.366763
      11.830000       0.568579       1.096439       1.398016
      11.840000       0.556695       1.085990       1.428624
      11.850000       0.547010       1.079098       1.458409
      11.860000       0.539233       1.075447       1.487157
      11.870000       0.533088       1.074558       1.514614
      11.880000       0.528333       1.075852       1.540484
      11.890000       0.524750       1.078739       1.564416
      11.900000       0.522138       1.082751       1.585983
      11.910000       0.520316       1.087681       1.604670
      11.920000       0.519146       1.093660       1.619875
      11.930000       0.518557       1.101131       1.630942
      11.940000       0.518570       1.110716       1.637209
      11.950000       0.519279       1.123024       1.638072
      11.960000       0.520815       1.138498       1.633039
      11.970000       0.523281       1.157321       1.621787
      11.980000       0.526702       1.179378       1.604196
      11.990000       0.530994       1.204245       1.580406
      12.000000       0.535971       1.231163       1.550867
      12.010000       0.541369       1.259014       1.516392
      12.020000       0.546897       1.286316       1.478154
      12.030000       0.552288       1.311311       1.437617
      12.040000       0.557337       1.332161       1.396368
      12.050000       0.561931       1.347261       1.355932
      12.060000       0.566050       1.355579       1.317594
      12.070000       0.569752       1.356891       1.282294
      12.080000       0.573143       1.351825       1.250591
      12.090000       0.576340       1.341710       1.222692
      12.100000       0.579439       1.328307       1.198499
      12.110000       0.582500       1.313519       1.177683
      12.120000       0.585526       1.299140       1.159761
      12.130000       0.588468       1.286661       1.144189
      12.140000       0.591227       1.277129       1.130463
      12.150000       0.593676       1.271060       1.118222
      12.160000       0.595684       1.268392       1.107311
      12.170000       0.597135       1.268519       1.097799
      12.180000       0.597953       1.270407       1.089922
      12.190000       0.598125       1.272823       1.083978
      12.200000       0.597715       1.274611       1.080197
      12.210000       0.596855       1.274941       1.078630
      12.220000       0.595719       1.273431       1.079087
      12.230000       0.594474       1.270116       1.081123
      12.240000       0.593230       1.265293       1.084074
      12.250000       0.592012       1.259329       1.087114
      12.260000       0.590776       1.252511       1.089330
      12.270000       0.589448       1.244984       1.089814
      12.280000       0.587977       1.236779       1.087753
      12.290000       0.586374       1.227873       1.082539
      12.300000       0.584710       1.218226       1.073860
      12.310000       0.583084       1.207777       1.061753
      12.320000       0.581596       1.196402       1.046612
      12.330000       0.580316       1.183911       1.029104
      12.340000       0.579283       1.170085       1.010046
      12.350000       0.578507       1.154767       0.990254
      12.360000       0.577978       1.137951       0.970426
      12.370000       0.577672       1.119816       0.951088
      12.380000       0.577568       1.100702       0.932601
      12.390000       0.577663       1.081020       0.915207
      12.400000       0.577985       1.061156       0.899077
      12.410000       0.578592       1.041416       0.884348
      12.420000       0.579567       1.022030       0.871143
      12.430000       0.580990       1.003222       0.859577
      12.440000       0.582929       0.985269       0.849753
      12.450000       0.585410       0.968515       0.841764
      12.460000       0.588422       0.953320       0.835690
      12.470000       0.591924       0.939970       0.831598
      12.480000       0.595879       0.928616       0.829548
      12.490000       0.600277       0.919252       0.829600
      12.500000       0.605147       0.911754       0.831825
      12.510000       0.610540       0.905938       0.836319
      12.520000       0.616500       0.901631       0.843211
      12.530000       0.623036       0.898725       0.852673
      12.540000       0.630119       0.897206       0.864925
      12.550000       0.637687       0.897138       0.880237
      12.560000       0.645669       0.898606       0.898915
      12.570000       0.653979       0.901619       0.921264
      12.580000       0.662506       0.906029       0.947542
      12.590000       0.671080       0.911488       0.977885
      12.600000       0.679460       0.917480       1.012222
      12.610000       0.687350       0.923403       1.050152
      12.620000       0.694440       0.928714       1.090821
      12.630000       0.700457       0.933049       1.132811
      12.640000       0.705189       0.936319       1.174095
      12.650000       0.708483       0.938709       1.212122
      12.660000       0.710214       0.940600       1.244088
      12.670000       0.710261       0.942426       1.267369
      12.680000       0.708509       0.944525       1.280042
      12.690000       0.704848       0.947029       1.281333
      12.700000       0.699193       0.949807       1.271804
      12.710000       0.691493       0.952471       1.253203
      12.720000       0.681748       0.954424       1.228028
      12.730000       0.670035       0.954965       1.198967
      12.740000       0.656527       0.953422       1.168419
      12.750000       0.641506       0.949323       1.138216
      12.760000       0.625357       0.942532       1.109563
      12.770000       0.608551       0.933312       1.083142
      12.780000       0.591611       0.922281       1.059298
      12.790000       0.575061       0.910297       1.038210
      12.800000       0.559380       0.898302       1.020027
      12.810000       0.544964       0.887204       1.004938
      12.820000       0.532092       0.877795       0.993183
      12.830000       0.520929       0.870707       0.985047
      12.840000       0.511531       0.866401       0.980825
      12.850000       0.503868       0.865175       0.980790
      12.860000       0.497839       0.867171       0.985151
      12.870000       0.493288       0.872392       0.994030
      12.880000       0.490005       0.880687       1.007433
      12.890000       0.487721       0.891714       1.025255
      12.900000       0.486116       0.904891       1.047285
      12.910000       0.484835       0.919365       1.073216
      12.920000       0.483519       0.934032       1.102656
      12.930000       0.481850       0.947642       1.135122
      12.940000       0.479588       0.958950       1.170019
      12.950000       0.476608       0.966890       1.206613
      12.960000       0.472900       0.970712       1.243996
      12.970000       0.468563       0.970058       1.281085
      12.980000       0.463763       0.964982       1.316651
      12.990000       0.458703       0.955931       1.349390
      13.000000       0.453596       0.943688       1.378023
      13.010000       0.448647       0.929293       1.401381
      13.020000       0.444047       0.913922       1.418487
      13.030000       0.439962       0.898741       1.428632
      13.040000       0.436518       0.884778       1.431474
      13.050000       0.433776       0.872814       1.427164
      13.060000       0.431716       0.863342       1.416430
      13.070000       0.430235       0.856583       1.400567
      13.080000       0.429166       0.852528       1.381284
      13.090000       0.428320       0.851005       1.360440
      13.100000       0.427529       0.851741       1.339752
      13.110000       0.426693       0.854412       1.320576
      13.120000       0.425788       0.858669       1.303781
      13.130000       0.424857       0.864149       1.289754
      13.140000       0.423962       0.870459       1.278491
      13.150000       0.423140       0.877158       1.269730
      13.160000       0.422371       0.883739       1.263086
      13.170000       0.421580       0.889662       1.258136
      13.180000       0.420666       0.894425       1.254451
      13.190000       0.419536       0.897664       1.251580
      13.200000       0.418134       0.899234       1.249038
      13.210000       0.416446       0.899212       1.246308
      13.220000       0.414488       0.897837       1.242895
      13.230000       0.412290       0.895400       1.238388
      13.240000       0.409889       0.892131       1.232523
      13.250000       0.407327       0.888118       1.225207
      13.260000       0.404665       0.883268       1.216511
      13.270000       0.401986       0.877310       1.206625
      13.280000       0.399396       0.869863       1.195817
      13.290000       0.397013       0.860538       1.184382
      13.300000       0.394946       0.849072       1.172608
      13.310000       0.393282       0.835428       1.160753
      13.320000       0.392068       0.819840       1.149040
      13.330000       0.391301       0.802773       1.137671
      13.340000       0.390918       0.784824       1.126840
      13.350000       0.390796       0.766593       1.116758
      13.360000       0.390763       0.748572       1.107654
      13.370000       0.390610       0.731078       1.099770
      13.380000       0.390126       0.714255       1.093342
      13.390000       0.389129       0.698127       1.088578
      13.400000       0.387481       0.682681       1.085642
      13.410000       0.385104       0.667941       1.084642
      13.420000       0.381978       0.654009       1.085606
      13.430000       0.378137       0.641065       1.088450
      13.440000       0.373659       0.629340       1.092962
      13.450000       0.368651       0.619072       1.098795
      13.460000       0.363231       0.610482       1.105493
      13.470000       0.357513       0.603750       1.112545
      13.480000       0.351598       0.599031       1.119428
      13.490000       0.345581       0.596461       1.125633
      13.500000       0.339557       0.596174       1.130662
      13.510000       0.333628       0.598293       1.134012
      13.520000       0.327916       0.602908       1.135155
      13.530000       0.322559       0.610049       1.133540
      13.540000       0.317707       0.619653       1.128634
      13.550000       0.313503       0.631549       1.119994
      13.560000       0.310063       0.645479       1.107382
      13.570000       0.307463       0.661143       1.090857
      13.580000       0.305718       0.678265       1.070826
      13.590000       0.304789       0.696652       1.048012
      13.600000       0.304583       0.716209       1.023352
      13.610000       0.304963       0.736920       0.997856
      13.620000       0.305765       0.758783       0.972475
      13.630000       0.306806       0.781742       0.948014
      13.640000       0.307894       0.805624       0.925072
      13.650000       0.308843       0.830104       0.904029
      13.660000       0.309481       0.854706       0.885041
      13.670000       0.309662       0.878837       0.868062
      13.680000       0.309275       0.901861       0.852874
      13.690000       0.308249       0.923186       0.839138
      13.700000       0.306553       0.942359       0.826464
      13.710000       0.304201       0.959156       0.814486
      13.720000       0.301252       0.973647       0.802928
      13.730000       0.297812       0.986227       0.791633
      13.740000       0.294027       0.997596       0.780557
      13.750000       0.290068       1.008671       0.769730
      13.760000       0.286104       1.020448       0.759195
      13.770000       0.282282       1.033824       0.748961
      13.780000       0.278706       1.049405       0.738982
      13.790000       0.275425       1.067353       0.729176
      13.800000       0.272435       1.087294       0.719458
      13.810000       0.269688       1.108331       0.709791
      13.820000       0.267115       1.129177       0.700194
      13.830000       0.264658       1.148357       0.690739
      13.840000       0.262294       1.164468       0.681514
      13.850000       0.260055       1.176394       0.672595
      13.860000       0.258022       1.183449       0.664022
      13.870000       0.256306       1.185404       0.655798
      13.880000       0.255026       1.182437       0.647902
      13.890000       0.254280       1.175045       0.640297
      13.900000       0.254133       1.163950       0.632956
      13.910000       0.254611       1.150014       0.625867
      13.920000       0.255716       1.134148       0.619042
      13.930000       0.257437       1.117220       0.612518
      13.940000       0.259771       1.099979       0.606352
      13.950000       0.262734       1.083012       0.600610
      13.960000       0.266357       1.066728       0.595350
      13.970000       0.270679       1.051373       0.590615
      13.980000       0.275726       1.037031       0.586425
      13.990000       0.281488       1.023633       0.582781
      14.000000       0.287900       1.010964       0.579688
      14.010000       0.294814       0.998698       0.577182
      14.020000       0.301992       0.986466       0.575355
      14.030000       0.309101       0.973932       0.574366
      14.040000       0.315726       0.960875       0.574423
      14.050000       0.321400       0.947221       0.575738
      14.060000       0.325656       0.933049       0.578468
      14.070000       0.328102       0.918563       0.582655
      14.080000       0.328501       0.904059       0.588186
      14.090000       0.326822       0.889893       0.594769
      14.100000       0.323249       0.876440       0.601956
      14.110000       0.318138       0.864062       0.609183
      14.120000       0.311927       0.853071       0.615841
      14.130000       0.305060       0.843694       0.621358
      14.140000       0.297914       0.836037       0.625276
      14.150000       0.290778       0.830063       0.627308
      14.160000       0.283845       0.825587       0.627375
      14.170000       0.277231       0.822304       0.625590
      14.180000       0.270995       0.819853       0.622204
      14.190000       0.265151       0.817893       0.617536
      14.200000       0.259686       0.816170       0.611898
      14.210000       0.254567       0.814534       0.605548
      14.220000       0.249745       0.812914       0.598690
      14.230000       0.245164       0.811266       0.591494
      14.240000       0.240772       0.809559       0.584116
      14.250000       0.236538       0.807776       0.576727
      14.260000       0.232463       0.805957       0.569504
      14.270000       0.228591       0.804224       0.562619
      14.280000       0.224994       0.802762       0.556211
      14.290000       0.221766       0.801742       0.550357
      14.300000       0.218996       0.801209       0.545052
      14.310000       0.216752       0.800985       0.540199
      14.320000       0.215071       0.800633       0.535630
      14.330000       0.213951       0.799522       0.531135
      14.340000       0.213354       0.796977       0.526501
      14.350000       0.213212       0.792473       0.521552
      14.360000       0.213442       0.785799       0.516180
      14.370000       0.213948       0.777129       0.510366
      14.380000       0.214626       0.766994       0.504175
      14.390000       0.215363       0.756167       0.497746
      14.400000       0.216038       0.745515       0.491259
      14.410000       0.216529       0.735862       0.484908
      14.420000       0.216728       0.727875       0.478878
      14.430000       0.216561       0.722002       0.473327
      14.440000       0.216001       0.718432       0.468385
      14.450000       0.215064       0.717113       0.464146
      14.460000       0.213804       0.717792       0.460671
      14.470000       0.212288       0.720109       0.457979
      14.480000       0.210586       0.723688       0.456040
      14.490000       0.208761       0.728220       0.454766
      14.500000       0.206869       0.733491       0.454019
      14.510000       0.204951       0.739353       0.453621
      14.520000       0.203042       0.745652       0.453380
      14.530000       0.201157       0.752158       0.453125
      14.540000       0.199298       0.758528       0.452730
      14.550000       0.197460       0.764347       0.452135
      14.560000       0.195638       0.769223       0.451360
      14.570000       0.193846       0.772905       0.450494
      14.580000       0.192115       0.775367       0.449685
      14.590000       0.190490       0.776819       0.449115
      14.600000       0.189017       0.777622       0.448969
      14.610000       0.187719       0.778148       0.449421
      14.620000       0.186588       0.778642       0.450620
      14.630000       0.185578       0.779144       0.452697
      14.640000       0.184611       0.779500       0.455767
      14.650000       0.183590       0.779453       0.459942
      14.660000       0.182425       0.778765       0.465322
      14.670000       0.181050       0.777321       0.471991
      14.680000       0.179439       0.775175       0.480001
      14.690000       0.177619       0.772528       0.489355
      14.700000       0.175660       0.769651       0.499982
      14.710000       0.173667       0.766800       0.511718
      14.720000       0.171760       0.764130       0.524290
      14.730000       0.170052       0.761653       0.537315
      14.740000       0.168639       0.759221       0.550307
      14.750000       0.167576       0.756575       0.562698
      14.760000       0.166870       0.753421       0.573881
      14.770000       0.166481       0.749535       0.583264
      14.780000       0.166327       0.744845       0.590340
      14.790000       0.166308       0.739457       0.594751
      14.800000       0.166325       0.733611       0.596352
      14.810000       0.166303       0.727590       0.595230
      14.820000       0.166197       0.721619       0.591691
      14.830000       0.165994       0.715811       0.586204
      14.840000       0.165701       0.710171       0.579313
      14.850000       0.165342       0.704655       0.571561
      14.860000       0.164953       0.699242       0.563424
      14.870000       0.164588       0.694000       0.555266
      14.880000       0.164320       0.689102       0.547316
      14.890000       0.164247       0.684798       0.539657
      14.900000       0.164483       0.681357       0.532234
      14.910000       0.165147       0.678982       0.524885
      14.920000       0.166352       0.677753       0.517397
      14.930000       0.168188       0.677602       0.509570
      14.940000       0.170715       0.678337       0.501276
      14.950000       0.173956       0.679704       0.492492
      14.960000       0.177898       0.681447       0.483298
      14.970000       0.182488       0.683362       0.473852
      14.980000       0.187641       0.685305       0.464356
      14.990000       0.193238       0.687190       0.455017
      15.000000       0.199137       0.688977       0.446016
      15.010000       0.205180       0.690657       0.437488
      15.020000       0.211210       0.692241       0.429508
      15.030000       0.217077       0.693735       0.422096
      15.040000       0.222659       0.695109       0.415220
      15.050000       0.227871       0.696281       0.408821
      15.060000       0.232668       0.697113       0.402833
      15.070000       0.237045       0.697434       0.397198
      15.080000       0.241024       0.697075       0.391875
      15.090000       0.244643       0.695900       0.386840
      15.100000       0.247932       0.693833       0.382075
      15.110000       0.250904       0.690874       0.377562
      15.120000       0.253546       0.687106       0.373271
      15.130000       0.255813       0.682687       0.369165
      15.140000       0.257627       0.677830       0.365197
      15.150000       0.258890       0.672761       0.361329
      15.160000       0.259494       0.667685       0.357535
      15.170000       0.259342       0.662757       0.353810
      15.180000       0.258369       0.658091       0.350164
      15.190000       0.256554       0.653772       0.346618
      15.200000       0.253927       0.649892       0.343200
      15.210000       0.250570       0.646554       0.339940
      15.220000       0.246605       0.643869       0.336881
      15.230000       0.242176       0.641915       0.334070
      15.240000       0.237425       0.640696       0.331564
      15.250000       0.232470       0.640116       0.329417
      15.260000       0.227392       0.639972       0.327682
      15.270000       0.222237       0.639997       0.326415
      15.280000       0.217024       0.639915       0.325674
      15.290000       0.211757       0.639527       0.325538
      15.300000       0.206445       0.638755       0.326096
      15.310000       0.201109       0.637665       0.327454
      15.320000       0.195787       0.636422       0.329713
      15.330000       0.190536       0.635235       0.332963
      15.340000       0.185427       0.634280       0.337257
      15.350000       0.180531       0.633662       0.342595
      15.360000       0.175917       0.633399       0.348907
      15.370000       0.171639       0.633442       0.356036
      15.380000       0.167734       0.633696       0.363735
      15.390000       0.164222       0.634051       0.371670
      15.400000       0.161101       0.634397       0.379451
      15.410000       0.158348       0.634652       0.386669
      15.420000       0.155924       0.634790       0.392941
      15.430000       0.153776       0.634863       0.397943
      15.440000       0.151851       0.635016       0.401423
      15.450000       0.150102       0.635465       0.403199
      15.460000       0.148502       0.636454       0.403159
      15.470000       0.147039       0.638188       0.401259
      15.480000       0.145718       0.640762       0.397534
      15.490000       0.144546       0.644112       0.392111
      15.500000       0.143528       0.647975       0.385203
      15.510000       0.142656       0.651896       0.377090
      15.520000       0.141904       0.655258       0.368090
      15.530000       0.141229       0.657365       0.358521
      15.540000       0.140582       0.657557       0.348676
      15.550000       0.139919       0.655353       0.338811
      15.560000       0.139208       0.650575       0.329129
      15.570000       0.138446       0.643403       0.319788
      15.580000       0.137649       0.634350       0.310899
      15.590000       0.136853       0.624152       0.302534
      15.600000       0.136099       0.613603       0.294737
      15.610000       0.135420       0.603412       0.287533
      15.620000       0.134840       0.594090       0.280930
      15.630000       0.134362       0.585904       0.274929
      15.640000       0.133983       0.578892       0.269520
      15.650000       0.133693       0.572927       0.264682
      15.660000       0.133487       0.567793       0.260387
      15.670000       0.133367       0.563259       0.256601
      15.680000       0.133340       0.559127       0.253285
      15.690000       0.133413       0.555261       0.250393
      15.700000       0.133597       0.551589       0.247881
      15.710000       0.133903       0.548114       0.245703
      15.720000       0.134345       0.544902       0.243821
      15.730000       0.134940       0.542065       0.242215
      15.740000       0.135699       0.539722       0.240878
      15.750000       0.136628       0.537962       0.239819
      15.760000       0.137716       0.536816       0.239050
      15.770000       0.138936       0.536234       0.238571
      15.780000       0.140249       0.536093       0.238359
      15.790000       0.141606       0.536202       0.238365
      15.800000       0.142965       0.536332       0.238508
      15.810000       0.144291       0.536250       0.238684
      15.820000       0.145567       0.535767       0.238773
      15.830000       0.146794       0.534786       0.238647
      15.840000       0.147989       0.533325       0.238188
      15.850000       0.149179       0.531520       0.237305
      15.860000       0.150397       0.529591       0.235950
      15.870000       0.151679       0.527794       0.234131
      15.880000       0.153060       0.526380       0.231922
      15.890000       0.154576       0.525552       0.229444
      15.900000       0.156250       0.525430       0.226852
      15.910000       0.158082       0.526029       0.224304
      15.920000       0.160043       0.527243       0.221948
      15.930000       0.162072       0.528855       0.219903
      15.940000       0.164084       0.530587       0.218263
      15.950000       0.165988       0.532152       0.217095
      15.960000       0.167710       0.533338       0.216450
      15.970000       0.169207       0.534052       0.216367
      15.980000       0.170471       0.534343       0.216878
      15.990000       0.171520       0.534380       0.218005
      16.000000       0.172388       0.534394       0.219763
      16.010000       0.173105       0.534621       0.222148
      16.020000       0.173693       0.535236       0.225136
      16.030000       0.174157       0.536301       0.228672
      16.040000       0.174489       0.537731       0.232672
      16.050000       0.174672       0.539268       0.237025
      16.060000       0.174689       0.540506       0.241596
      16.070000       0.174532       0.540946       0.246239
      16.080000       0.174213       0.540100       0.250805
      16.090000       0.173764       0.537596       0.255146
      16.100000       0.173239       0.533266       0.259117
      16.110000       0.172706       0.527188       0.262574
      16.120000       0.172241       0.519662       0.265375
      16.130000       0.171916       0.511147       0.267380
      16.140000       0.171798       0.502184       0.268461
      16.150000       0.171940       0.493309       0.268521
      16.160000       0.172377       0.484999       0.267515
      16.170000       0.173118       0.477623       0.265470
      16.180000       0.174144       0.471418       0.262491
      16.190000       0.175416       0.466494       0.258753
      16.200000       0.176884       0.462852       0.254466
      16.210000       0.178498       0.460421       0.249848
      16.220000       0.180211       0.459091       0.245086
      16.230000       0.181973       0.458716       0.240318
      16.240000       0.183723       0.459111       0.235628
      16.250000       0.185386       0.460032       0.231051
      16.260000       0.186867       0.461183       0.226588
      16.270000       0.188056       0.462243       0.222230
      16.280000       0.188838       0.462909       0.217968
      16.290000       0.189101       0.462932       0.213804
      16.300000       0.188748       0.462143       0.209739
      16.310000       0.187714       0.460452       0.205769
      16.320000       0.185967       0.457854       0.201868
      16.330000       0.183525       0.454425       0.197991
      16.340000       0.180453       0.450338       0.194079
      16.350000       0.176860       0.445867       0.190079
      16.360000       0.172884       0.441371       0.185957
      16.370000       0.168676       0.437249       0.181713
      16.380000       0.164375       0.433875       0.177387
      16.390000       0.160098       0.431525       0.173047
      16.400000       0.155931       0.430332       0.168782
      16.410000       0.151929       0.430260       0.164681
      16.420000       0.148114       0.431117       0.160827
      16.430000       0.144483       0.432587       0.157280
      16.440000       0.141012       0.434285       0.154081
      16.450000       0.137668       0.435814       0.151244
      16.460000       0.134424       0.436813       0.148765
      16.470000       0.131262       0.437003       0.146623
      16.480000       0.128185       0.436195       0.144790
      16.490000       0.125212       0.434302       0.143236
      16.500000       0.122374       0.431322       0.141935
      16.510000       0.119710       0.427331       0.140867
      16.520000       0.117258       0.422469       0.140022
      16.530000       0.115054       0.416941       0.139398
      16.540000       0.113129       0.411008       0.139005
      16.550000       0.111508       0.404985       0.138864
      16.560000       0.110206       0.399209       0.139003
      16.570000       0.109224       0.393995       0.139453
      16.580000       0.108545       0.389588       0.140246
      16.590000       0.108132       0.386116       0.141411
      16.600000       0.107930       0.383584       0.142974
      16.610000       0.107874       0.381877       0.144960
      16.620000       0.107903       0.380794       0.147389
      16.630000       0.107964       0.380089       0.150274
      16.640000       0.108018       0.379511       0.153611
      16.650000       0.108043       0.378831       0.157377
      16.660000       0.108024       0.377874       0.161524
      16.670000       0.107954       0.376530       0.165975
      16.680000       0.107834       0.374758       0.170636
      16.690000       0.107670       0.372585       0.175397
      16.700000       0.107475       0.370092       0.180151
      16.710000       0.107265       0.367393       0.184798
      16.720000       0.107056       0.364608       0.189254
      16.730000       0.106859       0.361833       0.193442
      16.740000       0.106676       0.359110       0.197293
      16.750000       0.106502       0.356413       0.200733
      16.760000       0.106329       0.353661       0.203684
      16.770000       0.106154       0.350757       0.206057
      16.780000       0.105984       0.347635       0.207762
      16.790000       0.105842       0.344305       0.208710
      16.800000       0.105762       0.340875       0.208830
      16.810000       0.105787       0.337543       0.208088
      16.820000       0.105962       0.334558       0.206501
      16.830000       0.106325       0.332175       0.204157
      16.840000       0.106897       0.330590       0.201210
      16.850000       0.107682       0.329896       0.197863
      16.860000       0.108659       0.330061       0.194344
      16.870000       0.109784       0.330928       0.190877
      16.880000       0.110990       0.332245       0.187652
      16.890000       0.112207       0.333729       0.184820
      16.900000       0.113365       0.335131       0.182478
      16.910000       0.114412       0.336295       0.180681
      16.920000       0.115320       0.337182       0.179439
      16.930000       0.116084       0.337853       0.178721
      16.940000       0.116716       0.338423       0.178466
      16.950000       0.117239       0.339003       0.178582
      16.960000       0.117674       0.339662       0.178951
      16.970000       0.118034       0.340392       0.179442
      16.980000       0.118321       0.341092       0.179914
      16.990000       0.118527       0.341571       0.180237
      17.000000       0.118636       0.341563       0.180303
      17.010000       0.118637       0.340771       0.180045
      17.020000       0.118530       0.338921       0.179454
      17.030000       0.118335       0.335824       0.178578
      17.040000       0.118095       0.331421       0.177507
      17.050000       0.117870       0.325801       0.176359
      17.060000       0.117729       0.319194       0.175253
      17.070000       0.117738       0.311940       0.174295
      17.080000       0.117950       0.304436       0.173567
      17.090000       0.118391       0.297086       0.173123
      17.100000       0.119062       0.290248       0.172990
      17.110000       0.119934       0.284190       0.173174
      17.120000       0.120954       0.279072       0.173659
      17.130000       0.122059       0.274941       0.174416
      17.140000       0.123181       0.271738       0.175405
      17.150000       0.124258       0.269331       0.176579
      17.160000       0.125237       0.267540       0.177891
      17.170000       0.126083       0.266179       0.179305
      17.180000       0.126778       0.265086       0.180803
      17.190000       0.127331       0.264150       0.182399
      17.200000       0.127771       0.263331       0.184137
      17.210000       0.128142       0.262657       0.186083
      17.220000       0.128491       0.262210       0.188311
      17.230000       0.128848       0.262090       0.190887
      17.240000       0.129223       0.262377       0.193858
      17.250000       0.129597       0.263094       0.197244
      17.260000       0.129931       0.264183       0.201046
      17.270000       0.130169       0.265506       0.205246
      17.280000       0.130253       0.266857       0.209818
      17.290000       0.130125       0.268003       0.214735
      17.300000       0.129738       0.268725       0.219979
      17.310000       0.129061       0.268863       0.225534
      17.320000       0.128076       0.268350       0.231393
      17.330000       0.126784       0.267207       0.237551
      17.340000       0.125206       0.265531       0.244006
      17.350000       0.123378       0.263461       0.250758
      17.360000       0.121354       0.261146       0.257803
      17.370000       0.119193       0.258733       0.265128
      17.380000       0.116959       0.256352       0.272691
      17.390000       0.114713       0.254118       0.280409
      17.400000       0.112509       0.252129       0.288163
      17.410000       0.110398       0.250457       0.295797
      17.420000       0.108424       0.249149       0.303146
      17.430000       0.106621       0.248222       0.310056
      17.440000       0.105016       0.247662       0.316393
      17.450000       0.103621       0.247429       0.322052
      17.460000       0.102436       0.247451       0.326943
      17.470000       0.101449       0.247628       0.330991
      17.480000       0.100638       0.247840       0.334123
      17.490000       0.099971       0.247959       0.336279
      17.500000       0.099414       0.247873       0.337405
      17.510000       0.098930       0.247502       0.337470
      17.520000       0.098485       0.246810       0.336473
      17.530000       0.098047       0.245809       0.334461
      17.540000       0.097588       0.244546       0.331538
      17.550000       0.097084       0.243089       0.327868
      17.560000       0.096517       0.241514       0.323653
      17.570000       0.095872       0.239889       0.319109
      17.580000       0.095148       0.238269       0.314427
      17.590000       0.094351       0.236693       0.309753
      17.600000       0.093501       0.235172       0.305176
      17.610000       0.092624       0.233683       0.300732
      17.620000       0.091754       0.232170       0.296418
      17.630000       0.090922       0.230556       0.292214
      17.640000       0.090163       0.228767       0.288105
      17.650000       0.089508       0.226760       0.284089
      17.660000       0.088984       0.224534       0.280173
      17.670000       0.088606       0.222132       0.276369
      17.680000       0.088377       0.219619       0.272675
      17.690000       0.088285       0.217069       0.269071
      17.700000       0.088307       0.214560       0.265521
      17.710000       0.088416       0.212167       0.261975
      17.720000       0.088594       0.209969       0.258386
      17.730000       0.088831       0.208043       0.254721
      17.740000       0.089134       0.206452       0.250968
      17.750000       0.089509       0.205232       0.247141
      17.760000       0.089957       0.204391       0.243282
      17.770000       0.090468       0.203906       0.239460
      17.780000       0.091015       0.203733       0.235765
      17.790000       0.091562       0.203814       0.232294
      17.800000       0.092072       0.204079       0.229135
      17.810000       0.092514       0.204445       0.226351
      17.820000       0.092871       0.204825       0.223965
      17.830000       0.093140       0.205132       0.221954
      17.840000       0.093329       0.205297       0.220258
      17.850000       0.093457       0.205276       0.218788
      17.860000       0.093544       0.205056       0.217449
      17.870000       0.093614       0.204651       0.216155
      17.880000       0.093689       0.204100       0.214848
      17.890000       0.093789       0.203457       0.213507
      17.900000       0.093930       0.202787       0.212149
      17.910000       0.094125       0.202172       0.210826
      17.920000       0.094380       0.201697       0.209617
      17.930000       0.094690       0.201437       0.208611
      17.940000       0.095043       0.201440       0.207894
      17.950000       0.095414       0.201709       0.207538
      17.960000       0.095766       0.202191       0.207590
      17.970000       0.096055       0.202781       0.208078
      17.980000       0.096235       0.203342       0.209001
      17.990000       0.096259       0.203731       0.210343
      18.000000       0.096086       0.203835       0.212063
      18.010000       0.095686       0.203597       0.214108
      18.020000       0.095035       0.203030       0.216405
      18.030000       0.094122       0.202207       0.218876
      18.040000       0.092949       0.201240       0.221439
      18.050000       0.091530       0.200251       0.224018
      18.060000       0.089903       0.199353       0.226543
      18.070000       0.088123       0.198638       0.228951
      18.080000       0.086262       0.198165       0.231175
      18.090000       0.084399       0.197960       0.233131
      18.100000       0.082609       0.198013       0.234725
      18.110000       0.080954       0.198282       0.235849
      18.120000       0.079474       0.198706       0.236404
      18.130000       0.078194       0.199214       0.236314
      18.140000       0.077118       0.199741       0.235541
      18.150000       0.076241       0.200235       0.234092
      18.160000       0.075548       0.200659       0.232012
      18.170000       0.075020       0.201001       0.229371
      18.180000       0.074638       0.201276       0.226251
      18.190000       0.074390       0.201536       0.222738
      18.200000       0.074264       0.201865       0.218923
      18.210000       0.074254       0.202367       0.214907
      18.220000       0.074351       0.203137       0.210805
      18.230000       0.074536       0.204235       0.206740
      18.240000       0.074778       0.205662       0.202830
      18.250000       0.075033       0.207351       0.199178
      18.260000       0.075245       0.209179       0.195853
      18.270000       0.075358       0.210984       0.192892
      18.280000       0.075331       0.212599       0.190301
      18.290000       0.075141       0.213887       0.188065
      18.300000       0.074798       0.214763       0.186164
      18.310000       0.074338       0.215203       0.184581
      18.320000       0.073815       0.215224       0.183308
      18.330000       0.073286       0.214868       0.182344
      18.340000       0.072801       0.214169       0.181694
      18.350000       0.072393       0.213149       0.181359
      18.360000       0.072075       0.211812       0.181336
      18.370000       0.071843       0.210157       0.181619
      18.380000       0.071684       0.208184       0.182196
      18.390000       0.071581       0.205899       0.183052
      18.400000       0.071523       0.203320       0.184167
      18.410000       0.071502       0.200479       0.185504
      18.420000       0.071520       0.197425       0.187009
      18.430000       0.071582       0.194228       0.188597
      18.440000       0.071696       0.190979       0.190151
      18.450000       0.071872       0.187785       0.191523
      18.460000       0.072119       0.184756       0.192549
      18.470000       0.072447       0.181993       0.193074
      18.480000       0.072864       0.179575       0.192983
      18.490000       0.073369       0.177547       0.192229
      18.500000       0.073954       0.175914       0.190847
      18.510000       0.074600       0.174643       0.188944
      18.520000       0.075270       0.173666       0.186673
      18.530000       0.075914       0.172894       0.184204
      18.540000       0.076471       0.172225       0.181688
      18.550000       0.076876       0.171573       0.179245
      18.560000       0.077074       0.170881       0.176958
      18.570000       0.077027       0.170141       0.174878
      18.580000       0.076723       0.169397       0.173029
      18.590000       0.076178       0.168731       0.171426
      18.600000       0.075432       0.168241       0.170077
      18.610000       0.074533       0.168007       0.168993
      18.620000       0.073535       0.168077       0.168189
      18.630000       0.072479       0.168452       0.167687
      18.640000       0.071395       0.169087       0.167515
      18.650000       0.070302       0.169906       0.167701
      18.660000       0.069213       0.170811       0.168268
      18.670000       0.068137       0.171704       0.169232
      18.680000       0.067088       0.172494       0.170592
      18.690000       0.066085       0.173102       0.172337
      18.700000       0.065147       0.173469       0.174436
      18.710000       0.064293       0.173555       0.176839
      18.720000       0.063536       0.173338       0.179476
      18.730000       0.062882       0.172813       0.182254
      18.740000       0.062327       0.171986       0.185059
      18.750000       0.061861       0.170867       0.187765
      18.760000       0.061470       0.169464       0.190236
      18.770000       0.061145       0.167779       0.192339
      18.780000       0.060882       0.165814       0.193955
      18.790000       0.060687       0.163584       0.194991
      18.800000       0.060572       0.161129       0.195394
      18.810000       0.060551       0.158516       0.195159
      18.820000       0.060637       0.155842       0.194332
      18.830000       0.060833       0.153215       0.192999
      18.840000       0.061132       0.150746       0.191275
      18.850000       0.061519       0.148533       0.189285
      18.860000       0.061968       0.146655       0.187150
      18.870000       0.062455       0.145167       0.184975
      18.880000       0.062961       0.144102       0.182840
      18.890000       0.063474       0.143471       0.180795
      18.900000       0.063997       0.143271       0.178863
      18.910000       0.064541       0.143485       0.177045
      18.920000       0.065121       0.144080       0.175331
      18.930000       0.065749       0.145009       0.173722
      18.940000       0.066435       0.146202       0.172231
      18.950000       0.067182       0.147575       0.170890
      18.960000       0.067992       0.149031       0.169742
      18.970000       0.068864       0.150481       0.168827
      18.980000       0.069791       0.151845       0.168173
      18.990000       0.070762       0.153064       0.167782
      19.000000       0.071753       0.154098       0.167624
      19.010000       0.072731       0.154916       0.167631
      19.020000       0.073655       0.155495       0.167702
      19.030000       0.074484       0.155804       0.167705
      19.040000       0.075182       0.155806       0.167503
      19.050000       0.075726       0.155449       0.166976
      19.060000       0.076114       0.154674       0.166053
      19.070000       0.076362       0.153429       0.164729
      19.080000       0.076508       0.151691       0.163071
      19.090000       0.076603       0.149487       0.161196
      19.100000       0.076701       0.146899       0.159250
      19.110000       0.076847       0.144061       0.157378
      19.120000       0.077071       0.141133       0.155705
      19.130000       0.077386       0.138283       0.154326
      19.140000       0.077786       0.135662       0.153308
      19.150000       0.078255       0.133388       0.152696
      19.160000       0.078770       0.131542       0.152515
      19.170000       0.079307       0.130160       0.152775
      19.180000       0.079842       0.129246       0.153466
      19.190000       0.080357       0.128777       0.154558
      19.200000       0.080841       0.128719       0.155997
      19.210000       0.081293       0.129033       0.157704
      19.220000       0.081722       0.129679       0.159573
      19.230000       0.082146       0.130620       0.161475
      19.240000       0.082581       0.131812       0.163274
      19.250000       0.083041       0.133198       0.164843
      19.260000       0.083527       0.134711       0.166088
      19.270000       0.084028       0.136265       0.166964
      19.280000       0.084522       0.137767       0.167484
      19.290000       0.084975       0.139122       0.167708
      19.300000       0.085347       0.140249       0.167733
      19.310000       0.085588       0.141080       0.167663
      19.320000       0.085652       0.141570       0.167603
      19.330000       0.085494       0.141685       0.167643
      19.340000       0.085089       0.141404       0.167856
      19.350000       0.084435       0.140716       0.168298
      19.360000       0.083560       0.139630       0.168994
      19.370000       0.082509       0.138178       0.169941
      19.380000       0.081344       0.136420       0.171100
      19.390000       0.080122       0.134441       0.172398
      19.400000       0.078893       0.132341       0.173727
      19.410000       0.077692       0.130223       0.174964
      19.420000       0.076540       0.128182       0.175982
      19.430000       0.075447       0.126292       0.176686
      19.440000       0.074417       0.124595       0.177030
      19.450000       0.073451       0.123106       0.177040
      19.460000       0.072549       0.121816       0.176811
      19.470000       0.071715       0.120708       0.176485
      19.480000       0.070958       0.119765       0.176225
      19.490000       0.070296       0.118983       0.176184
      19.500000       0.069748       0.118365       0.176477
      19.510000       0.069337       0.117915       0.177171
      19.520000       0.069086       0.117633       0.178281
      19.530000       0.069013       0.117508       0.179771
      19.540000       0.069130       0.117523       0.181562
      19.550000       0.069443       0.117655       0.183541
      19.560000       0.069953       0.117889       0.185571
      19.570000       0.070657       0.118208       0.187499
      19.580000       0.071546       0.118599       0.189170
      19.590000       0.072605       0.119038       0.190434
      19.600000       0.073816       0.119494       0.191168
      19.610000       0.075156       0.119932       0.191294
      19.620000       0.076603       0.120320       0.190800
      19.630000       0.078134       0.120642       0.189743
      19.640000       0.079730       0.120903       0.188242
      19.650000       0.081375       0.121119       0.186452
      19.660000       0.083056       0.121310       0.184532
      19.670000       0.084759       0.121490       0.182625
      19.680000       0.086471       0.121658       0.180835
      19.690000       0.088178       0.121803       0.179227
      19.700000       0.089877       0.121907       0.177828
      19.710000       0.091574       0.121960       0.176635
      19.720000       0.093283       0.121964       0.175620
      19.730000       0.095019       0.121937       0.174738
      19.740000       0.096789       0.121909       0.173936
      19.750000       0.098578       0.121922       0.173155
      19.760000       0.100341       0.122018       0.172343
      19.770000       0.102013       0.122233       0.171451
      19.780000       0.103515       0.122592       0.170438
      19.790000       0.104773       0.123097       0.169270
      19.800000       0.105731       0.123734       0.167921
      19.810000       0.106364       0.124472       0.166374
      19.820000       0.106675       0.125271       0.164619
      19.830000       0.106694       0.126083       0.162660
      19.840000       0.106466       0.126847       0.160514
      19.850000       0.106045       0.127490       0.158218
      19.860000       0.105481       0.127927       0.155824
      19.870000       0.104824       0.128071       0.153391
      19.880000       0.104114       0.127848       0.150981
      19.890000       0.103385       0.127216       0.148652
      19.900000       0.102666       0.126173       0.146454
      19.910000       0.101980       0.124757       0.144440
      19.920000       0.101343       0.123038       0.142661
      19.930000       0.100765       0.121106       0.141176
      19.940000       0.100257       0.119067       0.140050
      19.950000       0.099825       0.117028       0.139346
      19.960000       0.099479       0.115094       0.139117
      19.970000       0.099232       0.113359       0.139401
      19.980000       0.099095       0.111897       0.140212
      19.990000       0.099077       0.110762       0.141537
      20.000000       0.099179       0.109982       0.143333
