  # energy grid [eV]     epsi_x  epsi_y  epsi_z
       0.000000            NaN            NaN            NaN
       0.010000       0.004052       0.000882       0.000213
       0.020000       0.008109       0.001764       0.000426
       0.030000       0.012175       0.002648       0.000640
       0.040000       0.016255       0.003533       0.000855
       0.050000       0.020353       0.004420       0.001073
       0.060000       0.024475       0.005309       0.001293
       0.070000       0.028624       0.006201       0.001515
       0.080000       0.032807       0.007097       0.001741
       0.090000       0.037027       0.007996       0.001972
       0.100000       0.041290       0.008900       0.002206
       0.110000       0.045601       0.009809       0.002447
       0.120000       0.049966       0.010723       0.002693
       0.130000       0.054390       0.011644       0.002945
       0.140000       0.058879       0.012571       0.003205
       0.150000       0.063439       0.013505       0.003474
       0.160000       0.068076       0.014447       0.003751
       0.170000       0.072796       0.015397       0.004039
       0.180000       0.077607       0.016357       0.004339
       0.190000       0.082514       0.017325       0.004651
       0.200000       0.087527       0.018305       0.004976
       0.210000       0.092652       0.019295       0.005318
       0.220000       0.097897       0.020296       0.005676
       0.230000       0.103272       0.021311       0.006054
       0.240000       0.108784       0.022338       0.006453
       0.250000       0.114445       0.023379       0.006875
       0.260000       0.120264       0.024435       0.007323
       0.270000       0.126252       0.025507       0.007801
       0.280000       0.132420       0.026595       0.008311
       0.290000       0.138781       0.027700       0.008858
       0.300000       0.145347       0.028824       0.009445
       0.310000       0.152133       0.029968       0.010078
       0.320000       0.159154       0.031132       0.010763
       0.330000       0.166426       0.032317       0.011505
       0.340000       0.173965       0.033526       0.012312
       0.350000       0.181791       0.034759       0.013191
       0.360000       0.189923       0.036017       0.014151
       0.370000       0.198383       0.037303       0.015201
       0.380000       0.207194       0.038617       0.016350
       0.390000       0.216381       0.039960       0.017609
       0.400000       0.225971       0.041336       0.018985
       0.410000       0.235993       0.042746       0.020488
       0.420000       0.246480       0.044190       0.022124
       0.430000       0.257467       0.045673       0.023899
       0.440000       0.268991       0.047196       0.025819
       0.450000       0.281095       0.048760       0.027888
       0.460000       0.293823       0.050370       0.030112
       0.470000       0.307225       0.052027       0.032494
       0.480000       0.321357       0.053734       0.035034
       0.490000       0.336278       0.055496       0.037720
       0.500000       0.352054       0.057314       0.040525
       0.510000       0.368760       0.059194       0.043400
       0.520000       0.386475       0.061138       0.046273
       0.530000       0.405290       0.063153       0.049061
       0.540000       0.425306       0.065241       0.051677
       0.550000       0.446632       0.067409       0.054054
       0.560000       0.469394       0.069663       0.056151
       0.570000       0.493729       0.072008       0.057966
       0.580000       0.519793       0.074453       0.059527
       0.590000       0.547761       0.077004       0.060884
       0.600000       0.577827       0.079670       0.062089
       0.610000       0.610214       0.082461       0.063180
       0.620000       0.645168       0.085387       0.064170
       0.630000       0.682969       0.088459       0.065041
       0.640000       0.723934       0.091692       0.065748
       0.650000       0.768417       0.095098       0.066227
       0.660000       0.816819       0.098695       0.066414
       0.670000       0.869587       0.102499       0.066264
       0.680000       0.927222       0.106530       0.065772
       0.690000       0.990279       0.110810       0.064979
       0.700000       1.059372       0.115363       0.063971
       0.710000       1.135176       0.120215       0.062866
       0.720000       1.218429       0.125396       0.061792
       0.730000       1.309941       0.130938       0.060869
       0.740000       1.410608       0.136880       0.060191
       0.750000       1.521428       0.143266       0.059820
       0.760000       1.643531       0.150149       0.059780
       0.770000       1.778211       0.157588       0.060062
       0.780000       1.926957       0.165656       0.060627
       0.790000       2.091483       0.174431       0.061411
       0.800000       2.273734       0.183998       0.062335
       0.810000       2.475833       0.194449       0.063317
       0.820000       2.699937       0.205873       0.064275
       0.830000       2.947963       0.218354       0.065138
       0.840000       3.221178       0.231957       0.065854
       0.850000       3.519657       0.246715       0.066384
       0.860000       3.841653       0.262611       0.066702
       0.870000       4.182972       0.279554       0.066794
       0.880000       4.536538       0.297359       0.066653
       0.890000       4.892381       0.315734       0.066283
       0.900000       5.238314       0.334288       0.065707
       0.910000       5.561335       0.352559       0.064964
       0.920000       5.849514       0.370070       0.064107
       0.930000       6.093794       0.386395       0.063198
       0.940000       6.289125       0.401231       0.062292
       0.950000       6.434650       0.414438       0.061433
       0.960000       6.532991       0.426066       0.060647
       0.970000       6.588923       0.436334       0.059944
       0.980000       6.607762       0.445583       0.059319
       0.990000       6.593950       0.454212       0.058759
       1.000000       6.550314       0.462623       0.058248
       1.010000       6.478201       0.471202       0.057772
       1.020000       6.378197       0.480327       0.057322
       1.030000       6.250780       0.490387       0.056896
       1.040000       6.096439       0.501779       0.056501
       1.050000       5.915382       0.514897       0.056154
       1.060000       5.707359       0.530109       0.055881
       1.070000       5.472129       0.547741       0.055716
       1.080000       5.210555       0.568082       0.055689
       1.090000       4.925758       0.591379       0.055816
       1.100000       4.623613       0.617820       0.056089
       1.110000       4.312223       0.647487       0.056470
       1.120000       4.000623       0.680279       0.056892
       1.130000       3.697308       0.715840       0.057271
       1.140000       3.409145       0.753499       0.057521
       1.150000       3.140893       0.792296       0.057573
       1.160000       2.895242       0.831097       0.057387
       1.170000       2.673172       0.868818       0.056958
       1.180000       2.474406       0.904710       0.056316
       1.190000       2.297835       0.938604       0.055512
       1.200000       2.141848       0.970981       0.054612
       1.210000       2.004571       1.002837       0.053678
       1.220000       1.884018       1.035359       0.052760
       1.230000       1.778192       1.069530       0.051898
       1.240000       1.685170       1.105807       0.051116
       1.250000       1.603184       1.143943       0.050433
       1.260000       1.530715       1.183004       0.049866
       1.270000       1.466561       1.221597       0.049432
       1.280000       1.409872       1.258250       0.049149
       1.290000       1.360109       1.291834       0.049031
       1.300000       1.316940       1.321852       0.049083
       1.310000       1.280102       1.348464       0.049294
       1.320000       1.249268       1.372249       0.049639
       1.330000       1.223927       1.393846       0.050082
       1.340000       1.203322       1.413684       0.050580
       1.350000       1.186430       1.431948       0.051095
       1.360000       1.172022       1.448791       0.051598
       1.370000       1.158809       1.464625       0.052075
       1.380000       1.145660       1.480300       0.052523
       1.390000       1.131848       1.497034       0.052950
       1.400000       1.117216       1.516085       0.053366
       1.410000       1.102213       1.538326       0.053783
       1.420000       1.087764       1.563883       0.054205
       1.430000       1.075059       1.591986       0.054629
       1.440000       1.065326       1.621117       0.055047
       1.450000       1.059679       1.649440       0.055454
       1.460000       1.059035       1.675406       0.055858
       1.470000       1.064106       1.698331       0.056283
       1.480000       1.075415       1.718678       0.056771
       1.490000       1.093313       1.737920       0.057369
       1.500000       1.117986       1.758002       0.058111
       1.510000       1.149431       1.780628       0.059008
       1.520000       1.187413       1.806603       0.060034
       1.530000       1.231407       1.835419       0.061122
       1.540000       1.280561       1.865168       0.062175
       1.550000       1.333694       1.892829       0.063077
       1.560000       1.389383       1.914878       0.063722
       1.570000       1.446121       1.928115       0.064037
       1.580000       1.502539       1.930485       0.064003
       1.590000       1.557608       1.921633       0.063655
       1.600000       1.610740       1.903014       0.063065
       1.610000       1.661780       1.877543       0.062323
       1.620000       1.710893       1.848955       0.061509
       1.630000       1.758445       1.821106       0.060683
       1.640000       1.804912       1.797422       0.059880
       1.650000       1.850825       1.780552       0.059118
       1.660000       1.896712       1.772205       0.058405
       1.670000       1.943038       1.773100       0.057746
       1.680000       1.990170       1.782996       0.057143
       1.690000       2.038357       1.800780       0.056601
       1.700000       2.087710       1.824636       0.056128
       1.710000       2.138134       1.852281       0.055737
       1.720000       2.189219       1.881254       0.055450
       1.730000       2.240178       1.909196       0.055297
       1.740000       2.289899       1.934076       0.055311
       1.750000       2.337096       1.954334       0.055521
       1.760000       2.380481       1.968966       0.055939
       1.770000       2.418845       1.977528       0.056557
       1.780000       2.451009       1.980089       0.057343
       1.790000       2.475703       1.977112       0.058242
       1.800000       2.491413       1.969365       0.059184
       1.810000       2.496274       1.957900       0.060098
       1.820000       2.488095       1.944097       0.060931
       1.830000       2.464562       1.929657       0.061660
       1.840000       2.423644       1.916450       0.062298
       1.850000       2.364130       1.906221       0.062885
       1.860000       2.286152       1.900267       0.063479
       1.870000       2.191486       1.899219       0.064131
       1.880000       2.083487       1.902969       0.064875
       1.890000       1.966610       1.910703       0.065719
       1.900000       1.845682       1.920953       0.066654
       1.910000       1.725160       1.931638       0.067659
       1.920000       1.608601       1.940166       0.068719
       1.930000       1.498434       1.943683       0.069828
       1.940000       1.396005       1.939550       0.070999
       1.950000       1.301798       1.925913       0.072247
       1.960000       1.215729       1.902159       0.073585
       1.970000       1.137412       1.869060       0.075006
       1.980000       1.066364       1.828560       0.076485
       1.990000       1.002121       1.783325       0.077976
       2.000000       0.944275       1.736261       0.079428
       2.010000       0.892482       1.690102       0.080801
       2.020000       0.846435       1.647120       0.082085
       2.030000       0.805847       1.608924       0.083304
       2.040000       0.770422       1.576333       0.084509
       2.050000       0.739846       1.549355       0.085761
       2.060000       0.713769       1.527257       0.087103
       2.070000       0.691791       1.508735       0.088546
       2.080000       0.673451       1.492153       0.090064
       2.090000       0.658216       1.475807       0.091603
       2.100000       0.645478       1.458192       0.093104
       2.110000       0.634572       1.438253       0.094528
       2.120000       0.624825       1.415556       0.095872
       2.130000       0.615625       1.390340       0.097171
       2.140000       0.606511       1.363391       0.098487
       2.150000       0.597249       1.335775       0.099881
       2.160000       0.587863       1.308513       0.101395
       2.170000       0.578616       1.282293       0.103032
       2.180000       0.569930       1.257349       0.104753
       2.190000       0.562291       1.233518       0.106488
       2.200000       0.556147       1.210474       0.108148
       2.210000       0.551842       1.188003       0.109648
       2.220000       0.549575       1.166211       0.110925
       2.230000       0.549385       1.145548       0.111954
       2.240000       0.551152       1.126662       0.112740
       2.250000       0.554627       1.110153       0.113314
       2.260000       0.559468       1.096359       0.113707
       2.270000       0.565306       1.085241       0.113940
       2.280000       0.571818       1.076386       0.114019
       2.290000       0.578783       1.069100       0.113948
       2.300000       0.586112       1.062549       0.113742
       2.310000       0.593835       1.055899       0.113441
       2.320000       0.602049       1.048430       0.113106
       2.330000       0.610864       1.039625       0.112807
       2.340000       0.620353       1.029244       0.112604
       2.350000       0.630529       1.017382       0.112531
       2.360000       0.641364       1.004487       0.112588
       2.370000       0.652830       0.991314       0.112746
       2.380000       0.664943       0.978793       0.112950
       2.390000       0.677778       0.967833       0.113129
       2.400000       0.691438       0.959124       0.113216
       2.410000       0.705983       0.952972       0.113153
       2.420000       0.721353       0.949217       0.112917
       2.430000       0.737324       0.947249       0.112520
       2.440000       0.753519       0.946138       0.112012
       2.450000       0.769460       0.944847       0.111470
       2.460000       0.784619       0.942463       0.110984
       2.470000       0.798428       0.938377       0.110643
       2.480000       0.810253       0.932325       0.110527
       2.490000       0.819357       0.924310       0.110699
       2.500000       0.824885       0.914446       0.111205
       2.510000       0.825921       0.902840       0.112068
       2.520000       0.821603       0.889569       0.113284
       2.530000       0.811295       0.874766       0.114820
       2.540000       0.794775       0.858725       0.116608
       2.550000       0.772361       0.841960       0.118549
       2.560000       0.744923       0.825147       0.120526
       2.570000       0.713762       0.808986       0.122423
       2.580000       0.680389       0.794044       0.124141
       2.590000       0.646289       0.780652       0.125624
       2.600000       0.612736       0.768897       0.126859
       2.610000       0.580693       0.758675       0.127874
       2.620000       0.550801       0.749799       0.128714
       2.630000       0.523417       0.742075       0.129426
       2.640000       0.498676       0.735336       0.130029
       2.650000       0.476542       0.729441       0.130508
       2.660000       0.456860       0.724260       0.130805
       2.670000       0.439401       0.719689       0.130832
       2.680000       0.423896       0.715680       0.130481
       2.690000       0.410079       0.712270       0.129652
       2.700000       0.397713       0.709578       0.128276
       2.710000       0.386608       0.707755       0.126341
       2.720000       0.376622       0.706923       0.123903
       2.730000       0.367653       0.707122       0.121077
       2.740000       0.359618       0.708301       0.118025
       2.750000       0.352449       0.710363       0.114920
       2.760000       0.346085       0.713230       0.111919
       2.770000       0.340485       0.716900       0.109138
       2.780000       0.335625       0.721449       0.106644
       2.790000       0.331507       0.726965       0.104455
       2.800000       0.328140       0.733460       0.102549
       2.810000       0.325528       0.740786       0.100878
       2.820000       0.323650       0.748614       0.099394
       2.830000       0.322458       0.756469       0.098057
       2.840000       0.321874       0.763805       0.096853
       2.850000       0.321809       0.770099       0.095796
       2.860000       0.322184       0.774906       0.094927
       2.870000       0.322951       0.777897       0.094304
       2.880000       0.324104       0.778865       0.093990
       2.890000       0.325679       0.777752       0.094040
       2.900000       0.327734       0.774683       0.094493
       2.910000       0.330326       0.770004       0.095371
       2.920000       0.333493       0.764281       0.096677
       2.930000       0.337239       0.758258       0.098392
       2.940000       0.341533       0.752784       0.100476
       2.950000       0.346311       0.748728       0.102873
       2.960000       0.351483       0.746917       0.105514
       2.970000       0.356947       0.748074       0.108327
       2.980000       0.362598       0.752795       0.111242
       2.990000       0.368345       0.761528       0.114195
       3.000000       0.374124       0.774565       0.117119
       3.010000       0.379900       0.792049       0.119940
       3.020000       0.385671       0.813968       0.122558
       3.030000       0.391466       0.840158       0.124854
       3.040000       0.397347       0.870299       0.126694
       3.050000       0.403418       0.903929       0.127950
       3.060000       0.409828       0.940469       0.128516
       3.070000       0.416767       0.979270       0.128322
       3.080000       0.424450       1.019653       0.127340
       3.090000       0.433088       1.060942       0.125590
       3.100000       0.442862       1.102441       0.123146
       3.110000       0.453899       1.143377       0.120140
       3.120000       0.466258       1.182818       0.116751
       3.130000       0.479929       1.219614       0.113186
       3.140000       0.494845       1.252419       0.109660
       3.150000       0.510905       1.279802       0.106361
       3.160000       0.527996       1.300448       0.103440
       3.170000       0.546004       1.313422       0.100992
       3.180000       0.564811       1.318430       0.099061
       3.190000       0.584280       1.315974       0.097641
       3.200000       0.604243       1.307329       0.096687
       3.210000       0.624523       1.294302       0.096120
       3.220000       0.644972       1.278872       0.095841
       3.230000       0.665528       1.262816       0.095736
       3.240000       0.686273       1.247474       0.095695
       3.250000       0.707473       1.233675       0.095617
       3.260000       0.729576       1.221803       0.095429
       3.270000       0.753180       1.211947       0.095088
       3.280000       0.778952       1.204052       0.094588
       3.290000       0.807530       1.198051       0.093956
       3.300000       0.839415       1.193952       0.093251
       3.310000       0.874874       1.191868       0.092553
       3.320000       0.913868       1.191987       0.091954
       3.330000       0.956017       1.194500       0.091549
       3.340000       1.000610       1.199515       0.091425
       3.350000       1.046687       1.207015       0.091647
       3.360000       1.093149       1.216876       0.092257
       3.370000       1.138912       1.228940       0.093263
       3.380000       1.183042       1.243094       0.094646
       3.390000       1.224889       1.259332       0.096354
       3.400000       1.264215       1.277769       0.098316
       3.410000       1.301303       1.298604       0.100445
       3.420000       1.337003       1.322041       0.102655
       3.430000       1.372623       1.348157       0.104866
       3.440000       1.409669       1.376741       0.107013
       3.450000       1.449466       1.407156       0.109052
       3.460000       1.492785       1.438292       0.110951
       3.470000       1.539556       1.468674       0.112686
       3.480000       1.588743       1.496733       0.114227
       3.490000       1.638396       1.521142       0.115536
       3.500000       1.685907       1.541095       0.116564
       3.510000       1.728412       1.556400       0.117269
       3.520000       1.763303       1.567367       0.117624
       3.530000       1.788746       1.574599       0.117627
       3.540000       1.804105       1.578823       0.117299
       3.550000       1.810159       1.580852       0.116673
       3.560000       1.809020       1.581652       0.115780
       3.570000       1.803760       1.582396       0.114647
       3.580000       1.797833       1.584433       0.113294
       3.590000       1.794476       1.589130       0.111747
       3.600000       1.796218       1.597676       0.110046
       3.610000       1.804604       1.610921       0.108249
       3.620000       1.820131       1.629304       0.106430
       3.630000       1.842375       1.652849       0.104667
       3.640000       1.870271       1.681182       0.103034
       3.650000       1.902467       1.713556       0.101590
       3.660000       1.937663       1.748877       0.100376
       3.670000       1.974829       1.785772       0.099415
       3.680000       2.013241       1.822685       0.098716
       3.690000       2.052374       1.857997       0.098284
       3.700000       2.091779       1.890139       0.098121
       3.710000       2.131035       1.917715       0.098225
       3.720000       2.169832       1.939654       0.098590
       3.730000       2.208135       1.955408       0.099198
       3.740000       2.246348       1.965163       0.100020
       3.750000       2.285360       1.969975       0.101020
       3.760000       2.326411       1.971737       0.102152
       3.770000       2.370755       1.972908       0.103367
       3.780000       2.419220       1.976083       0.104612
       3.790000       2.471807       1.983534       0.105828
       3.800000       2.527519       1.996864       0.106962
       3.810000       2.584494       2.016871       0.107974
       3.820000       2.640428       2.043608       0.108856
       3.830000       2.693107       2.076571       0.109639
       3.840000       2.740845       2.114893       0.110389
       3.850000       2.782649       2.157472       0.111198
       3.860000       2.818101       2.202975       0.112155
       3.870000       2.847096       2.249792       0.113327
       3.880000       2.869608       2.296051       0.114746
       3.890000       2.885624       2.339760       0.116405
       3.900000       2.895202       2.379096       0.118268
       3.910000       2.898595       2.412731       0.120279
       3.920000       2.896330       2.440058       0.122386
       3.930000       2.889229       2.461223       0.124549
       3.940000       2.878364       2.476949       0.126754
       3.950000       2.864928       2.488221       0.129014
       3.960000       2.849996       2.495960       0.131363
       3.970000       2.834192       2.500785       0.133854
       3.980000       2.817421       2.502927       0.136538
       3.990000       2.798824       2.502293       0.139453
       4.000000       2.777050       2.498613       0.142614
       4.010000       2.750758       2.491581       0.146010
       4.020000       2.719106       2.480985       0.149602
       4.030000       2.682027       2.466812       0.153330
       4.040000       2.640181       2.449378       0.157112
       4.050000       2.594724       2.429438       0.160840
       4.060000       2.547063       2.408174       0.164382
       4.070000       2.498758       2.387027       0.167581
       4.080000       2.451551       2.367356       0.170280
       4.090000       2.407407       2.350058       0.172354
       4.100000       2.368455       2.335295       0.173741
       4.110000       2.336791       2.322438       0.174459
       4.120000       2.314208       2.310276       0.174611
       4.130000       2.301935       2.297398       0.174354
       4.140000       2.300443       2.282603       0.173871
       4.150000       2.309317       2.265174       0.173341
       4.160000       2.327219       2.244939       0.172913
       4.170000       2.351965       2.222152       0.172693
       4.180000       2.380746       2.197315       0.172745
       4.190000       2.410507       2.171035       0.173095
       4.200000       2.438405       2.143957       0.173740
       4.210000       2.462217       2.116785       0.174666
       4.220000       2.480583       2.090303       0.175851
       4.230000       2.493027       2.065372       0.177275
       4.240000       2.499796       2.042854       0.178907
       4.250000       2.501598       2.023486       0.180699
       4.260000       2.499318       2.007736       0.182568
       4.270000       2.493768       1.995728       0.184404
       4.280000       2.485533       1.987241       0.186082
       4.290000       2.474912       1.981791       0.187491
       4.300000       2.461931       1.978727       0.188562
       4.310000       2.446415       1.977289       0.189283
       4.320000       2.428072       1.976623       0.189691
       4.330000       2.406642       1.975784       0.189856
       4.340000       2.382074       1.973788       0.189850
       4.350000       2.354708       1.969748       0.189730
       4.360000       2.325380       1.963051       0.189531
       4.370000       2.295397       1.953525       0.189275
       4.380000       2.266380       1.941513       0.188979
       4.390000       2.240029       1.927860       0.188674
       4.400000       2.217871       1.913834       0.188403
       4.410000       2.201036       1.900990       0.188212
       4.420000       2.190118       1.891004       0.188139
       4.430000       2.185145       1.885462       0.188198
       4.440000       2.185622       1.885646       0.188383
       4.450000       2.190620       1.892351       0.188675
       4.460000       2.198832       1.905747       0.189061
       4.470000       2.208587       1.925306       0.189550
       4.480000       2.217897       1.949796       0.190168
       4.490000       2.224607       1.977370       0.190958
       4.500000       2.226721       2.005766       0.191960
       4.510000       2.222828       2.032600       0.193202
       4.520000       2.212486       2.055728       0.194684
       4.530000       2.196350       2.073583       0.196368
       4.540000       2.175983       2.085397       0.198184
       4.550000       2.153397       2.091249       0.200030
       4.560000       2.130551       2.091928       0.201788
       4.570000       2.108996       2.088678       0.203339
       4.580000       2.089778       2.082925       0.204577
       4.590000       2.073542       2.076079       0.205418
       4.600000       2.060713       2.069438       0.205805
       4.610000       2.051585       2.064173       0.205695
       4.620000       2.046305       2.061329       0.205054
       4.630000       2.044778       2.061771       0.203847
       4.640000       2.046625       2.066071       0.202051
       4.650000       2.051255       2.074358       0.199668
       4.660000       2.058046       2.086208       0.196747
       4.670000       2.066549       2.100641       0.193394
       4.680000       2.076621       2.116261       0.189758
       4.690000       2.088424       2.131512       0.186013
       4.700000       2.102305       2.144983       0.182324
       4.710000       2.118595       2.155654       0.178825
       4.720000       2.137404       2.163018       0.175609
       4.730000       2.158454       2.167018       0.172733
       4.740000       2.180999       2.167856       0.170229
       4.750000       2.203819       2.165770       0.168118
       4.760000       2.225290       2.160863       0.166408
       4.770000       2.243516       2.153028       0.165087
       4.780000       2.256545       2.141960       0.164109
       4.790000       2.262675       2.127256       0.163394
       4.800000       2.260805       2.108599       0.162830
       4.810000       2.250752       2.085981       0.162287
       4.820000       2.233379       2.059897       0.161640
       4.830000       2.210432       2.031396       0.160780
       4.840000       2.184135       2.001973       0.159636
       4.850000       2.156664       1.973323       0.158178
       4.860000       2.129735       1.947058       0.156417
       4.870000       2.104419       1.924463       0.154407
       4.880000       2.081223       1.906342       0.152232
       4.890000       2.060353       1.892968       0.149996
       4.900000       2.042001       1.884094       0.147811
       4.910000       2.026511       1.879009       0.145782
       4.920000       2.014346       1.876616       0.143998
       4.930000       2.005888       1.875534       0.142536
       4.940000       2.001184       1.874257       0.141450
       4.950000       1.999770       1.871381       0.140779
       4.960000       2.000661       1.865871       0.140548
       4.970000       2.002529       1.857324       0.140767
       4.980000       2.004008       1.846127       0.141429
       4.990000       2.004012       1.833448       0.142516
       5.000000       2.001935       1.821007       0.143991
       5.010000       1.997664       1.810688       0.145806
       5.020000       1.991448       1.804106       0.147904
       5.030000       1.983704       1.802247       0.150228
       5.040000       1.974858       1.805267       0.152726
       5.050000       1.965271       1.812458       0.155361
       5.060000       1.955205       1.822375       0.158105
       5.070000       1.944837       1.833084       0.160938
       5.080000       1.934292       1.842488       0.163842
       5.090000       1.923697       1.848658       0.166796
       5.100000       1.913250       1.850116       0.169771
       5.110000       1.903270       1.846029       0.172722
       5.120000       1.894192       1.836310       0.175584
       5.130000       1.886504       1.821608       0.178275
       5.140000       1.880659       1.803190       0.180693
       5.150000       1.876991       1.782702       0.182728
       5.160000       1.875643       1.761833       0.184267
       5.170000       1.876549       1.741980       0.185197
       5.180000       1.879465       1.724009       0.185417
       5.190000       1.884096       1.708170       0.184851
       5.200000       1.890258       1.694204       0.183468
       5.210000       1.898045       1.681578       0.181298
       5.220000       1.907936       1.669776       0.178432
       5.230000       1.920801       1.658568       0.175021
       5.240000       1.937803       1.648154       0.171251
       5.250000       1.960225       1.639168       0.167321
       5.260000       1.989236       1.632531       0.163420
       5.270000       2.025662       1.629240       0.159711
       5.280000       2.069757       1.630168       0.156319
       5.290000       2.121022       1.635929       0.153331
       5.300000       2.178085       1.646816       0.150803
       5.310000       2.238714       1.662776       0.148763
       5.320000       2.299977       1.683400       0.147217
       5.330000       2.358595       1.707925       0.146154
       5.340000       2.411386       1.735251       0.145549
       5.350000       2.455691       1.763993       0.145368
       5.360000       2.489599       1.792553       0.145579
       5.370000       2.511909       1.819170       0.146158
       5.380000       2.521889       1.841994       0.147093
       5.390000       2.519048       1.859182       0.148379
       5.400000       2.503087       1.869086       0.150013
       5.410000       2.474091       1.870490       0.151990
       5.420000       2.432842       1.862846       0.154299
       5.430000       2.381042       1.846403       0.156929
       5.440000       2.321323       1.822213       0.159865
       5.450000       2.257004       1.791980       0.163090
       5.460000       2.191714       1.757835       0.166582
       5.470000       2.128987       1.722057       0.170302
       5.480000       2.071926       1.686809       0.174197
       5.490000       2.022989       1.653902       0.178196
       5.500000       1.983894       1.624650       0.182214
       5.510000       1.955647       1.599826       0.186163
       5.520000       1.938631       1.579736       0.189956
       5.530000       1.932734       1.564382       0.193524
       5.540000       1.937445       1.553635       0.196811
       5.550000       1.951889       1.547390       0.199781
       5.560000       1.974795       1.545626       0.202406
       5.570000       2.004439       1.548388       0.204659
       5.580000       2.038640       1.555698       0.206505
       5.590000       2.074895       1.567453       0.207894
       5.600000       2.110681       1.583370       0.208776
       5.610000       2.143864       1.602998       0.209112
       5.620000       2.173087       1.625803       0.208892
       5.630000       2.197948       1.651265       0.208157
       5.640000       2.218902       1.678935       0.206995
       5.650000       2.236903       1.708397       0.205540
       5.660000       2.252953       1.739154       0.203953
       5.670000       2.267750       1.770517       0.202400
       5.680000       2.281555       1.801569       0.201031
       5.690000       2.294331       1.831252       0.199965
       5.700000       2.306060       1.858543       0.199279
       5.710000       2.317090       1.882652       0.198998
       5.720000       2.328354       1.903199       0.199097
       5.730000       2.341358       1.920304       0.199507
       5.740000       2.357969       1.934586       0.200125
       5.750000       2.380116       1.947017       0.200832
       5.760000       2.409513       1.958680       0.201517
       5.770000       2.447470       1.970470       0.202104
       5.780000       2.494755       1.982857       0.202571
       5.790000       2.551506       1.995780       0.202961
       5.800000       2.617158       2.008703       0.203375
       5.810000       2.690396       2.020768       0.203950
       5.820000       2.769197       2.030985       0.204831
       5.830000       2.850979       2.038381       0.206143
       5.840000       2.932918       2.042106       0.207970
       5.850000       3.012396       2.041544       0.210335
       5.860000       3.087482       2.036447       0.213202
       5.870000       3.157244       2.027064       0.216479
       5.880000       3.221721       2.014164       0.220030
       5.890000       3.281538       1.998917       0.223698
       5.900000       3.337284       1.982632       0.227323
       5.910000       3.388947       1.966460       0.230759
       5.920000       3.435604       1.951190       0.233887
       5.930000       3.475487       1.937201       0.236624
       5.940000       3.506380       1.924593       0.238927
       5.950000       3.526235       1.913417       0.240796
       5.960000       3.533824       1.903903       0.242267
       5.970000       3.529193       1.896572       0.243407
       5.980000       3.513786       1.892179       0.244299
       5.990000       3.490189       1.891523       0.245038
       6.000000       3.461636       1.895186       0.245720
       6.010000       3.431454       1.903311       0.246444
       6.020000       3.402617       1.915479       0.247307
       6.030000       3.377472       1.930734       0.248395
       6.040000       3.357629       1.947782       0.249765
       6.050000       3.343993       1.965331       0.251431
       6.060000       3.336890       1.982443       0.253351
       6.070000       3.336247       1.998785       0.255433
       6.080000       3.341724       2.014626       0.257557
       6.090000       3.352746       2.030620       0.259602
       6.100000       3.368408       2.047456       0.261479
       6.110000       3.387348       2.065534       0.263150
       6.120000       3.407686       2.084797       0.264631
       6.130000       3.427098       2.104733       0.265980
       6.140000       3.443032       2.124530       0.267271
       6.150000       3.453002       2.143284       0.268570
       6.160000       3.454913       2.160175       0.269914
       6.170000       3.447356       2.174566       0.271302
       6.180000       3.429817       2.186044       0.272698
       6.190000       3.402751       2.194499       0.274048
       6.200000       3.367503       2.200250       0.275302
       6.210000       3.326106       2.204201       0.276428
       6.220000       3.281040       2.207929       0.277426
       6.230000       3.235001       2.213610       0.278330
       6.240000       3.190726       2.223802       0.279195
       6.250000       3.150846       2.241116       0.280082
       6.260000       3.117710       2.267884       0.281038
       6.270000       3.093187       2.305897       0.282089
       6.280000       3.078479       2.356244       0.283238
       6.290000       3.074020       2.419237       0.284470
       6.300000       3.079473       2.494364       0.285765
       6.310000       3.093806       2.580229       0.287100
       6.320000       3.115397       2.674480       0.288454
       6.330000       3.142171       2.773791       0.289803
       6.340000       3.171772       2.873986       0.291116
       6.350000       3.201809       2.970403       0.292351
       6.360000       3.230151       3.058478       0.293465
       6.370000       3.255214       3.134441       0.294420
       6.380000       3.276145       3.195913       0.295188
       6.390000       3.292860       3.242206       0.295760
       6.400000       3.305910       3.274202       0.296148
       6.410000       3.316240       3.293886       0.296385
       6.420000       3.324907       3.303705       0.296519
       6.430000       3.332825       3.305974       0.296608
       6.440000       3.340557       3.302459       0.296704
       6.450000       3.348147       3.294205       0.296849
       6.460000       3.355033       3.281609       0.297070
       6.470000       3.360071       3.264664       0.297381
       6.480000       3.361742       3.243296       0.297791
       6.490000       3.358495       3.217666       0.298312
       6.500000       3.349115       3.188300       0.298963
       6.510000       3.332927       3.156004       0.299771
       6.520000       3.309773       3.121600       0.300761
       6.530000       3.279818       3.085635       0.301958
       6.540000       3.243331       3.048198       0.303376
       6.550000       3.200571       3.008966       0.305014
       6.560000       3.151849       2.967446       0.306851
       6.570000       3.097674       2.923298       0.308836
       6.580000       3.038895       2.876591       0.310887
       6.590000       2.976695       2.827845       0.312900
       6.600000       2.912434       2.777865       0.314762
       6.610000       2.847383       2.727482       0.316365
       6.620000       2.782491       2.677341       0.317620
       6.630000       2.718267       2.627844       0.318466
       6.640000       2.654845       2.579251       0.318876
       6.650000       2.592188       2.531850       0.318869
       6.660000       2.530364       2.486122       0.318513
       6.670000       2.469780       2.442784       0.317915
       6.680000       2.411255       2.402692       0.317211
       6.690000       2.355893       2.366595       0.316546
       6.700000       2.304775       2.334804       0.316053
       6.710000       2.258600       2.306915       0.315839
       6.720000       2.217434       2.281674       0.315978
       6.730000       2.180660       2.257093       0.316508
       6.740000       2.147146       2.230796       0.317444
       6.750000       2.115584       2.200534       0.318782
       6.760000       2.084856       2.164706       0.320511
       6.770000       2.054337       2.122741       0.322614
       6.780000       2.024038       2.075221       0.325064
       6.790000       1.994580       2.023737       0.327814
       6.800000       1.967042       1.970557       0.330794
       6.810000       1.942733       1.918198       0.333913
       6.820000       1.922920       1.869021       0.337077
       6.830000       1.908545       1.824899       0.340207
       6.840000       1.899970       1.787014       0.343262
       6.850000       1.896809       1.755813       0.346251
       6.860000       1.897897       1.731085       0.349224
       6.870000       1.901452       1.712164       0.352265
       6.880000       1.905413       1.698173       0.355465
       6.890000       1.907877       1.688275       0.358906
       6.900000       1.907515       1.681835       0.362651
       6.910000       1.903787       1.678477       0.366747
       6.920000       1.896894       1.678006       0.371231
       6.930000       1.887475       1.680258       0.376135
       6.940000       1.876200       1.684949       0.381499
       6.950000       1.863437       1.691593       0.387360
       6.960000       1.849111       1.699532       0.393754
       6.970000       1.832796       1.708045       0.400704
       6.980000       1.813952       1.716489       0.408218
       6.990000       1.792197       1.724386       0.416303
       7.000000       1.767480       1.731398       0.424976
       7.010000       1.740101       1.737222       0.434281
       7.020000       1.710577       1.741442       0.444290
       7.030000       1.679436       1.743429       0.455099
       7.040000       1.647078       1.742363       0.466799
       7.050000       1.613751       1.737378       0.479469
       7.060000       1.579662       1.727798       0.493160
       7.070000       1.545145       1.713351       0.507907
       7.080000       1.510777       1.694278       0.523742
       7.090000       1.477395       1.671289       0.540705
       7.100000       1.445975       1.645403       0.558861
       7.110000       1.417454       1.617746       0.578296
       7.120000       1.392530       1.589364       0.599097
       7.130000       1.371530       1.561069       0.621331
       7.140000       1.354352       1.533342       0.645002
       7.150000       1.340497       1.506312       0.670029
       7.160000       1.329166       1.479821       0.696227
       7.170000       1.319418       1.453572       0.723309
       7.180000       1.310350       1.427305       0.750913
       7.190000       1.301264       1.400954       0.778647
       7.200000       1.291758       1.374702       0.806136
       7.210000       1.281739       1.348938       0.833068
       7.220000       1.271344       1.324136       0.859197
       7.230000       1.260841       1.300739       0.884326
       7.240000       1.250536       1.279088       0.908270
       7.250000       1.240734       1.259431       0.930818
       7.260000       1.231737       1.241972       0.951722
       7.270000       1.223847       1.226930       0.970724
       7.280000       1.217356       1.214556       0.987604
       7.290000       1.212503       1.205113       1.002244
       7.300000       1.209425       1.198811       1.014682
       7.310000       1.208101       1.195734       1.025125
       7.320000       1.208322       1.195770       1.033915
       7.330000       1.209686       1.198565       1.041466
       7.340000       1.211618       1.203503       1.048194
       7.350000       1.213425       1.209736       1.054456
       7.360000       1.214384       1.216280       1.060527
       7.370000       1.213853       1.222167       1.066584
       7.380000       1.211381       1.226603       1.072707
       7.390000       1.206768       1.229086       1.078868
       7.400000       1.200049       1.229436       1.084931
       7.410000       1.191425       1.227748       1.090668
       7.420000       1.181178       1.224313       1.095819
       7.430000       1.169624       1.219551       1.100175
       7.440000       1.157098       1.213938       1.103653
       7.450000       1.143955       1.207966       1.106318
       7.460000       1.130573       1.202099       1.108335
       7.470000       1.117330       1.196762       1.109892
       7.480000       1.104564       1.192340       1.111123
       7.490000       1.092503       1.189188       1.112071
       7.500000       1.081203       1.187623       1.112685
       7.510000       1.070510       1.187925       1.112835
       7.520000       1.060083       1.190321       1.112328
       7.530000       1.049491       1.194991       1.110922
       7.540000       1.038354       1.202070       1.108355
       7.550000       1.026480       1.211644       1.104386
       7.560000       1.013929       1.223747       1.098852
       7.570000       1.000966       1.238362       1.091719
       7.580000       0.987937       1.255425       1.083093
       7.590000       0.975116       1.274845       1.073211
       7.600000       0.962597       1.296525       1.062389
       7.610000       0.950273       1.320387       1.050983
       7.620000       0.937922       1.346394       1.039358
       7.630000       0.925315       1.374546       1.027878
       7.640000       0.912334       1.404870       1.016914
       7.650000       0.899013       1.437377       1.006845
       7.660000       0.885536       1.472017       0.998049
       7.670000       0.872185       1.508668       0.990887
       7.680000       0.859295       1.547144       0.985678
       7.690000       0.847196       1.587227       0.982690
       7.700000       0.836173       1.628650       0.982138
       7.710000       0.826426       1.671036       0.984217
       7.720000       0.818060       1.713793       0.989125
       7.730000       0.811087       1.756043       0.997094
       7.740000       0.805469       1.796638       1.008389
       7.750000       0.801158       1.834315       1.023282
       7.760000       0.798151       1.867920       1.041989
       7.770000       0.796503       1.896625       1.064595
       7.780000       0.796318       1.920038       1.090975
       7.790000       0.797702       1.938185       1.120737
       7.800000       0.800690       1.951430       1.153201
       7.810000       0.805193       1.960413       1.187447
       7.820000       0.810971       1.966016       1.222407
       7.830000       0.817645       1.969331       1.257007
       7.840000       0.824751       1.971569       1.290310
       7.850000       0.831797       1.973899       1.321619
       7.860000       0.838312       1.977271       1.350525
       7.870000       0.843871       1.982280       1.376885
       7.880000       0.848106       1.989120       1.400742
       7.890000       0.850717       1.997602       1.422245
       7.900000       0.851503       2.007212       1.441562
       7.910000       0.850408       2.017160       1.458838
       7.920000       0.847559       2.026419       1.474191
       7.930000       0.843271       2.033779       1.487736
       7.940000       0.838009       2.037945       1.499614
       7.950000       0.832329       2.037675       1.510000
       7.960000       0.826804       2.031960       1.519071
       7.970000       0.821973       2.020194       1.526926
       7.980000       0.818310       2.002309       1.533510
       7.990000       0.816216       1.978846       1.538557
       8.000000       0.816034       1.950915       1.541631
       8.010000       0.818043       1.920038       1.542240
       8.020000       0.822461       1.887878       1.540018
       8.030000       0.829428       1.855938       1.534892
       8.040000       0.839001       1.825326       1.527167
       8.050000       0.851145       1.796679       1.517518
       8.060000       0.865742       1.770231       1.506876
       8.070000       0.882596       1.745975       1.496268
       8.080000       0.901450       1.723817       1.486662
       8.090000       0.921998       1.703680       1.478861
       8.100000       0.943918       1.685546       1.473461
       8.110000       0.966901       1.669478       1.470866
       8.120000       0.990700       1.655624       1.471315
       8.130000       1.015183       1.644226       1.474907
       8.140000       1.040379       1.635608       1.481591
       8.150000       1.066507       1.630147       1.491158
       8.160000       1.093974       1.628199       1.503260
       8.170000       1.123341       1.630007       1.517476
       8.180000       1.155271       1.635593       1.533413
       8.190000       1.190462       1.644712       1.550829
       8.200000       1.229596       1.656850       1.569729
       8.210000       1.273284       1.671304       1.590406
       8.220000       1.322006       1.687292       1.613411
       8.230000       1.376035       1.704073       1.639462
       8.240000       1.435332       1.721020       1.669326
       8.250000       1.499458       1.737651       1.703701
       8.260000       1.567524       1.753601       1.743158
       8.270000       1.638246       1.768595       1.788131
       8.280000       1.710132       1.782443       1.838980
       8.290000       1.781760       1.795046       1.896070
       8.300000       1.852074       1.806419       1.959835
       8.310000       1.920549       1.816682       2.030804
       8.320000       1.987178       1.826029       2.109560
       8.330000       2.052236       1.834649       2.196649
       8.340000       2.115947       1.842632       2.292451
       8.350000       2.178107       1.849895       2.397041
       8.360000       2.237824       1.856159       2.510058
       8.370000       2.293415       1.861018       2.630607
       8.380000       2.342545       1.864078       2.757186
       8.390000       2.382601       1.865114       2.887698
       8.400000       2.411214       1.864171       3.019539
       8.410000       2.426762       1.861533       3.149803
       8.420000       2.428652       1.857586       3.275576
       8.430000       2.417304       1.852626       3.394255
       8.440000       2.393883       1.846739       3.503806
       8.450000       2.359972       1.839788       3.602871
       8.460000       2.317312       1.831516       3.690726
       8.470000       2.267669       1.821705       3.767119
       8.480000       2.212782       1.810304       3.832101
       8.490000       2.154363       1.797494       3.885911
       8.500000       2.094108       1.783633       3.928942
       8.510000       2.033728       1.769137       3.961718
       8.520000       1.974933       1.754353       3.984846
       8.530000       1.919368       1.739508       3.998908
       8.540000       1.868493       1.724764       4.004351
       8.550000       1.823439       1.710383       4.001429
       8.560000       1.784911       1.696889       3.990235
       8.570000       1.753167       1.685139       3.970811
       8.580000       1.728070       1.676248       3.943268
       8.590000       1.709213       1.671369       3.907897
       8.600000       1.696092       1.671424       3.865241
       8.610000       1.688273       1.676864       3.816131
       8.620000       1.685539       1.687535       3.761666
       8.630000       1.687921       1.702673       3.703123
       8.640000       1.695604       1.721033       3.641806
       8.650000       1.708724       1.741092       3.578875
       8.660000       1.727116       1.761274       3.515195
       8.670000       1.750113       1.780141       3.451249
       8.680000       1.776454       1.796504       3.387149
       8.690000       1.804329       1.809472       3.322785
       8.700000       1.831545       1.818447       3.258083
       8.710000       1.855781       1.823097       3.193279
       8.720000       1.874860       1.823296       3.129089
       8.730000       1.886994       1.819057       3.066662
       8.740000       1.890927       1.810458       3.007334
       8.750000       1.885974       1.797593       2.952290
       8.760000       1.871986       1.780563       2.902267
       8.770000       1.849300       1.759516       2.857380
       8.780000       1.818704       1.734713       2.817122
       8.790000       1.781412       1.706605       2.780512
       8.800000       1.738995       1.675891       2.746341
       8.810000       1.693233       1.643532       2.713465
       8.820000       1.645937       1.610685       2.681076
       8.830000       1.598762       1.578548       2.648885
       8.840000       1.553055       1.548160       2.617167
       8.850000       1.509783       1.520210       2.586674
       8.860000       1.469520       1.494926       2.558433
       8.870000       1.432505       1.472093       2.533486
       8.880000       1.398743       1.451179       2.512649
       8.890000       1.368107       1.431538       2.496300
       8.900000       1.340428       1.412588       2.484254
       8.910000       1.315557       1.393909       2.475727
       8.920000       1.293409       1.375261       2.469393
       8.930000       1.273993       1.356541       2.463545
       8.940000       1.257446       1.337763       2.456330
       8.950000       1.244043       1.319062       2.446060
       8.960000       1.234178       1.300701       2.431514
       8.970000       1.228302       1.283083       2.412171
       8.980000       1.226806       1.266740       2.388268
       8.990000       1.229908       1.252320       2.360659
       9.000000       1.237544       1.240554       2.330524
       9.010000       1.249321       1.232204       2.299032
       9.020000       1.264534       1.227989       2.267062
       9.030000       1.282244       1.228518       2.235084
       9.040000       1.301424       1.234233       2.203199
       9.050000       1.321129       1.245375       2.171297
       9.060000       1.340666       1.261983       2.139263
       9.070000       1.359699       1.283903       2.107141
       9.080000       1.378228       1.310827       2.075208
       9.090000       1.396458       1.342320       2.043964
       9.100000       1.414575       1.377824       2.014058
       9.110000       1.432544       1.416595       1.986222
       9.120000       1.449994       1.457584       1.961210
       9.130000       1.466247       1.499287       1.939781
       9.140000       1.480439       1.539667       1.922691
       9.150000       1.491701       1.576219       1.910676
       9.160000       1.499304       1.606222       1.904410
       9.170000       1.502762       1.627166       1.904424
       9.180000       1.501870       1.637204       1.911017
       9.190000       1.496699       1.635531       1.924175
       9.200000       1.487572       1.622515       1.943539
       9.210000       1.475031       1.599599       1.968424
       9.220000       1.459811       1.568989       1.997900
       9.230000       1.442792       1.533288       2.030911
       9.240000       1.424936       1.495161       2.066414
       9.250000       1.407205       1.457107       2.103503
       9.260000       1.390483       1.421322       2.141494
       9.270000       1.375511       1.389638       2.179958
       9.280000       1.362822       1.363491       2.218731
       9.290000       1.352670       1.343896       2.257905
       9.300000       1.344997       1.331439       2.297785
       9.310000       1.339434       1.326285       2.338814
       9.320000       1.335377       1.328217       2.381466
       9.330000       1.332106       1.336692       2.426132
       9.340000       1.328920       1.350929       2.473037
       9.350000       1.325259       1.370014       2.522183
       9.360000       1.320790       1.393001       2.573309
       9.370000       1.315449       1.419005       2.625858
       9.380000       1.309440       1.447255       2.678972
       9.390000       1.303186       1.477123       2.731535
       9.400000       1.297228       1.508112       2.782267
       9.410000       1.292090       1.539826       2.829866
       9.420000       1.288115       1.571893       2.873143
       9.430000       1.285361       1.603883       2.911111
       9.440000       1.283566       1.635228       2.943036
       9.450000       1.282239       1.665198       2.968448
       9.460000       1.280822       1.692963       2.987155
       9.470000       1.278869       1.717727       2.999259
       9.480000       1.276164       1.738880       3.005187
       9.490000       1.272737       1.756086       3.005684
       9.500000       1.268767       1.769286       3.001755
       9.510000       1.264433       1.778625       2.994545
       9.520000       1.259761       1.784371       2.985189
       9.530000       1.254543       1.786888       2.974683
       9.540000       1.248374       1.786679       2.963812
       9.550000       1.240771       1.784475       2.953135
       9.560000       1.231336       1.781277       2.943023
       9.570000       1.219885       1.778307       2.933671
       9.580000       1.206493       1.776820       2.925092
       9.590000       1.191447       1.777863       2.917082
       9.600000       1.175161       1.782066       2.909205
       9.610000       1.158093       1.789557       2.900841
       9.620000       1.140704       1.800001       2.891305
       9.630000       1.123452       1.812733       2.880017
       9.640000       1.106796       1.826903       2.866641
       9.650000       1.091193       1.841586       2.851161
       9.660000       1.077097       1.855859       2.833859
       9.670000       1.064957       1.868859       2.815232
       9.680000       1.055245       1.879846       2.795874
       9.690000       1.048471       1.888253       2.776342
       9.700000       1.045177       1.893708       2.757045
       9.710000       1.045883       1.896013       2.738169
       9.720000       1.051030       1.895116       2.719675
       9.730000       1.060918       1.891100       2.701358
       9.740000       1.075667       1.884224       2.682952
       9.750000       1.095215       1.874966       2.664217
       9.760000       1.119300       1.864060       2.644995
       9.770000       1.147450       1.852460       2.625222
       9.780000       1.178940       1.841241       2.604909
       9.790000       1.212738       1.831442       2.584140
       9.800000       1.247481       1.823915       2.563068
       9.810000       1.281498       1.819203       2.541918
       9.820000       1.312943       1.817487       2.520964
       9.830000       1.340015       1.818588       2.500501
       9.840000       1.361228       1.822012       2.480793
       9.850000       1.375654       1.827011       2.462041
       9.860000       1.383065       1.832655       2.444346
       9.870000       1.383909       1.837899       2.427672
       9.880000       1.379144       1.841676       2.411810
       9.890000       1.369965       1.842994       2.396343
       9.900000       1.357528       1.841048       2.380656
       9.910000       1.342774       1.835330       2.363988
       9.920000       1.326404       1.825681       2.345570
       9.930000       1.308964       1.812287       2.324783
       9.940000       1.290964       1.795580       2.301318
       9.950000       1.272931       1.776114       2.275268
       9.960000       1.255373       1.754426       2.247128
       9.970000       1.238678       1.730951       2.217735
       9.980000       1.223015       1.705981       2.188138
       9.990000       1.208289       1.679679       2.159460
      10.000000       1.194171       1.652142       2.132750
      10.010000       1.180207       1.623497       2.108857
      10.020000       1.165958       1.594003       2.088330
      10.030000       1.151156       1.564121       2.071400
      10.040000       1.135807       1.534505       2.058016
      10.050000       1.120201       1.505909       2.047949
      10.060000       1.104837       1.479061       2.040905
      10.070000       1.090265       1.454550       2.036619
      10.080000       1.076923       1.432811       2.034900
      10.090000       1.065014       1.414175       2.035643
      10.100000       1.054476       1.398957       2.038822
      10.110000       1.045048       1.387499       2.044482
      10.120000       1.036401       1.380131       2.052733
      10.130000       1.028277       1.377055       2.063734
      10.140000       1.020581       1.378188       2.077676
      10.150000       1.013406       1.383038       2.094768
      10.160000       1.006991       1.390654       2.115225
      10.170000       1.001637       1.399687       2.139261
      10.180000       0.997637       1.408569       2.167082
      10.190000       0.995224       1.415773       2.198850
      10.200000       0.994548       1.420081       2.234626
      10.210000       0.995680       1.420791       2.274317
      10.220000       0.998624       1.417819       2.317642
      10.230000       1.003337       1.411673       2.364153
      10.240000       1.009751       1.403322       2.413293
      10.250000       1.017785       1.394017       2.464479
      10.260000       1.027346       1.385082       2.517179
      10.270000       1.038297       1.377692       2.570962
      10.280000       1.050422       1.372671       2.625524
      10.290000       1.063383       1.370331       2.680688
      10.300000       1.076711       1.370422       2.736386
      10.310000       1.089824       1.372188       2.792610
      10.320000       1.102075       1.374567       2.849355
      10.330000       1.112816       1.376455       2.906556
      10.340000       1.121467       1.376976       2.964064
      10.350000       1.127579       1.375644       3.021643
      10.360000       1.130908       1.372368       3.079013
      10.370000       1.131458       1.367307       3.135873
      10.380000       1.129511       1.360641       3.191884
      10.390000       1.125604       1.352372       3.246566
      10.400000       1.120466       1.342252       3.299157
      10.410000       1.114920       1.329858       3.348498
      10.420000       1.109785       1.314781       3.393017
      10.430000       1.105806       1.296831       3.430858
      10.440000       1.103627       1.276173       3.460107
      10.450000       1.103802       1.253327       3.479027
      10.460000       1.106801       1.229049       3.486238
      10.470000       1.113001       1.204160       3.480772
      10.480000       1.122638       1.179417       3.462043
      10.490000       1.135727       1.155455       3.429787
      10.500000       1.151990       1.132821       3.384038
      10.510000       1.170804       1.112015       3.325195
      10.520000       1.191204       1.093513       3.254139
      10.530000       1.211945       1.077729       3.172354
      10.540000       1.231612       1.064952       3.081952
      10.550000       1.248776       1.055275       2.985545
      10.560000       1.262159       1.048550       2.885962
      10.570000       1.270774       1.044384       2.785907
      10.580000       1.274031       1.042187       2.687638
      10.590000       1.271767       1.041263       2.592798
      10.600000       1.264227       1.040934       2.502399
      10.610000       1.251983       1.040665       2.416947
      10.620000       1.235823       1.040140       2.336616
      10.630000       1.216610       1.039270       2.261410
      10.640000       1.195162       1.038133       2.191261
      10.650000       1.172169       1.036881       2.126089
      10.660000       1.148176       1.035645       2.065812
      10.670000       1.123598       1.034468       2.010349
      10.680000       1.098752       1.033245       1.959598
      10.690000       1.073889       1.031711       1.913420
      10.700000       1.049202       1.029466       1.871639
      10.710000       1.024855       1.026066       1.834051
      10.720000       1.001006       1.021158       1.800465
      10.730000       0.977865       1.014590       1.770733
      10.740000       0.955725       1.006452       1.744743
      10.750000       0.934980       0.997018       1.722367
      10.760000       0.916101       0.986636       1.703372
      10.770000       0.899593       0.975603       1.687344
      10.780000       0.885932       0.964112       1.673683
      10.790000       0.875512       0.952249       1.661670
      10.800000       0.868603       0.940055       1.650603
      10.810000       0.865325       0.927591       1.639944
      10.820000       0.865652       0.914977       1.629416
      10.830000       0.869427       0.902424       1.619006
      10.840000       0.876384       0.890238       1.608893
      10.850000       0.886153       0.878809       1.599315
      10.860000       0.898263       0.868587       1.590451
      10.870000       0.912121       0.860032       1.582357
      10.880000       0.927004       0.853553       1.574950
      10.890000       0.942068       0.849458       1.568041
      10.900000       0.956379       0.847918       1.561380
      10.910000       0.969002       0.848966       1.554696
      10.920000       0.979120       0.852528       1.547730
      10.930000       0.986179       0.858460       1.540277
      10.940000       0.990001       0.866578       1.532218
      10.950000       0.990802       0.876664       1.523546
      10.960000       0.989104       0.888465       1.514357
      10.970000       0.985561       0.901697       1.504802
      10.980000       0.980775       0.916083       1.495009
      10.990000       0.975160       0.931418       1.484996
      11.000000       0.968902       0.947615       1.474611
      11.010000       0.961990       0.964738       1.463512
      11.020000       0.954290       0.982966       1.451228
      11.030000       0.945627       1.002516       1.437271
      11.040000       0.935850       1.023528       1.421273
      11.050000       0.924871       1.045959       1.403097
      11.060000       0.912674       1.069495       1.382872
      11.070000       0.899319       1.093527       1.360962
      11.080000       0.884942       1.117187       1.337875
      11.090000       0.869770       1.139420       1.314167
      11.100000       0.854133       1.159088       1.290358
      11.110000       0.838450       1.175079       1.266862
      11.120000       0.823179       1.186408       1.243939
      11.130000       0.808746       1.192327       1.221656
      11.140000       0.795475       1.192422       1.199881
      11.150000       0.783552       1.186687       1.178321
      11.160000       0.773034       1.175552       1.156599
      11.170000       0.763901       1.159850       1.134350
      11.180000       0.756136       1.140711       1.111299
      11.190000       0.749781       1.119397       1.087314
      11.200000       0.744971       1.097126       1.062421
      11.210000       0.741918       1.074919       1.036788
      11.220000       0.740851       1.053514       1.010696
      11.230000       0.741943       1.033357       0.984506
      11.240000       0.745225       1.014647       0.958633
      11.250000       0.750530       0.997422       0.933501
      11.260000       0.757469       0.981630       0.909507
      11.270000       0.765455       0.967175       0.886974
      11.280000       0.773768       0.953907       0.866126
      11.290000       0.781630       0.941588       0.847069
      11.300000       0.788290       0.929866       0.829796
      11.310000       0.793079       0.918288       0.814207
      11.320000       0.795478       0.906362       0.800139
      11.330000       0.795170       0.893640       0.787400
      11.340000       0.792106       0.879816       0.775804
      11.350000       0.786540       0.864780       0.765183
      11.360000       0.779014       0.848646       0.755392
      11.370000       0.770283       0.831718       0.746297
      11.380000       0.761190       0.814420       0.737790
      11.390000       0.752529       0.797196       0.729797
      11.400000       0.744943       0.780414       0.722308
      11.410000       0.738861       0.764315       0.715380
      11.420000       0.734492       0.749005       0.709128
      11.430000       0.731865       0.734499       0.703680
      11.440000       0.730881       0.720787       0.699133
      11.450000       0.731377       0.707890       0.695495
      11.460000       0.733169       0.695885       0.692653
      11.470000       0.736060       0.684907       0.690370
      11.480000       0.739841       0.675128       0.688306
      11.490000       0.744275       0.666736       0.686061
      11.500000       0.749096       0.659920       0.683227
      11.510000       0.754009       0.654834       0.679450
      11.520000       0.758700       0.651562       0.674480
      11.530000       0.762860       0.650092       0.668223
      11.540000       0.766198       0.650302       0.660762
      11.550000       0.768461       0.651976       0.652349
      11.560000       0.769442       0.654848       0.643362
      11.570000       0.768972       0.658658       0.634238
      11.580000       0.766911       0.663203       0.625405
      11.590000       0.763148       0.668365       0.617221
      11.600000       0.757607       0.674105       0.609941
      11.610000       0.750281       0.680432       0.603705
      11.620000       0.741263       0.687344       0.598558
      11.630000       0.730773       0.694771       0.594480
      11.640000       0.719154       0.702527       0.591412
      11.650000       0.706836       0.710283       0.589268
      11.660000       0.694261       0.717570       0.587933
      11.670000       0.681816       0.723799       0.587264
      11.680000       0.669773       0.728326       0.587099
      11.690000       0.658273       0.730545       0.587275
      11.700000       0.647348       0.730008       0.587658
      11.710000       0.636963       0.726531       0.588160
      11.720000       0.627064       0.720259       0.588739
      11.730000       0.617614       0.711638       0.589387
      11.740000       0.608605       0.701319       0.590113
      11.750000       0.600062       0.690003       0.590926
      11.760000       0.592025       0.678299       0.591832
      11.770000       0.584518       0.666613       0.592829
      11.780000       0.577519       0.655116       0.593898
      11.790000       0.570942       0.643777       0.594996
      11.800000       0.564641       0.632447       0.596056
      11.810000       0.558450       0.620955       0.596985
      11.820000       0.552228       0.609181       0.597685
      11.830000       0.545904       0.597087       0.598078
      11.840000       0.539498       0.584706       0.598138
      11.850000       0.533113       0.572125       0.597920
      11.860000       0.526904       0.559467       0.597554
      11.870000       0.521043       0.546885       0.597221
      11.880000       0.515685       0.534554       0.597097
      11.890000       0.510953       0.522660       0.597294
      11.900000       0.506924       0.511377       0.597812
      11.910000       0.503637       0.500853       0.598527
      11.920000       0.501098       0.491182       0.599196
      11.930000       0.499287       0.482394       0.599494
      11.940000       0.498172       0.474454       0.599061
      11.950000       0.497716       0.467273       0.597558
      11.960000       0.497876       0.460738       0.594726
      11.970000       0.498613       0.454749       0.590430
      11.980000       0.499893       0.449246       0.584678
      11.990000       0.501690       0.444213       0.577606
      12.000000       0.503991       0.439673       0.569448
      12.010000       0.506779       0.435663       0.560485
      12.020000       0.510022       0.432225       0.551002
      12.030000       0.513650       0.429394       0.541249
      12.040000       0.517553       0.427198       0.531411
      12.050000       0.521579       0.425668       0.521585
      12.060000       0.525548       0.424836       0.511785
      12.070000       0.529273       0.424744       0.501959
      12.080000       0.532590       0.425437       0.492040
      12.090000       0.535361       0.426951       0.481993
      12.100000       0.537483       0.429297       0.471853
      12.110000       0.538871       0.432432       0.461732
      12.120000       0.539460       0.436251       0.451806
      12.130000       0.539214       0.440578       0.442271
      12.140000       0.538152       0.445181       0.433317
      12.150000       0.536369       0.449790       0.425090
      12.160000       0.534037       0.454117       0.417677
      12.170000       0.531380       0.457879       0.411103
      12.180000       0.528633       0.460826       0.405331
      12.190000       0.525983       0.462768       0.400272
      12.200000       0.523547       0.463610       0.395799
      12.210000       0.521361       0.463382       0.391767
      12.220000       0.519400       0.462253       0.388026
      12.230000       0.517612       0.460525       0.384445
      12.240000       0.515950       0.458584       0.380925
      12.250000       0.514405       0.456826       0.377408
      12.260000       0.513030       0.455573       0.373872
      12.270000       0.511947       0.454993       0.370318
      12.280000       0.511336       0.455063       0.366754
      12.290000       0.511393       0.455558       0.363171
      12.300000       0.512272       0.456097       0.359545
      12.310000       0.514025       0.456214       0.355833
      12.320000       0.516565       0.455459       0.351977
      12.330000       0.519644       0.453482       0.347921
      12.340000       0.522881       0.450110       0.343613
      12.350000       0.525808       0.445375       0.339015
      12.360000       0.527950       0.439499       0.334105
      12.370000       0.528921       0.432844       0.328875
      12.380000       0.528496       0.425835       0.323324
      12.390000       0.526645       0.418891       0.317455
      12.400000       0.523523       0.412378       0.311282
      12.410000       0.519408       0.406578       0.304830
      12.420000       0.514630       0.401687       0.298149
      12.430000       0.509505       0.397815       0.291316
      12.440000       0.504284       0.394992       0.284439
      12.450000       0.499135       0.393177       0.277646
      12.460000       0.494140       0.392269       0.271067
      12.470000       0.489304       0.392134       0.264823
      12.480000       0.484579       0.392640       0.259001
      12.490000       0.479896       0.393690       0.253653
      12.500000       0.475199       0.395246       0.248792
      12.510000       0.470469       0.397319       0.244400
      12.520000       0.465728       0.399951       0.240437
      12.530000       0.461029       0.403185       0.236855
      12.540000       0.456436       0.407041       0.233598
      12.550000       0.452018       0.411502       0.230613
      12.560000       0.447839       0.416517       0.227849
      12.570000       0.443970       0.421995       0.225268
      12.580000       0.440483       0.427827       0.222846
      12.590000       0.437442       0.433897       0.220583
      12.600000       0.434882       0.440103       0.218508
      12.610000       0.432780       0.446366       0.216671
      12.620000       0.431028       0.452631       0.215129
      12.630000       0.429427       0.458859       0.213932
      12.640000       0.427707       0.465014       0.213104
      12.650000       0.425569       0.471059       0.212635
      12.660000       0.422743       0.476947       0.212481
      12.670000       0.419038       0.482627       0.212573
      12.680000       0.414369       0.488055       0.212831
      12.690000       0.408756       0.493189       0.213177
      12.700000       0.402304       0.498005       0.213548
      12.710000       0.395178       0.502477       0.213894
      12.720000       0.387579       0.506571       0.214173
      12.730000       0.379723       0.510221       0.214342
      12.740000       0.371819       0.513314       0.214350
      12.750000       0.364054       0.515686       0.214137
      12.760000       0.356571       0.517138       0.213648
      12.770000       0.349463       0.517469       0.212842
      12.780000       0.342776       0.516531       0.211710
      12.790000       0.336525       0.514282       0.210273
      12.800000       0.330715       0.510831       0.208576
      12.810000       0.325362       0.506454       0.206684
      12.820000       0.320505       0.501564       0.204667
      12.830000       0.316208       0.496656       0.202597
      12.840000       0.312564       0.492222       0.200544
      12.850000       0.309679       0.488677       0.198577
      12.860000       0.307668       0.486307       0.196761
      12.870000       0.306631       0.485244       0.195157
      12.880000       0.306647       0.485476       0.193811
      12.890000       0.307758       0.486885       0.192751
      12.900000       0.309973       0.489289       0.191979
      12.910000       0.313269       0.492487       0.191469
      12.920000       0.317593       0.496269       0.191175
      12.930000       0.322865       0.500413       0.191040
      12.940000       0.328966       0.504663       0.191006
      12.950000       0.335726       0.508724       0.191023
      12.960000       0.342904       0.512277       0.191059
      12.970000       0.350187       0.515016       0.191094
      12.980000       0.357205       0.516693       0.191123
      12.990000       0.363580       0.517148       0.191157
      13.000000       0.368985       0.516334       0.191219
      13.010000       0.373208       0.514314       0.191351
      13.020000       0.376197       0.511251       0.191600
      13.030000       0.378066       0.507377       0.192016
      13.040000       0.379070       0.502957       0.192641
      13.050000       0.379558       0.498243       0.193502
      13.060000       0.379916       0.493454       0.194613
      13.070000       0.380530       0.488765       0.195979
      13.080000       0.381751       0.484317       0.197598
      13.090000       0.383881       0.480226       0.199467
      13.100000       0.387165       0.476574       0.201580
      13.110000       0.391783       0.473404       0.203923
      13.120000       0.397846       0.470708       0.206462
      13.130000       0.405390       0.468448       0.209142
      13.140000       0.414365       0.466580       0.211875
      13.150000       0.424638       0.465081       0.214551
      13.160000       0.435996       0.463971       0.217047
      13.170000       0.448152       0.463307       0.219242
      13.180000       0.460764       0.463164       0.221037
      13.190000       0.473432       0.463602       0.222365
      13.200000       0.485699       0.464627       0.223202
      13.210000       0.497027       0.466168       0.223574
      13.220000       0.506794       0.468069       0.223550
      13.230000       0.514319       0.470107       0.223235
      13.240000       0.518942       0.472041       0.222752
      13.250000       0.520145       0.473670       0.222229
      13.260000       0.517679       0.474874       0.221781
      13.270000       0.511635       0.475638       0.221496
      13.280000       0.502450       0.476038       0.221429
      13.290000       0.490819       0.476205       0.221611
      13.300000       0.477567       0.476283       0.222045
      13.310000       0.463514       0.476389       0.222723
      13.320000       0.449377       0.476590       0.223629
      13.330000       0.435716       0.476894       0.224739
      13.340000       0.422923       0.477258       0.226026
      13.350000       0.411245       0.477606       0.227460
      13.360000       0.400817       0.477848       0.229022
      13.370000       0.391700       0.477897       0.230701
      13.380000       0.383910       0.477690       0.232506
      13.390000       0.377435       0.477209       0.234455
      13.400000       0.372239       0.476507       0.236572
      13.410000       0.368260       0.475726       0.238873
      13.420000       0.365398       0.475098       0.241362
      13.430000       0.363519       0.474917       0.244026
      13.440000       0.362460       0.475497       0.246844
      13.450000       0.362047       0.477114       0.249791
      13.460000       0.362099       0.479964       0.252840
      13.470000       0.362451       0.484122       0.255961
      13.480000       0.362957       0.489533       0.259113
      13.490000       0.363497       0.495996       0.262244
      13.500000       0.363980       0.503183       0.265289
      13.510000       0.364336       0.510663       0.268180
      13.520000       0.364507       0.517954       0.270855
      13.530000       0.364442       0.524587       0.273272
      13.540000       0.364088       0.530187       0.275417
      13.550000       0.363403       0.534513       0.277302
      13.560000       0.362365       0.537490       0.278969
      13.570000       0.360984       0.539179       0.280475
      13.580000       0.359304       0.539749       0.281877
      13.590000       0.357375       0.539425       0.283220
      13.600000       0.355233       0.538451       0.284517
      13.610000       0.352875       0.537060       0.285750
      13.620000       0.350271       0.535445       0.286877
      13.630000       0.347388       0.533753       0.287842
      13.640000       0.344225       0.532089       0.288590
      13.650000       0.340843       0.530521       0.289080
      13.660000       0.337374       0.529102       0.289290
      13.670000       0.334010       0.527866       0.289229
      13.680000       0.330974       0.526830       0.288934
      13.690000       0.328491       0.525984       0.288470
      13.700000       0.326756       0.525293       0.287923
      13.710000       0.325902       0.524695       0.287388
      13.720000       0.325981       0.524115       0.286955
      13.730000       0.326955       0.523473       0.286707
      13.740000       0.328690       0.522692       0.286711
      13.750000       0.330976       0.521708       0.287021
      13.760000       0.333539       0.520470       0.287682
      13.770000       0.336073       0.518933       0.288721
      13.780000       0.338267       0.517055       0.290148
      13.790000       0.339842       0.514781       0.291949
      13.800000       0.340566       0.512042       0.294095
      13.810000       0.340280       0.508750       0.296535
      13.820000       0.338908       0.504815       0.299209
      13.830000       0.336474       0.500160       0.302043
      13.840000       0.333098       0.494757       0.304955
      13.850000       0.328987       0.488655       0.307859
      13.860000       0.324403       0.481993       0.310667
      13.870000       0.319622       0.474982       0.313302
      13.880000       0.314902       0.467861       0.315693
      13.890000       0.310458       0.460847       0.317785
      13.900000       0.306455       0.454096       0.319534
      13.910000       0.303006       0.447699       0.320901
      13.920000       0.300189       0.441699       0.321851
      13.930000       0.298054       0.436121       0.322346
      13.940000       0.296645       0.430991       0.322348
      13.950000       0.296009       0.426341       0.321828
      13.960000       0.296193       0.422198       0.320778
      13.970000       0.297245       0.418565       0.319222
      13.980000       0.299197       0.415418       0.317225
      13.990000       0.302064       0.412698       0.314878
      14.000000       0.305835       0.410321       0.312293
      14.010000       0.310474       0.408195       0.309580
      14.020000       0.315919       0.406236       0.306839
      14.030000       0.322078       0.404383       0.304155
      14.040000       0.328835       0.402611       0.301593
      14.050000       0.336057       0.400938       0.299204
      14.060000       0.343602       0.399425       0.297011
      14.070000       0.351331       0.398152       0.295004
      14.080000       0.359104       0.397202       0.293131
      14.090000       0.366770       0.396625       0.291289
      14.100000       0.374158       0.396423       0.289344
      14.110000       0.381060       0.396547       0.287152
      14.120000       0.387231       0.396908       0.284598
      14.130000       0.392395       0.397388       0.281628
      14.140000       0.396268       0.397855       0.278267
      14.150000       0.398605       0.398168       0.274613
      14.160000       0.399257       0.398185       0.270816
      14.170000       0.398210       0.397762       0.267041
      14.180000       0.395609       0.396762       0.263444
      14.190000       0.391719       0.395067       0.260154
      14.200000       0.386865       0.392598       0.257268
      14.210000       0.381358       0.389330       0.254848
      14.220000       0.375439       0.385305       0.252928
      14.230000       0.369268       0.380633       0.251513
      14.240000       0.362944       0.375471       0.250580
      14.250000       0.356539       0.370015       0.250084
      14.260000       0.350128       0.364487       0.249973
      14.270000       0.343809       0.359118       0.250196
      14.280000       0.337692       0.354144       0.250724
      14.290000       0.331882       0.349778       0.251556
      14.300000       0.326455       0.346189       0.252721
      14.310000       0.321438       0.343475       0.254262
      14.320000       0.316805       0.341651       0.256230
      14.330000       0.312478       0.340648       0.258664
      14.340000       0.308347       0.340329       0.261590
      14.350000       0.304299       0.340525       0.265018
      14.360000       0.300245       0.341065       0.268948
      14.370000       0.296142       0.341817       0.273362
      14.380000       0.291994       0.342702       0.278217
      14.390000       0.287833       0.343702       0.283432
      14.400000       0.283690       0.344833       0.288887
      14.410000       0.279581       0.346118       0.294430
      14.420000       0.275493       0.347552       0.299883
      14.430000       0.271394       0.349084       0.305070
      14.440000       0.267257       0.350615       0.309823
      14.450000       0.263071       0.352010       0.313998
      14.460000       0.258853       0.353115       0.317484
      14.470000       0.254648       0.353760       0.320203
      14.480000       0.250515       0.353773       0.322119
      14.490000       0.246524       0.352987       0.323238
      14.500000       0.242740       0.351257       0.323608
      14.510000       0.239229       0.348490       0.323310
      14.520000       0.236050       0.344673       0.322451
      14.530000       0.233253       0.339891       0.321156
      14.540000       0.230878       0.334322       0.319558
      14.550000       0.228950       0.328216       0.317796
      14.560000       0.227480       0.321861       0.316012
      14.570000       0.226462       0.315543       0.314350
      14.580000       0.225881       0.309519       0.312952
      14.590000       0.225706       0.303985       0.311946
      14.600000       0.225898       0.299053       0.311429
      14.610000       0.226403       0.294742       0.311459
      14.620000       0.227154       0.290976       0.312044
      14.630000       0.228066       0.287601       0.313146
      14.640000       0.229046       0.284429       0.314696
      14.650000       0.230010       0.281276       0.316623
      14.660000       0.230898       0.278009       0.318881
      14.670000       0.231702       0.274567       0.321469
      14.680000       0.232463       0.270961       0.324440
      14.690000       0.233270       0.267259       0.327894
      14.700000       0.234226       0.263553       0.331966
      14.710000       0.235428       0.259940       0.336803
      14.720000       0.236944       0.256495       0.342547
      14.730000       0.238807       0.253260       0.349319
      14.740000       0.241020       0.250248       0.357203
      14.750000       0.243557       0.247444       0.366244
      14.760000       0.246375       0.244816       0.376444
      14.770000       0.249406       0.242318       0.387765
      14.780000       0.252567       0.239897       0.400135
      14.790000       0.255767       0.237498       0.413449
      14.800000       0.258905       0.235065       0.427567
      14.810000       0.261883       0.232541       0.442295
      14.820000       0.264595       0.229875       0.457383
      14.830000       0.266936       0.227021       0.472517
      14.840000       0.268808       0.223952       0.487329
      14.850000       0.270147       0.220667       0.501423
      14.860000       0.270946       0.217204       0.514413
      14.870000       0.271275       0.213640       0.525968
      14.880000       0.271278       0.210084       0.535858
      14.890000       0.271148       0.206657       0.543983
      14.900000       0.271080       0.203474       0.550379
      14.910000       0.271222       0.200625       0.555197
      14.920000       0.271648       0.198160       0.558664
      14.930000       0.272342       0.196089       0.561040
      14.940000       0.273213       0.194388       0.562582
      14.950000       0.274133       0.193010       0.563526
      14.960000       0.274975       0.191900       0.564088
      14.970000       0.275655       0.191005       0.564459
      14.980000       0.276154       0.190284       0.564799
      14.990000       0.276516       0.189707       0.565225
      15.000000       0.276840       0.189260       0.565792
      15.010000       0.277248       0.188931       0.566484
      15.020000       0.277857       0.188713       0.567225
      15.030000       0.278745       0.188592       0.567890
      15.040000       0.279937       0.188552       0.568342
      15.050000       0.281391       0.188565       0.568451
      15.060000       0.283007       0.188596       0.568103
      15.070000       0.284637       0.188605       0.567191
      15.080000       0.286114       0.188549       0.565599
      15.090000       0.287273       0.188384       0.563200
      15.100000       0.287984       0.188075       0.559867
      15.110000       0.288171       0.187592       0.555503
      15.120000       0.287823       0.186922       0.550084
      15.130000       0.286981       0.186064       0.543684
      15.140000       0.285709       0.185040       0.536484
      15.150000       0.284067       0.183885       0.528744
      15.160000       0.282088       0.182644       0.520762
      15.170000       0.279760       0.181360       0.512818
      15.180000       0.277042       0.180067       0.505129
      15.190000       0.273878       0.178782       0.497820
      15.200000       0.270234       0.177507       0.490916
      15.210000       0.266127       0.176236       0.484356
      15.220000       0.261631       0.174961       0.478028
      15.230000       0.256871       0.173680       0.471807
      15.240000       0.251999       0.172395       0.465598
      15.250000       0.247156       0.171112       0.459354
      15.260000       0.242454       0.169846       0.453078
      15.270000       0.237963       0.168619       0.446802
      15.280000       0.233719       0.167468       0.440557
      15.290000       0.229732       0.166441       0.434351
      15.300000       0.226006       0.165601       0.428153
      15.310000       0.222547       0.165014       0.421908
      15.320000       0.219369       0.164739       0.415559
      15.330000       0.216496       0.164815       0.409074
      15.340000       0.213958       0.165248       0.402456
      15.350000       0.211780       0.166009       0.395745
      15.360000       0.209975       0.167038       0.388988
      15.370000       0.208545       0.168252       0.382214
      15.380000       0.207478       0.169558       0.375406
      15.390000       0.206752       0.170858       0.368494
      15.400000       0.206334       0.172058       0.361365
      15.410000       0.206183       0.173072       0.353896
      15.420000       0.206243       0.173827       0.345980
      15.430000       0.206452       0.174267       0.337562
      15.440000       0.206741       0.174356       0.328654
      15.450000       0.207050       0.174087       0.319336
      15.460000       0.207333       0.173475       0.309742
      15.470000       0.207566       0.172560       0.300049
      15.480000       0.207752       0.171400       0.290445
      15.490000       0.207913       0.170064       0.281119
      15.500000       0.208094       0.168617       0.272237
      15.510000       0.208344       0.167122       0.263932
      15.520000       0.208720       0.165632       0.256294
      15.530000       0.209270       0.164190       0.249372
      15.540000       0.210029       0.162830       0.243182
      15.550000       0.211011       0.161576       0.237713
      15.560000       0.212195       0.160441       0.232942
      15.570000       0.213529       0.159426       0.228838
      15.580000       0.214926       0.158515       0.225369
      15.590000       0.216284       0.157690       0.222498
      15.600000       0.217501       0.156928       0.220183
      15.610000       0.218500       0.156220       0.218381
      15.620000       0.219247       0.155570       0.217038
      15.630000       0.219751       0.154999       0.216099
      15.640000       0.220065       0.154543       0.215499
      15.650000       0.220259       0.154245       0.215168
      15.660000       0.220396       0.154139       0.215029
      15.670000       0.220505       0.154248       0.215001
      15.680000       0.220576       0.154566       0.215005
      15.690000       0.220560       0.155065       0.214974
      15.700000       0.220398       0.155698       0.214848
      15.710000       0.220044       0.156406       0.214577
      15.720000       0.219488       0.157133       0.214110
      15.730000       0.218759       0.157827       0.213388
      15.740000       0.217910       0.158450       0.212348
      15.750000       0.217005       0.158971       0.210931
      15.760000       0.216095       0.159370       0.209104
      15.770000       0.215217       0.159637       0.206864
      15.780000       0.214388       0.159770       0.204252
      15.790000       0.213612       0.159780       0.201334
      15.800000       0.212884       0.159686       0.198201
      15.810000       0.212186       0.159512       0.194945
      15.820000       0.211498       0.159278       0.191658
      15.830000       0.210791       0.158994       0.188419
      15.840000       0.210047       0.158663       0.185297
      15.850000       0.209262       0.158271       0.182347
      15.860000       0.208455       0.157805       0.179617
      15.870000       0.207671       0.157251       0.177144
      15.880000       0.206966       0.156606       0.174953
      15.890000       0.206397       0.155880       0.173058
      15.900000       0.206007       0.155099       0.171458
      15.910000       0.205817       0.154294       0.170142
      15.920000       0.205822       0.153503       0.169087
      15.930000       0.206003       0.152756       0.168260
      15.940000       0.206326       0.152079       0.167625
      15.950000       0.206757       0.151488       0.167140
      15.960000       0.207267       0.150990       0.166757
      15.970000       0.207836       0.150581       0.166424
      15.980000       0.208453       0.150242       0.166079
      15.990000       0.209119       0.149946       0.165657
      16.000000       0.209841       0.149654       0.165099
      16.010000       0.210630       0.149328       0.164357
      16.020000       0.211501       0.148939       0.163408
      16.030000       0.212475       0.148476       0.162255
      16.040000       0.213574       0.147948       0.160930
      16.050000       0.214823       0.147384       0.159483
      16.060000       0.216243       0.146825       0.157972
      16.070000       0.217846       0.146319       0.156448
      16.080000       0.219634       0.145909       0.154950
      16.090000       0.221586       0.145632       0.153500
      16.100000       0.223658       0.145510       0.152108
      16.110000       0.225773       0.145556       0.150782
      16.120000       0.227822       0.145776       0.149529
      16.130000       0.229660       0.146166       0.148363
      16.140000       0.231126       0.146715       0.147298
      16.150000       0.232052       0.147403       0.146349
      16.160000       0.232294       0.148199       0.145522
      16.170000       0.231753       0.149062       0.144816
      16.180000       0.230390       0.149940       0.144222
      16.190000       0.228225       0.150770       0.143730
      16.200000       0.225327       0.151486       0.143325
      16.210000       0.221791       0.152023       0.142997
      16.220000       0.217726       0.152325       0.142735
      16.230000       0.213247       0.152351       0.142536
      16.240000       0.208476       0.152088       0.142398
      16.250000       0.203545       0.151551       0.142325
      16.260000       0.198597       0.150784       0.142322
      16.270000       0.193783       0.149856       0.142392
      16.280000       0.189250       0.148851       0.142535
      16.290000       0.185127       0.147853       0.142748
      16.300000       0.181514       0.146935       0.143022
      16.310000       0.178470       0.146152       0.143345
      16.320000       0.176013       0.145533       0.143695
      16.330000       0.174120       0.145089       0.144047
      16.340000       0.172741       0.144819       0.144376
      16.350000       0.171803       0.144713       0.144656
      16.360000       0.171219       0.144763       0.144873
      16.370000       0.170892       0.144967       0.145021
      16.380000       0.170724       0.145326       0.145101
      16.390000       0.170612       0.145845       0.145118
      16.400000       0.170458       0.146528       0.145072
      16.410000       0.170175       0.147374       0.144956
      16.420000       0.169692       0.148377       0.144756
      16.430000       0.168974       0.149527       0.144460
      16.440000       0.168015       0.150811       0.144057
      16.450000       0.166846       0.152212       0.143548
      16.460000       0.165518       0.153707       0.142945
      16.470000       0.164098       0.155266       0.142269
      16.480000       0.162647       0.156850       0.141544
      16.490000       0.161218       0.158409       0.140795
      16.500000       0.159843       0.159891       0.140041
      16.510000       0.158533       0.161240       0.139301
      16.520000       0.157285       0.162403       0.138589
      16.530000       0.156084       0.163340       0.137924
      16.540000       0.154917       0.164021       0.137325
      16.550000       0.153780       0.164438       0.136810
      16.560000       0.152682       0.164601       0.136389
      16.570000       0.151645       0.164540       0.136063
      16.580000       0.150702       0.164291       0.135821
      16.590000       0.149889       0.163896       0.135640
      16.600000       0.149232       0.163390       0.135489
      16.610000       0.148749       0.162801       0.135334
      16.620000       0.148440       0.162153       0.135137
      16.630000       0.148289       0.161472       0.134867
      16.640000       0.148267       0.160787       0.134500
      16.650000       0.148332       0.160133       0.134023
      16.660000       0.148432       0.159554       0.133442
      16.670000       0.148509       0.159093       0.132768
      16.680000       0.148499       0.158787       0.132017
      16.690000       0.148339       0.158663       0.131199
      16.700000       0.147974       0.158732       0.130319
      16.710000       0.147363       0.158990       0.129374
      16.720000       0.146485       0.159418       0.128359
      16.730000       0.145345       0.159983       0.127275
      16.740000       0.143971       0.160644       0.126122
      16.750000       0.142411       0.161350       0.124908
      16.760000       0.140724       0.162041       0.123639
      16.770000       0.138969       0.162661       0.122323
      16.780000       0.137198       0.163158       0.120965
      16.790000       0.135447       0.163497       0.119574
      16.800000       0.133736       0.163664       0.118159
      16.810000       0.132067       0.163664       0.116733
      16.820000       0.130433       0.163514       0.115315
      16.830000       0.128827       0.163235       0.113930
      16.840000       0.127251       0.162841       0.112608
      16.850000       0.125720       0.162339       0.111383
      16.860000       0.124265       0.161722       0.110284
      16.870000       0.122922       0.160975       0.109338
      16.880000       0.121730       0.160077       0.108560
      16.890000       0.120718       0.159011       0.107952
      16.900000       0.119904       0.157772       0.107508
      16.910000       0.119289       0.156374       0.107208
      16.920000       0.118862       0.154856       0.107026
      16.930000       0.118607       0.153277       0.106934
      16.940000       0.118509       0.151701       0.106900
      16.950000       0.118566       0.150192       0.106895
      16.960000       0.118790       0.148796       0.106895
      16.970000       0.119208       0.147537       0.106882
      16.980000       0.119856       0.146419       0.106847
      16.990000       0.120770       0.145421       0.106789
      17.000000       0.121978       0.144510       0.106712
      17.010000       0.123494       0.143640       0.106624
      17.020000       0.125315       0.142764       0.106528
      17.030000       0.127420       0.141837       0.106424
      17.040000       0.129769       0.140826       0.106300
      17.050000       0.132308       0.139717       0.106138
      17.060000       0.134963       0.138515       0.105916
      17.070000       0.137648       0.137247       0.105617
      17.080000       0.140267       0.135954       0.105232
      17.090000       0.142726       0.134688       0.104766
      17.100000       0.144941       0.133502       0.104239
      17.110000       0.146859       0.132443       0.103681
      17.120000       0.148464       0.131550       0.103128
      17.130000       0.149778       0.130847       0.102615
      17.140000       0.150852       0.130343       0.102171
      17.150000       0.151742       0.130033       0.101815
      17.160000       0.152488       0.129897       0.101558
      17.170000       0.153096       0.129904       0.101404
      17.180000       0.153533       0.130019       0.101354
      17.190000       0.153731       0.130206       0.101408
      17.200000       0.153607       0.130432       0.101565
      17.210000       0.153085       0.130668       0.101821
      17.220000       0.152113       0.130894       0.102161
      17.230000       0.150674       0.131090       0.102564
      17.240000       0.148790       0.131235       0.102998
      17.250000       0.146514       0.131308       0.103429
      17.260000       0.143917       0.131283       0.103822
      17.270000       0.141081       0.131137       0.104155
      17.280000       0.138085       0.130858       0.104421
      17.290000       0.135006       0.130450       0.104633
      17.300000       0.131910       0.129936       0.104822
      17.310000       0.128854       0.129352       0.105032
      17.320000       0.125883       0.128737       0.105315
      17.330000       0.123033       0.128128       0.105720
      17.340000       0.120327       0.127546       0.106288
      17.350000       0.117783       0.126995       0.107045
      17.360000       0.115409       0.126468       0.108005
      17.370000       0.113210       0.125948       0.109164
      17.380000       0.111185       0.125416       0.110506
      17.390000       0.109325       0.124858       0.112003
      17.400000       0.107620       0.124270       0.113621
      17.410000       0.106054       0.123660       0.115320
      17.420000       0.104610       0.123043       0.117056
      17.430000       0.103277       0.122444       0.118787
      17.440000       0.102051       0.121892       0.120472
      17.450000       0.100933       0.121412       0.122080
      17.460000       0.099928       0.121023       0.123586
      17.470000       0.099042       0.120733       0.124984
      17.480000       0.098280       0.120543       0.126279
      17.490000       0.097641       0.120440       0.127494
      17.500000       0.097127       0.120406       0.128662
      17.510000       0.096738       0.120419       0.129821
      17.520000       0.096472       0.120453       0.131006
      17.530000       0.096323       0.120482       0.132239
      17.540000       0.096280       0.120485       0.133531
      17.550000       0.096322       0.120445       0.134886
      17.560000       0.096425       0.120350       0.136304
      17.570000       0.096560       0.120191       0.137797
      17.580000       0.096702       0.119967       0.139388
      17.590000       0.096832       0.119677       0.141116
      17.600000       0.096939       0.119329       0.143033
      17.610000       0.097024       0.118935       0.145198
      17.620000       0.097098       0.118512       0.147662
      17.630000       0.097177       0.118080       0.150460
      17.640000       0.097278       0.117659       0.153595
      17.650000       0.097416       0.117266       0.157037
      17.660000       0.097602       0.116915       0.160727
      17.670000       0.097843       0.116614       0.164585
      17.680000       0.098151       0.116369       0.168526
      17.690000       0.098538       0.116175       0.172478
      17.700000       0.099022       0.116020       0.176392
      17.710000       0.099621       0.115881       0.180247
      17.720000       0.100346       0.115721       0.184052
      17.730000       0.101200       0.115498       0.187835
      17.740000       0.102170       0.115167       0.191633
      17.750000       0.103232       0.114691       0.195474
      17.760000       0.104356       0.114044       0.199369
      17.770000       0.105512       0.113215       0.203311
      17.780000       0.106675       0.112211       0.207277
      17.790000       0.107836       0.111051       0.211251
      17.800000       0.108997       0.109762       0.215235
      17.810000       0.110173       0.108376       0.219259
      17.820000       0.111385       0.106926       0.223372
      17.830000       0.112654       0.105447       0.227629
      17.840000       0.113993       0.103975       0.232064
      17.850000       0.115401       0.102549       0.236680
      17.860000       0.116857       0.101206       0.241435
      17.870000       0.118319       0.099981       0.246249
      17.880000       0.119725       0.098902       0.251020
      17.890000       0.121003       0.097987       0.255638
      17.900000       0.122080       0.097244       0.260015
      17.910000       0.122897       0.096666       0.264103
      17.920000       0.123419       0.096241       0.267899
      17.930000       0.123636       0.095948       0.271445
      17.940000       0.123555       0.095760       0.274815
      17.950000       0.123194       0.095651       0.278093
      17.960000       0.122564       0.095597       0.281358
      17.970000       0.121674       0.095571       0.284664
      17.980000       0.120528       0.095550       0.288025
      17.990000       0.119135       0.095510       0.291408
      18.000000       0.117519       0.095426       0.294729
      18.010000       0.115719       0.095275       0.297871
      18.020000       0.113782       0.095041       0.300711
      18.030000       0.111759       0.094712       0.303153
      18.040000       0.109698       0.094287       0.305171
      18.050000       0.107645       0.093774       0.306827
      18.060000       0.105642       0.093186       0.308263
      18.070000       0.103729       0.092546       0.309666
      18.080000       0.101940       0.091877       0.311226
      18.090000       0.100303       0.091201       0.313089
      18.100000       0.098834       0.090540       0.315336
      18.110000       0.097533       0.089910       0.317971
      18.120000       0.096393       0.089326       0.320943
      18.130000       0.095393       0.088797       0.324165
      18.140000       0.094512       0.088331       0.327538
      18.150000       0.093730       0.087934       0.330971
      18.160000       0.093031       0.087609       0.334384
      18.170000       0.092407       0.087357       0.337702
      18.180000       0.091853       0.087172       0.340858
      18.190000       0.091370       0.087044       0.343789
      18.200000       0.090961       0.086956       0.346453
      18.210000       0.090630       0.086886       0.348841
      18.220000       0.090383       0.086811       0.350973
      18.230000       0.090224       0.086706       0.352891
      18.240000       0.090162       0.086554       0.354636
      18.250000       0.090204       0.086345       0.356232
      18.260000       0.090361       0.086079       0.357682
      18.270000       0.090639       0.085761       0.358971
      18.280000       0.091039       0.085406       0.360071
      18.290000       0.091554       0.085029       0.360944
      18.300000       0.092167       0.084647       0.361552
      18.310000       0.092844       0.084279       0.361863
      18.320000       0.093545       0.083945       0.361856
      18.330000       0.094222       0.083665       0.361539
      18.340000       0.094829       0.083461       0.360946
      18.350000       0.095334       0.083350       0.360135
      18.360000       0.095721       0.083345       0.359181
      18.370000       0.095996       0.083452       0.358170
      18.380000       0.096185       0.083666       0.357202
      18.390000       0.096323       0.083975       0.356389
      18.400000       0.096452       0.084356       0.355856
      18.410000       0.096604       0.084776       0.355716
      18.420000       0.096801       0.085196       0.356048
      18.430000       0.097057       0.085573       0.356875
      18.440000       0.097375       0.085864       0.358138
      18.450000       0.097752       0.086034       0.359702
      18.460000       0.098184       0.086060       0.361371
      18.470000       0.098660       0.085936       0.362916
      18.480000       0.099163       0.085666       0.364124
      18.490000       0.099671       0.085268       0.364831
      18.500000       0.100151       0.084760       0.364948
      18.510000       0.100567       0.084163       0.364468
      18.520000       0.100883       0.083492       0.363442
      18.530000       0.101069       0.082759       0.361947
      18.540000       0.101111       0.081975       0.360054
      18.550000       0.101013       0.081151       0.357808
      18.560000       0.100797       0.080300       0.355232
      18.570000       0.100503       0.079436       0.352340
      18.580000       0.100174       0.078574       0.349157
      18.590000       0.099853       0.077727       0.345722
      18.600000       0.099572       0.076902       0.342100
      18.610000       0.099350       0.076104       0.338375
      18.620000       0.099192       0.075335       0.334644
      18.630000       0.099087       0.074595       0.331012
      18.640000       0.099016       0.073888       0.327581
      18.650000       0.098950       0.073218       0.324448
      18.660000       0.098852       0.072588       0.321694
      18.670000       0.098687       0.072000       0.319383
      18.680000       0.098423       0.071456       0.317560
      18.690000       0.098034       0.070956       0.316251
      18.700000       0.097510       0.070504       0.315463
      18.710000       0.096851       0.070105       0.315174
      18.720000       0.096074       0.069771       0.315329
      18.730000       0.095209       0.069519       0.315835
      18.740000       0.094294       0.069367       0.316563
      18.750000       0.093373       0.069333       0.317357
      18.760000       0.092482       0.069429       0.318049
      18.770000       0.091651       0.069665       0.318482
      18.780000       0.090896       0.070040       0.318533
      18.790000       0.090226       0.070547       0.318129
      18.800000       0.089643       0.071174       0.317255
      18.810000       0.089143       0.071900       0.315957
      18.820000       0.088721       0.072702       0.314322
      18.830000       0.088369       0.073553       0.312462
      18.840000       0.088077       0.074425       0.310498
      18.850000       0.087829       0.075289       0.308548
      18.860000       0.087611       0.076117       0.306719
      18.870000       0.087409       0.076885       0.305103
      18.880000       0.087212       0.077570       0.303773
      18.890000       0.087011       0.078159       0.302785
      18.900000       0.086803       0.078645       0.302178
      18.910000       0.086587       0.079030       0.301968
      18.920000       0.086369       0.079325       0.302137
      18.930000       0.086158       0.079548       0.302626
      18.940000       0.085968       0.079721       0.303333
      18.950000       0.085812       0.079867       0.304124
      18.960000       0.085703       0.080007       0.304868
      18.970000       0.085653       0.080156       0.305468
      18.980000       0.085666       0.080318       0.305883
      18.990000       0.085740       0.080490       0.306144
      19.000000       0.085863       0.080660       0.306334
      19.010000       0.086017       0.080813       0.306565
      19.020000       0.086173       0.080933       0.306944
      19.030000       0.086301       0.081014       0.307540
      19.040000       0.086368       0.081055       0.308365
      19.050000       0.086350       0.081069       0.309373
      19.060000       0.086233       0.081073       0.310466
      19.070000       0.086017       0.081089       0.311518
      19.080000       0.085710       0.081139       0.312397
      19.090000       0.085331       0.081236       0.312996
      19.100000       0.084896       0.081386       0.313250
      19.110000       0.084421       0.081585       0.313142
      19.120000       0.083913       0.081823       0.312690
      19.130000       0.083375       0.082084       0.311931
      19.140000       0.082805       0.082354       0.310889
      19.150000       0.082202       0.082617       0.309562
      19.160000       0.081563       0.082866       0.307919
      19.170000       0.080892       0.083091       0.305903
      19.180000       0.080194       0.083287       0.303459
      19.190000       0.079481       0.083449       0.300550
      19.200000       0.078769       0.083571       0.297186
      19.210000       0.078078       0.083647       0.293433
      19.220000       0.077429       0.083671       0.289410
      19.230000       0.076842       0.083636       0.285267
      19.240000       0.076330       0.083541       0.281159
      19.250000       0.075897       0.083385       0.277218
      19.260000       0.075540       0.083171       0.273544
      19.270000       0.075244       0.082902       0.270209
      19.280000       0.074986       0.082581       0.267255
      19.290000       0.074743       0.082213       0.264710
      19.300000       0.074489       0.081797       0.262580
      19.310000       0.074209       0.081339       0.260852
      19.320000       0.073890       0.080843       0.259492
      19.330000       0.073531       0.080319       0.258446
      19.340000       0.073134       0.079779       0.257649
      19.350000       0.072705       0.079240       0.257039
      19.360000       0.072249       0.078719       0.256575
      19.370000       0.071770       0.078233       0.256250
      19.380000       0.071267       0.077798       0.256097
      19.390000       0.070739       0.077428       0.256181
      19.400000       0.070180       0.077132       0.256590
      19.410000       0.069589       0.076913       0.257409
      19.420000       0.068963       0.076768       0.258704
      19.430000       0.068307       0.076689       0.260510
      19.440000       0.067625       0.076659       0.262827
      19.450000       0.066925       0.076659       0.265626
      19.460000       0.066213       0.076666       0.268864
      19.470000       0.065494       0.076657       0.272491
      19.480000       0.064773       0.076613       0.276459
      19.490000       0.064053       0.076522       0.280718
      19.500000       0.063339       0.076375       0.285209
      19.510000       0.062635       0.076175       0.289861
      19.520000       0.061946       0.075930       0.294584
      19.530000       0.061277       0.075653       0.299276
      19.540000       0.060634       0.075364       0.303835
      19.550000       0.060024       0.075084       0.308172
      19.560000       0.059453       0.074835       0.312230
      19.570000       0.058927       0.074633       0.316003
      19.580000       0.058450       0.074489       0.319538
      19.590000       0.058022       0.074403       0.322925
      19.600000       0.057641       0.074364       0.326280
      19.610000       0.057303       0.074351       0.329711
      19.620000       0.057000       0.074337       0.333303
      19.630000       0.056725       0.074286       0.337113
      19.640000       0.056470       0.074167       0.341172
      19.650000       0.056228       0.073955       0.345497
      19.660000       0.055991       0.073631       0.350081
      19.670000       0.055755       0.073191       0.354892
      19.680000       0.055516       0.072641       0.359851
      19.690000       0.055271       0.071994       0.364821
      19.700000       0.055018       0.071268       0.369605
      19.710000       0.054758       0.070487       0.373961
      19.720000       0.054491       0.069671       0.377632
      19.730000       0.054223       0.068843       0.380383
      19.740000       0.053960       0.068019       0.382034
      19.750000       0.053709       0.067217       0.382494
      19.760000       0.053478       0.066449       0.381769
      19.770000       0.053272       0.065729       0.379970
      19.780000       0.053097       0.065066       0.377288
      19.790000       0.052958       0.064471       0.373971
      19.800000       0.052861       0.063951       0.370286
      19.810000       0.052810       0.063511       0.366489
      19.820000       0.052813       0.063151       0.362810
      19.830000       0.052875       0.062867       0.359437
      19.840000       0.053001       0.062649       0.356519
      19.850000       0.053196       0.062485       0.354169
      19.860000       0.053462       0.062359       0.352472
      19.870000       0.053802       0.062255       0.351483
      19.880000       0.054217       0.062156       0.351232
      19.890000       0.054708       0.062043       0.351719
      19.900000       0.055275       0.061901       0.352906
      19.910000       0.055918       0.061718       0.354722
      19.920000       0.056634       0.061488       0.357066
      19.930000       0.057418       0.061212       0.359820
      19.940000       0.058261       0.060901       0.362861
      19.950000       0.059150       0.060569       0.366063
      19.960000       0.060063       0.060235       0.369295
      19.970000       0.060977       0.059914       0.372409
      19.980000       0.061862       0.059617       0.375227
      19.990000       0.062690       0.059350       0.377543
      20.000000       0.063439       0.059114       0.379143
