  # energy grid [eV]     epsr_x  epsr_y  epsr_z
       0.000000            NaN            NaN            NaN
       0.010000 -125521.737696 -119835.125611       1.938939
       0.020000  -31376.725234  -29956.094342       1.938969
       0.030000  -13942.462800  -13311.829099       1.939018
       0.040000   -7840.469923   -7486.336037       1.939087
       0.050000   -5016.117807   -4789.964712       1.939175
       0.060000   -3481.900645   -3325.268913       1.939284
       0.070000   -2556.814832   -2442.103265       1.939413
       0.080000   -1956.397265   -1868.894506       1.939563
       0.090000   -1544.751627   -1475.904174       1.939733
       0.100000   -1250.302562   -1194.800203       1.939925
       0.110000   -1032.442165    -986.814750       1.940137
       0.120000    -866.740053    -828.624448       1.940372
       0.130000    -737.783409    -705.514881       1.940628
       0.140000    -635.458800    -607.830892       1.940907
       0.150000    -552.907046    -529.024114       1.941210
       0.160000    -485.342982    -464.526217       1.941536
       0.170000    -429.346014    -411.071611       1.941886
       0.180000    -382.418465    -366.275800       1.942261
       0.190000    -342.702114    -328.364774       1.942662
       0.200000    -308.791348    -295.996619       1.943089
       0.210000    -279.607035    -268.141109       1.943544
       0.220000    -254.309582    -243.996704       1.944026
       0.230000    -232.237848    -222.932231       1.944537
       0.240000    -212.865489    -204.445207       1.945078
       0.250000    -195.769277    -188.131590       1.945649
       0.260000    -180.605770    -173.663514       1.946252
       0.270000    -167.093923    -160.772678       1.946887
       0.280000    -155.001959    -149.237823       1.947555
       0.290000    -144.137359    -138.875166       1.948258
       0.300000    -134.339139    -129.531033       1.948995
       0.310000    -125.471855    -121.076131       1.949766
       0.320000    -117.420882    -113.401047       1.950573
       0.330000    -110.088693    -106.412690       1.951414
       0.340000    -103.391883    -100.031453       1.952288
       0.350000     -97.258787     -94.188938       1.953193
       0.360000     -91.627548     -88.826111       1.954126
       0.370000     -86.444547     -83.891806       1.955083
       0.380000     -81.663123     -79.341500       1.956057
       0.390000     -77.242514     -75.136303       1.957039
       0.400000     -73.146981     -71.242122       1.958019
       0.410000     -69.345088     -67.628974       1.958986
       0.420000     -65.809088     -64.270399       1.959924
       0.430000     -62.514415     -61.142977       1.960818
       0.440000     -59.439258     -58.225920       1.961651
       0.450000     -56.564195     -55.500722       1.962404
       0.460000     -53.871884     -52.950867       1.963055
       0.470000     -51.346801     -50.561574       1.963574
       0.480000     -48.975015     -48.319587       1.963925
       0.490000     -46.743992     -46.212988       1.964063
       0.500000     -44.642432     -44.231038       1.963938
       0.510000     -42.660121     -42.364039       1.963505
       0.520000     -40.787809     -40.603217       1.962731
       0.530000     -39.017101     -38.940615       1.961613
       0.540000     -37.340362     -37.369007       1.960177
       0.550000     -35.750633     -35.881817       1.958484
       0.560000     -34.241562     -34.473049       1.956614
       0.570000     -32.807337     -33.137229       1.954650
       0.580000     -31.442633     -31.869347       1.952659
       0.590000     -30.142560     -30.664818       1.950684
       0.600000     -28.902624     -29.519430       1.948734
       0.610000     -27.718687     -28.429315       1.946789
       0.620000     -26.586934     -27.390913       1.944813
       0.630000     -25.503843     -26.400945       1.942769
       0.640000     -24.466166     -25.456382       1.940636
       0.650000     -23.470900     -24.554428       1.938423
       0.660000     -22.515277     -23.692496       1.936176
       0.670000     -21.596746     -22.868189       1.933977
       0.680000     -20.712964     -22.079287       1.931933
       0.690000     -19.861785     -21.323727       1.930154
       0.700000     -19.041255     -20.599594       1.928729
       0.710000     -18.249608     -19.905103       1.927711
       0.720000     -17.485255     -19.238597       1.927102
       0.730000     -16.746786     -18.598528       1.926860
       0.740000     -16.032964     -17.983453       1.926909
       0.750000     -15.342728     -17.392028       1.927148
       0.760000     -14.675216     -16.822996       1.927468
       0.770000     -14.029790     -16.275191       1.927763
       0.780000     -13.406100     -15.747528       1.927938
       0.790000     -12.804171     -15.239007       1.927921
       0.800000     -12.224545     -14.748707       1.927663
       0.810000     -11.668468     -14.275792       1.927144
       0.820000     -11.138108     -13.819506       1.926367
       0.830000     -10.636759     -13.379178       1.925359
       0.840000     -10.168978     -12.954220       1.924162
       0.850000      -9.740564     -12.544131       1.922821
       0.860000      -9.358321     -12.148486       1.921387
       0.870000      -9.029482     -11.766923       1.919910
       0.880000      -8.760769     -11.399116       1.918441
       0.890000      -8.557119     -11.044738       1.917037
       0.900000      -8.420336     -10.703407       1.915753
       0.910000      -8.348094     -10.374636       1.914638
       0.920000      -8.333754     -10.057804       1.913722
       0.930000      -8.367188      -9.752145       1.913017
       0.940000      -8.436405      -9.456776       1.912510
       0.950000      -8.529449      -9.170751       1.912174
       0.960000      -8.636062      -8.893130       1.911970
       0.970000      -8.748751      -8.623052       1.911860
       0.980000      -8.863047      -8.359790       1.911813
       0.990000      -8.976914      -8.102763       1.911807
       1.000000      -9.089557      -7.851517       1.911832
       1.010000      -9.200226      -7.605687       1.911886
       1.020000      -9.307586      -7.364971       1.911976
       1.030000      -9.409803      -7.129131       1.912111
       1.040000      -9.504894      -6.898003       1.912303
       1.050000      -9.590768      -6.671516       1.912563
       1.060000      -9.664718      -6.449690       1.912891
       1.070000      -9.722727      -6.232622       1.913273
       1.080000      -9.759262      -6.020481       1.913677
       1.090000      -9.767961      -5.813516       1.914049
       1.100000      -9.743064      -5.612081       1.914327
       1.110000      -9.680908      -5.416649       1.914448
       1.120000      -9.580809      -5.227795       1.914371
       1.130000      -9.445038      -5.046136       1.914081
       1.140000      -9.278089      -4.872209       1.913603
       1.150000      -9.085676      -4.706304       1.912995
       1.160000      -8.873813      -4.548302       1.912338
       1.170000      -8.648162      -4.397574       1.911720
       1.180000      -8.413687      -4.253029       1.911221
       1.190000      -8.174520      -4.113334       1.910898
       1.200000      -7.933982      -3.977267       1.910782
       1.210000      -7.694657      -3.844067       1.910878
       1.220000      -7.458485      -3.713650       1.911176
       1.230000      -7.226847      -3.586610       1.911651
       1.240000      -7.000619      -3.464022       1.912282
       1.250000      -6.780238      -3.347093       1.913046
       1.260000      -6.565772      -3.236781       1.913925
       1.270000      -6.357039      -3.133461       1.914900
       1.280000      -6.153749      -3.036759       1.915945
       1.290000      -5.955660      -2.945640       1.917030
       1.300000      -5.762687      -2.858722       1.918112
       1.310000      -5.574954      -2.774704       1.919150
       1.320000      -5.392778      -2.692682       1.920107
       1.330000      -5.216588      -2.612215       1.920957
       1.340000      -5.046814      -2.533136       1.921693
       1.350000      -4.883739      -2.455253       1.922322
       1.360000      -4.727335      -2.378148       1.922867
       1.370000      -4.577143      -2.301217       1.923351
       1.380000      -4.432216      -2.223940       1.923800
       1.390000      -4.291209      -2.146239       1.924233
       1.400000      -4.152591      -2.068711       1.924659
       1.410000      -4.014926      -1.992616       1.925079
       1.420000      -3.877124      -1.919589       1.925490
       1.430000      -3.738571      -1.851175       1.925887
       1.440000      -3.599129      -1.788329       1.926273
       1.450000      -3.459053      -1.731045       1.926663
       1.460000      -3.318869      -1.678294       1.927078
       1.470000      -3.179276      -1.628348       1.927538
       1.480000      -3.041087      -1.579410       1.928045
       1.490000      -2.905198      -1.530316       1.928575
       1.500000      -2.772585      -1.481031       1.929079
       1.510000      -2.644300      -1.432756       1.929482
       1.520000      -2.521455      -1.387643       1.929707
       1.530000      -2.405170      -1.348208       1.929682
       1.540000      -2.296476      -1.316617       1.929371
       1.550000      -2.196176      -1.293982       1.928781
       1.560000      -2.104704      -1.279864       1.927972
       1.570000      -2.022015      -1.272129       1.927048
       1.580000      -1.947578      -1.267258       1.926132
       1.590000      -1.880486      -1.261050       1.925340
       1.600000      -1.819658      -1.249507       1.924753
       1.610000      -1.764046      -1.229609       1.924410
       1.620000      -1.712778      -1.199778       1.924310
       1.630000      -1.665212      -1.159946       1.924430
       1.640000      -1.620932      -1.111343       1.924737
       1.650000      -1.579749      -1.056143       1.925202
       1.660000      -1.541696      -0.997103       1.925805
       1.670000      -1.507013      -0.937227       1.926532
       1.680000      -1.476107      -0.879471       1.927374
       1.690000      -1.449533      -0.826464       1.928329
       1.700000      -1.427993      -0.780270       1.929396
       1.710000      -1.412349      -0.742214       1.930578
       1.720000      -1.403554      -0.712798       1.931876
       1.730000      -1.402514      -0.691747       1.933282
       1.740000      -1.409906      -0.678130       1.934773
       1.750000      -1.426078      -0.670544       1.936313
       1.760000      -1.451081      -0.667299       1.937846
       1.770000      -1.484788      -0.666614       1.939315
       1.780000      -1.527023      -0.666786       1.940662
       1.790000      -1.577604      -0.666296       1.941848
       1.800000      -1.636277      -0.663831       1.942859
       1.810000      -1.702520      -0.658276       1.943713
       1.820000      -1.775267      -0.648778       1.944459
       1.830000      -1.852610      -0.634916       1.945164
       1.840000      -1.931600      -0.616900       1.945894
       1.850000      -2.008295      -0.595670       1.946698
       1.860000      -2.078106      -0.572802       1.947594
       1.870000      -2.136440      -0.550275       1.948571
       1.880000      -2.179459      -0.530183       1.949594
       1.890000      -2.204724      -0.514511       1.950625
       1.900000      -2.211493      -0.504955       1.951633
       1.910000      -2.200608      -0.502740       1.952604
       1.920000      -2.174073      -0.508361       1.953539
       1.930000      -2.134503      -0.521299       1.954448
       1.940000      -2.084619      -0.539859       1.955336
       1.950000      -2.026890      -0.561291       1.956195
       1.960000      -1.963353      -0.582244       1.956999
       1.970000      -1.895576      -0.599407       1.957714
       1.980000      -1.824729      -0.610112       1.958308
       1.990000      -1.751692      -0.612695       1.958765
       2.000000      -1.677155      -0.606598       1.959097
       2.010000      -1.601705      -0.592273       1.959342
       2.020000      -1.525868      -0.570990       1.959559
       2.030000      -1.450138      -0.544599       1.959802
       2.040000      -1.374989      -0.515262       1.960099
       2.050000      -1.300876      -0.485157       1.960446
       2.060000      -1.228231      -0.456194       1.960799
       2.070000      -1.157463      -0.429788       1.961100
       2.080000      -1.088937      -0.406705       1.961294
       2.090000      -1.022959      -0.387009       1.961354
       2.100000      -0.959732      -0.370102       1.961291
       2.110000      -0.899323      -0.354862       1.961147
       2.120000      -0.841611      -0.339894       1.960982
       2.130000      -0.786278      -0.323841       1.960845
       2.140000      -0.732822      -0.305696       1.960752
       2.150000      -0.680633      -0.285002       1.960679
       2.160000      -0.629092      -0.261874       1.960565
       2.170000      -0.577683      -0.236841       1.960333
       2.180000      -0.526087      -0.210557       1.959909
       2.190000      -0.474204      -0.183515       1.959244
       2.200000      -0.422151      -0.155855       1.958325
       2.210000      -0.370206      -0.127376       1.957182
       2.220000      -0.318749      -0.097720       1.955876
       2.230000      -0.268199      -0.066643       1.954483
       2.240000      -0.218956      -0.034219       1.953074
       2.250000      -0.171340      -0.000913       1.951699
       2.260000      -0.125552       0.032513       1.950381
       2.270000      -0.081641       0.065186       1.949133
       2.280000      -0.039514       0.096318       1.947964
       2.290000       0.001019       0.125365       1.946901
       2.300000       0.040180       0.152099       1.945982
       2.310000       0.078150       0.176626       1.945246
       2.320000       0.115026       0.199345       1.944713
       2.330000       0.150812       0.220886       1.944373
       2.340000       0.185438       0.242036       1.944184
       2.350000       0.218810       0.263632       1.944080
       2.360000       0.250855       0.286419       1.943992
       2.370000       0.281531       0.310893       1.943857
       2.380000       0.310814       0.337164       1.943632
       2.390000       0.338638       0.364907       1.943305
       2.400000       0.364840       0.393398       1.942897
       2.410000       0.389131       0.421658       1.942463
       2.420000       0.411128       0.448647       1.942080
       2.430000       0.430423       0.473489       1.941833
       2.440000       0.446664       0.495663       1.941796
       2.450000       0.459601       0.515105       1.942016
       2.460000       0.469082       0.532183       1.942511
       2.470000       0.475024       0.547548       1.943263
       2.480000       0.477407       0.561919       1.944229
       2.490000       0.476304       0.575916       1.945345
       2.500000       0.471968       0.589997       1.946531
       2.510000       0.464927       0.604517       1.947694
       2.520000       0.456066       0.619837       1.948731
       2.530000       0.446633       0.636395       1.949543
       2.540000       0.438155       0.654672       1.950037
       2.550000       0.432240       0.675070       1.950148
       2.560000       0.430331       0.697772       1.949849
       2.570000       0.433473       0.722669       1.949158
       2.580000       0.442189       0.749393       1.948135
       2.590000       0.456476       0.777428       1.946865
       2.600000       0.475911       0.806251       1.945440
       2.610000       0.499806       0.835443       1.943928
       2.620000       0.527354       0.864728       1.942363
       2.630000       0.557745       0.893954       1.940737
       2.640000       0.590229       0.923044       1.939013
       2.650000       0.624154       0.951963       1.937140
       2.660000       0.658983       0.980715       1.935077
       2.670000       0.694299       1.009354       1.932810
       2.680000       0.729806       1.037983       1.930370
       2.690000       0.765321       1.066708       1.927842
       2.700000       0.800747       1.095589       1.925360
       2.710000       0.836047       1.124595       1.923089
       2.720000       0.871212       1.153600       1.921196
       2.730000       0.906242       1.182425       1.919817
       2.740000       0.941136       1.210909       1.919036
       2.750000       0.975893       1.238958       1.918868
       2.760000       1.010523       1.266555       1.919268
       2.770000       1.045042       1.293707       1.920144
       2.780000       1.079468       1.320365       1.921382
       2.790000       1.113805       1.346368       1.922872
       2.800000       1.148038       1.371432       1.924524
       2.810000       1.182123       1.395218       1.926280
       2.820000       1.216003       1.417425       1.928120
       2.830000       1.249620       1.437886       1.930053
       2.840000       1.282938       1.456623       1.932108
       2.850000       1.315954       1.473855       1.934321
       2.860000       1.348706       1.489958       1.936713
       2.870000       1.381260       1.505426       1.939286
       2.880000       1.413691       1.520846       1.942016
       2.890000       1.446054       1.536877       1.944851
       2.900000       1.478371       1.554228       1.947726
       2.910000       1.510620       1.573595       1.950560
       2.920000       1.542748       1.595576       1.953270
       2.930000       1.574682       1.620594       1.955770
       2.940000       1.606350       1.648841       1.957979
       2.950000       1.637692       1.680274       1.959830
       2.960000       1.668674       1.714627       1.961270
       2.970000       1.699297       1.751450       1.962266
       2.980000       1.729598       1.790147       1.962796
       2.990000       1.759651       1.830021       1.962844
       3.000000       1.789561       1.870306       1.962392
       3.010000       1.819446       1.910202       1.961417
       3.020000       1.849436       1.948892       1.959905
       3.030000       1.879664       1.985570       1.957863
       3.040000       1.910262       2.019471       1.955335
       3.050000       1.941359       2.049905       1.952410
       3.060000       1.973059       2.076294       1.949217
       3.070000       2.005423       2.098188       1.945916
       3.080000       2.038453       2.115251       1.942689
       3.090000       2.072078       2.127227       1.939725
       3.100000       2.106162       2.133885       1.937211
       3.110000       2.140519       2.135004       1.935311
       3.120000       2.174940       2.130402       1.934146
       3.130000       2.209221       2.120049       1.933772
       3.140000       2.243188       2.104216       1.934179
       3.150000       2.276712       2.083622       1.935290
       3.160000       2.309707       2.059532       1.936981
       3.170000       2.342115       2.033734       1.939100
       3.180000       2.373898       2.008376       1.941485
       3.190000       2.405037       1.985654       1.943982
       3.200000       2.435560       1.967439       1.946455
       3.210000       2.465574       1.954950       1.948796
       3.220000       2.495284       1.948622       1.950930
       3.230000       2.524996       1.948174       1.952820
       3.240000       2.555076       1.952850       1.954469
       3.250000       2.585886       1.961705       1.955915
       3.260000       2.617695       1.973830       1.957228
       3.270000       2.650599       1.988504       1.958495
       3.280000       2.684454       2.005228       1.959811
       3.290000       2.718847       2.023703       1.961263
       3.300000       2.753114       2.043759       1.962922
       3.310000       2.786396       2.065252       1.964837
       3.320000       2.817732       2.087983       1.967023
       3.330000       2.846178       2.111649       1.969463
       3.340000       2.870947       2.135865       1.972110
       3.350000       2.891526       2.160231       1.974888
       3.360000       2.907771       2.184419       1.977704
       3.370000       2.919928       2.208213       1.980457
       3.380000       2.928618       2.231501       1.983047
       3.390000       2.934778       2.254211       1.985386
       3.400000       2.939559       2.276228       1.987405
       3.410000       2.944161       2.297296       1.989065
       3.420000       2.949580       2.316958       1.990351
       3.430000       2.956318       2.334516       1.991276
       3.440000       2.964161       2.349080       1.991866
       3.450000       2.972107       2.359719       1.992158
       3.460000       2.978497       2.365700       1.992181
       3.470000       2.981314       2.366758       1.991960
       3.480000       2.978584       2.363268       1.991509
       3.490000       2.968815       2.356235       1.990848
       3.500000       2.951387       2.347091       1.990009
       3.510000       2.926813       2.337366       1.989044
       3.520000       2.896814       2.328420       1.988023
       3.530000       2.864152       2.321327       1.987022
       3.540000       2.832245       2.316915       1.986107
       3.550000       2.804592       2.315863       1.985329
       3.560000       2.784140       2.318738       1.984722
       3.570000       2.772763       2.325903       1.984313
       3.580000       2.770984       2.337375       1.984136
       3.590000       2.778009       2.352720       1.984230
       3.600000       2.792013       2.371055       1.984640
       3.610000       2.810570       2.391162       1.985401
       3.620000       2.831120       2.411636       1.986535
       3.630000       2.851379       2.431020       1.988040
       3.640000       2.869641       2.447905       1.989890
       3.650000       2.884898       2.461021       1.992039
       3.660000       2.896776       2.469330       1.994435
       3.670000       2.905316       2.472124       1.997022
       3.680000       2.910735       2.469108       1.999752
       3.690000       2.913268       2.460441       2.002581
       3.700000       2.913159       2.446755       2.005469
       3.710000       2.910749       2.429162       2.008375
       3.720000       2.906568       2.409245       2.011255
       3.730000       2.901320       2.388998       2.014065
       3.740000       2.895741       2.370651       2.016765
       3.750000       2.890317       2.356352       2.019321
       3.760000       2.884983       2.347767       2.021713
       3.770000       2.878913       2.345716       2.023926
       3.780000       2.870539       2.349992       2.025961
       3.790000       2.857838       2.359430       2.027836
       3.800000       2.838830       2.372186       2.029588
       3.810000       2.812095       2.386113       2.031283
       3.820000       2.777143       2.399102       2.033001
       3.830000       2.734453       2.409300       2.034823
       3.840000       2.685214       2.415164       2.036812
       3.850000       2.630901       2.415427       2.038990
       3.860000       2.572900       2.409052       2.041335
       3.870000       2.512346       2.395283       2.043789
       3.880000       2.450180       2.373797       2.046272
       3.890000       2.387291       2.344882       2.048707
       3.900000       2.324630       2.309515       2.051035
       3.910000       2.263207       2.269260       2.053223
       3.920000       2.204002       2.225968       2.055271
       3.930000       2.147832       2.181405       2.057204
       3.940000       2.095203       2.136922       2.059060
       3.950000       2.046167       2.093285       2.060876
       3.960000       2.000222       2.050702       2.062675
       3.970000       1.956389       2.009007       2.064458
       3.980000       1.913510       1.967912       2.066194
       3.990000       1.870712       1.927233       2.067827
       4.000000       1.827835       1.887015       2.069281
       4.010000       1.785616       1.847564       2.070476
       4.020000       1.745513       1.809432       2.071332
       4.030000       1.709305       1.773382       2.071778
       4.040000       1.678658       1.740306       2.071753
       4.050000       1.654881       1.711052       2.071211
       4.060000       1.638903       1.686162       2.070132
       4.070000       1.631350       1.665617       2.068543
       4.080000       1.632583       1.648714       2.066530
       4.090000       1.642602       1.634156       2.064247
       4.100000       1.660878       1.620372       2.061894
       4.110000       1.686214       1.605948       2.059687
       4.120000       1.716728       1.590014       2.057814
       4.130000       1.749961       1.572446       2.056410
       4.140000       1.783081       1.553807       2.055534
       4.150000       1.813143       1.535088       2.055179
       4.160000       1.837396       1.517384       2.055285
       4.170000       1.853619       1.501649       2.055758
       4.180000       1.860444       1.488595       2.056490
       4.190000       1.857555       1.478716       2.057376
       4.200000       1.845706       1.472347       2.058327
       4.210000       1.826496       1.469705       2.059269
       4.220000       1.801994       1.470871       2.060141
       4.230000       1.774315       1.475722       2.060884
       4.240000       1.745289       1.483852       2.061434
       4.250000       1.716255       1.494561       2.061723
       4.260000       1.688013       1.506911       2.061690
       4.270000       1.660893       1.519864       2.061305
       4.280000       1.634909       1.532434       2.060584
       4.290000       1.609944       1.543803       2.059600
       4.300000       1.585900       1.553350       2.058465
       4.310000       1.562821       1.560651       2.057301
       4.320000       1.540993       1.565471       2.056217
       4.330000       1.521000       1.567811       2.055279
       4.340000       1.503728       1.567992       2.054517
       4.350000       1.490242       1.566714       2.053929
       4.360000       1.481579       1.565043       2.053505
       4.370000       1.478489       1.564272       2.053241
       4.380000       1.481226       1.565735       2.053141
       4.390000       1.489438       1.570602       2.053218
       4.400000       1.502177       1.579708       2.053474
       4.410000       1.518012       1.593413       2.053890
       4.420000       1.535227       1.611513       2.054431
       4.430000       1.552033       1.633202       2.055049
       4.440000       1.566745       1.657127       2.055706
       4.450000       1.577890       1.681504       2.056382
       4.460000       1.584272       1.704303       2.057075
       4.470000       1.585051       1.723468       2.057797
       4.480000       1.579907       1.737165       2.058550
       4.490000       1.569237       1.744037       2.059315
       4.500000       1.554295       1.743442       2.060050
       4.510000       1.537129       1.735589       2.060681
       4.520000       1.520250       1.721546       2.061121
       4.530000       1.506094       1.703071       2.061275
       4.540000       1.496504       1.682299       2.061060
       4.550000       1.492414       1.661370       2.060418
       4.560000       1.493864       1.642095       2.059327
       4.570000       1.500264       1.625761       2.057802
       4.580000       1.510753       1.613092       2.055893
       4.590000       1.524451       1.604332       2.053673
       4.600000       1.540539       1.599358       2.051221
       4.610000       1.558211       1.597770       2.048619
       4.620000       1.576605       1.598897       2.045946
       4.630000       1.594835       1.601776       2.043292
       4.640000       1.612117       1.605155       2.040768
       4.650000       1.627928       1.607574       2.038509
       4.660000       1.642088       1.607551       2.036663
       4.670000       1.654703       1.603837       2.035363
       4.680000       1.665994       1.595652       2.034702
       4.690000       1.676080       1.582836       2.034713
       4.700000       1.684801       1.565832       2.035368
       4.710000       1.691633       1.545524       2.036593
       4.720000       1.695727       1.522957       2.038291
       4.730000       1.696041       1.499067       2.040362
       4.740000       1.691524       1.474509       2.042711
       4.750000       1.681317       1.449636       2.045246
       4.760000       1.664949       1.424600       2.047872
       4.770000       1.642509       1.399504       2.050484
       4.780000       1.614794       1.374573       2.052979
       4.790000       1.583361       1.350294       2.055263
       4.800000       1.550436       1.327495       2.057276
       4.810000       1.518614       1.307312       2.059003
       4.820000       1.490392       1.291003       2.060474
       4.830000       1.467672       1.279668       2.061763
       4.840000       1.451429       1.273974       2.062976
       4.850000       1.441671       1.273982       2.064237
       4.860000       1.437681       1.279126       2.065669
       4.870000       1.438421       1.288315       2.067384
       4.880000       1.442910       1.300126       2.069468
       4.890000       1.450432       1.313003       2.071971
       4.900000       1.460524       1.325439       2.074913
       4.910000       1.472779       1.336122       2.078276
       4.920000       1.486615       1.344066       2.082023
       4.930000       1.501133       1.348735       2.086096
       4.940000       1.515167       1.350148       2.090427
       4.950000       1.527497       1.348942       2.094942
       4.960000       1.537152       1.346325       2.099566
       4.970000       1.543666       1.343893       2.104221
       4.980000       1.547198       1.343311       2.108830
       4.990000       1.548446       1.345920       2.113318
       5.000000       1.548404       1.352373       2.117618
       5.010000       1.548070       1.362441       2.121675
       5.020000       1.548244       1.375035       2.125450
       5.030000       1.549442       1.388426       2.128922
       5.040000       1.551940       1.400595       2.132086
       5.050000       1.555854       1.409609       2.134941
       5.060000       1.561220       1.413973       2.137491
       5.070000       1.568064       1.412876       2.139730
       5.080000       1.576452       1.406323       2.141646
       5.090000       1.586518       1.395110       2.143218
       5.100000       1.598449       1.380680       2.144413
       5.110000       1.612426       1.364895       2.145197
       5.120000       1.628538       1.349757       2.145537
       5.130000       1.646714       1.337120       2.145410
       5.140000       1.666706       1.328408       2.144813
       5.150000       1.688123       1.324390       2.143770
       5.160000       1.710499       1.325101       2.142330
       5.170000       1.733406       1.329933       2.140575
       5.180000       1.756577       1.337875       2.138625
       5.190000       1.780003       1.347854       2.136637
       5.200000       1.803948       1.359030       2.134801
       5.210000       1.828863       1.371004       2.133320
       5.220000       1.855221       1.383862       2.132386
       5.230000       1.883302       1.398055       2.132154
       5.240000       1.912998       1.414163       2.132723
       5.250000       1.943669       1.432632       2.134134
       5.260000       1.974092       1.453563       2.136366
       5.270000       2.002489       1.476621       2.139354
       5.280000       2.026648       1.501067       2.143002
       5.290000       2.044124       1.525859       2.147203
       5.300000       2.052526       1.549766       2.151846
       5.310000       2.049864       1.571472       2.156826
       5.320000       2.034900       1.589655       2.162045
       5.330000       2.007415       1.603082       2.167419
       5.340000       1.968259       1.610701       2.172876
       5.350000       1.919169       1.611725       2.178365
       5.360000       1.862393       1.605700       2.183852
       5.370000       1.800303       1.592549       2.189314
       5.380000       1.735191       1.572635       2.194733
       5.390000       1.669316       1.546851       2.200088
       5.400000       1.605102       1.516677       2.205351
       5.410000       1.545293       1.484141       2.210490
       5.420000       1.492881       1.451663       2.215469
       5.430000       1.450802       1.421772       2.220254
       5.440000       1.421505       1.396794       2.224809
       5.450000       1.406586       1.378575       2.229092
       5.460000       1.406580       1.368294       2.233058
       5.470000       1.420963       1.366388       2.236654
       5.480000       1.448310       1.372587       2.239833
       5.490000       1.486540       1.386039       2.242554
       5.500000       1.533198       1.405527       2.244800
       5.510000       1.585701       1.429706       2.246571
       5.520000       1.641521       1.457325       2.247893
       5.530000       1.698281       1.487364       2.248812
       5.540000       1.753781       1.519068       2.249379
       5.550000       1.805981       1.551878       2.249650
       5.560000       1.853021       1.585314       2.249672
       5.570000       1.893314       1.618859       2.249484
       5.580000       1.925749       1.651894       2.249123
       5.590000       1.949921       1.683720       2.248639
       5.600000       1.966314       1.713634       2.248106
       5.610000       1.976286       1.741035       2.247629
       5.620000       1.981816       1.765487       2.247340
       5.630000       1.985051       1.786700       2.247382
       5.640000       1.987823       1.804446       2.247886
       5.650000       1.991328       1.818460       2.248953
       5.660000       1.996081       1.828409       2.250629
       5.670000       2.002134       1.833966       2.252910
       5.680000       2.009450       1.834965       2.255736
       5.690000       2.018242       1.831556       2.259006
       5.700000       2.029138       1.824294       2.262592
       5.710000       2.043101       1.814112       2.266353
       5.720000       2.061134       1.802189       2.270155
       5.730000       2.083920       1.789752       2.273889
       5.740000       2.111546       1.777829       2.277487
       5.750000       2.143397       1.767025       2.280931
       5.760000       2.178201       1.757388       2.284262
       5.770000       2.214154       1.748428       2.287570
       5.780000       2.249067       1.739288       2.290973
       5.790000       2.280525       1.729018       2.294591
       5.800000       2.306055       1.716835       2.298511
       5.810000       2.323351       1.702293       2.302766
       5.820000       2.330540       1.685347       2.307325
       5.830000       2.326468       1.666338       2.312096
       5.840000       2.310930       1.645959       2.316941
       5.850000       2.284736       1.625227       2.321695
       5.860000       2.249511       1.605406       2.326193
       5.870000       2.207211       1.587852       2.330293
       5.880000       2.159528       1.573763       2.333896
       5.890000       2.107394       1.563932       2.336952
       5.900000       2.050843       1.558608       2.339463
       5.910000       1.989263       1.557532       2.341483
       5.920000       1.921935       1.560138       2.343102
       5.930000       1.848653       1.565826       2.344436
       5.940000       1.770203       1.574189       2.345617
       5.950000       1.688563       1.585101       2.346777
       5.960000       1.606728       1.598634       2.348035
       5.970000       1.528199       1.614846       2.349488
       5.980000       1.456314       1.633543       2.351206
       5.990000       1.393627       1.654132       2.353229
       6.000000       1.341543       1.675605       2.355576
       6.010000       1.300253       1.696687       2.358239
       6.020000       1.268913       1.716083       2.361182
       6.030000       1.245944       1.732783       2.364336
       6.040000       1.229360       1.746318       2.367598
       6.050000       1.217055       1.756882       2.370847
       6.060000       1.207018       1.765226       2.373963
       6.070000       1.197420       1.772355       2.376855
       6.080000       1.186585       1.779136       2.379486
       6.090000       1.172904       1.785994       2.381882
       6.100000       1.154792       1.792807       2.384114
       6.110000       1.130775       1.799023       2.386286
       6.120000       1.099698       1.803923       2.388493
       6.130000       1.060977       1.806911       2.390803
       6.140000       1.014796       1.807720       2.393238
       6.150000       0.962207       1.806493       2.395778
       6.160000       0.905084       1.803746       2.398373
       6.170000       0.845964       1.800292       2.400966
       6.180000       0.787755       1.797190       2.403516
       6.190000       0.733392       1.795732       2.406012
       6.200000       0.685497       1.797405       2.408475
       6.210000       0.646123       1.803746       2.410956
       6.220000       0.616629       1.816084       2.413517
       6.230000       0.597640       1.835231       2.416209
       6.240000       0.589068       1.861224       2.419062
       6.250000       0.590121       1.893203       2.422072
       6.260000       0.599323       1.929447       2.425209
       6.270000       0.614596       1.967533       2.428428
       6.280000       0.633419       2.004541       2.431683
       6.290000       0.653071       2.037261       2.434937
       6.300000       0.670878       2.062356       2.438166
       6.310000       0.684422       2.076529       2.441355
       6.320000       0.691706       2.076745       2.444491
       6.330000       0.691303       2.060552       2.447562
       6.340000       0.682483       2.026496       2.450559
       6.350000       0.665298       1.974504       2.453483
       6.360000       0.640559       1.906108       2.456352
       6.370000       0.609683       1.824345       2.459198
       6.380000       0.574401       1.733292       2.462071
       6.390000       0.536413       1.637346       2.465030
       6.400000       0.497081       1.540458       2.468135
       6.410000       0.457225       1.445559       2.471439
       6.420000       0.417054       1.354332       2.474980
       6.430000       0.376216       1.267314       2.478774
       6.440000       0.333909       1.184242       2.482818
       6.450000       0.289074       1.104491       2.487092
       6.460000       0.240640       1.027489       2.491570
       6.470000       0.187833       0.953006       2.496232
       6.480000       0.130451       0.881235       2.501063
       6.490000       0.068995       0.812668       2.506055
       6.500000       0.004559       0.747813       2.511202
       6.510000      -0.061467       0.686909       2.516488
       6.520000      -0.127713       0.629776       2.521886
       6.530000      -0.193029       0.575887       2.527360
       6.540000      -0.256478       0.524624       2.532858
       6.550000      -0.317199       0.475599       2.538317
       6.560000      -0.374273       0.428866       2.543668
       6.570000      -0.426692       0.384931       2.548841
       6.580000      -0.473491       0.344540       2.553784
       6.590000      -0.513964       0.308370       2.558472
       6.600000      -0.547855       0.276779       2.562922
       6.610000      -0.575392       0.249744       2.567185
       6.620000      -0.597163       0.226982       2.571351
       6.630000      -0.613863       0.208154       2.575534
       6.640000      -0.626032       0.193028       2.579869
       6.650000      -0.633878       0.181522       2.584502
       6.660000      -0.637264       0.173600       2.589567
       6.670000      -0.635881       0.169069       2.595170
       6.680000      -0.629536       0.167370       2.601374
       6.690000      -0.618450       0.167436       2.608194
       6.700000      -0.603415       0.167734       2.615601
       6.710000      -0.585725       0.166506       2.623528
       6.720000      -0.566905       0.162167       2.631890
       6.730000      -0.548327       0.153747       2.640596
       6.740000      -0.530874       0.141251       2.649565
       6.750000      -0.514739       0.125785       2.658727
       6.760000      -0.499452       0.109406       2.668021
       6.770000      -0.484079       0.094716       2.677390
       6.780000      -0.467534       0.084337       2.686775
       6.790000      -0.448897       0.080412       2.696123
       6.800000      -0.427667       0.084253       2.705392
       6.810000      -0.403928       0.096196       2.714568
       6.820000      -0.378400       0.115638       2.723683
       6.830000      -0.352396       0.141242       2.732806
       6.840000      -0.327649       0.171223       2.742041
       6.850000      -0.306027       0.203682       2.751500
       6.860000      -0.289176       0.236897       2.761280
       6.870000      -0.278158       0.269534       2.771446
       6.880000      -0.273206       0.300740       2.782026
       6.890000      -0.273680       0.330095       2.793015
       6.900000      -0.278286       0.357467       2.804393
       6.910000      -0.285474       0.382806       2.816134
       6.920000      -0.293904       0.405975       2.828218
       6.930000      -0.302760       0.426672       2.840628
       6.940000      -0.311825       0.444467       2.853348
       6.950000      -0.321298       0.458929       2.866356
       6.960000      -0.331474       0.469768       2.879621
       6.970000      -0.342439       0.476916       2.893110
       6.980000      -0.353907       0.480511       2.906795
       6.990000      -0.365240       0.480790       2.920667
       7.000000      -0.375633       0.477950       2.934737
       7.010000      -0.384342       0.472071       2.949023
       7.020000      -0.390865       0.463140       2.963534
       7.030000      -0.394967       0.451181       2.978248
       7.040000      -0.396569       0.436441       2.993109
       7.050000      -0.395587       0.419541       3.008036
       7.060000      -0.391800       0.401505       3.022934
       7.070000      -0.384860       0.383633       3.037714
       7.080000      -0.374409       0.367270       3.052297
       7.090000      -0.360265       0.353551       3.066612
       7.100000      -0.342579       0.343237       3.080575
       7.110000      -0.321896       0.336640       3.094074
       7.120000      -0.299109       0.333655       3.106941
       7.130000      -0.275320       0.333857       3.118945
       7.140000      -0.251666       0.336639       3.129799
       7.150000      -0.229134       0.341396       3.139181
       7.160000      -0.208416       0.347688       3.146775
       7.170000      -0.189819       0.355350       3.152314
       7.180000      -0.173251       0.364504       3.155620
       7.190000      -0.158304       0.375464       3.156625
       7.200000      -0.144397       0.388577       3.155372
       7.210000      -0.130936       0.404075       3.151979
       7.220000      -0.117442       0.421999       3.146593
       7.230000      -0.103594       0.442211       3.139355
       7.240000      -0.089226       0.464472       3.130384
       7.250000      -0.074275       0.488523       3.119799
       7.260000      -0.058767       0.514129       3.107760
       7.270000      -0.042807       0.541059       3.094512
       7.280000      -0.026607       0.569036       3.080409
       7.290000      -0.010498       0.597680       3.065899
       7.300000       0.005074       0.626477       3.051473
       7.310000       0.019592       0.654789       3.037586
       7.320000       0.032526       0.681892       3.024584
       7.330000       0.043407       0.707059       3.012660
       7.340000       0.051901       0.729656       3.001847
       7.350000       0.057880       0.749263       2.992051
       7.360000       0.061468       0.765778       2.983089
       7.370000       0.063047       0.779464       2.974723
       7.380000       0.063195       0.790912       2.966691
       7.390000       0.062574       0.800920       2.958732
       7.400000       0.061809       0.810342       2.950626
       7.410000       0.061410       0.819966       2.942247
       7.420000       0.061759       0.830445       2.933610
       7.430000       0.063129       0.842273       2.924868
       7.440000       0.065712       0.855783       2.916260
       7.450000       0.069623       0.871160       2.908012
       7.460000       0.074889       0.888471       2.900257
       7.470000       0.081424       0.907700       2.893002
       7.480000       0.089008       0.928771       2.886150
       7.490000       0.097298       0.951554       2.879551
       7.500000       0.105875       0.975871       2.873055
       7.510000       0.114342       1.001501       2.866547
       7.520000       0.122433       1.028186       2.859966
       7.530000       0.130111       1.055648       2.853331
       7.540000       0.137584       1.083594       2.846764
       7.550000       0.145233       1.111719       2.840507
       7.560000       0.153467       1.139716       2.834912
       7.570000       0.162568       1.167290       2.830399
       7.580000       0.172599       1.194175       2.827400
       7.590000       0.183415       1.220147       2.826290
       7.600000       0.194765       1.245027       2.827360
       7.610000       0.206434       1.268671       2.830808
       7.620000       0.218353       1.290950       2.836759
       7.630000       0.230639       1.311713       2.845281
       7.640000       0.243546       1.330756       2.856397
       7.650000       0.257380       1.347803       2.870076
       7.660000       0.272409       1.362516       2.886223
       7.670000       0.288812       1.374542       2.904678
       7.680000       0.306647       1.383526       2.925222
       7.690000       0.325857       1.389112       2.947600
       7.700000       0.346277       1.390897       2.971551
       7.710000       0.367673       1.388405       2.996823
       7.720000       0.389788       1.381128       3.023170
       7.730000       0.412385       1.368647       3.050325
       7.740000       0.435289       1.350819       3.077952
       7.750000       0.458392       1.327932       3.105598
       7.760000       0.481627       1.300746       3.132667
       7.770000       0.504930       1.270396       3.158416
       7.780000       0.528172       1.238189       3.182002
       7.790000       0.551131       1.205426       3.202567
       7.800000       0.573486       1.173285       3.219347
       7.810000       0.594859       1.142774       3.231798
       7.820000       0.614883       1.114688       3.239685
       7.830000       0.633275       1.089532       3.243127
       7.840000       0.649884       1.067418       3.242559
       7.850000       0.664705       1.048025       3.238637
       7.860000       0.677866       1.030634       3.232114
       7.870000       0.689606       1.014256       3.223707
       7.880000       0.700257       0.997798       3.214021
       7.890000       0.710243       0.980196       3.203510
       7.900000       0.720085       0.960517       3.192497
       7.910000       0.730377       0.938013       3.181220
       7.920000       0.741732       0.912191       3.169877
       7.930000       0.754711       0.882883       3.158656
       7.940000       0.769747       0.850331       3.147726
       7.950000       0.787111       0.815235       3.137199
       7.960000       0.806901       0.778740       3.127087
       7.970000       0.829073       0.742350       3.117288
       7.980000       0.853476       0.707765       3.107640
       7.990000       0.879892       0.676659       3.098026
       8.000000       0.908051       0.650429       3.088516
       8.010000       0.937640       0.629965       3.079471
       8.020000       0.968308       0.615521       3.071567
       8.030000       0.999673       0.606750       3.065702
       8.040000       1.031339       0.602891       3.062826
       8.050000       1.062920       0.603033       3.063753
       8.060000       1.094060       0.606345       3.069011
       8.070000       1.124457       0.612204       3.078774
       8.080000       1.153882       0.620206       3.092889
       8.090000       1.182197       0.630112       3.110960
       8.100000       1.209375       0.641789       3.132456
       8.110000       1.235512       0.655157       3.156794
       8.120000       1.260831       0.670151       3.183384
       8.130000       1.285661       0.686677       3.211650
       8.140000       1.310396       0.704562       3.241045
       8.150000       1.335428       0.723496       3.271101
       8.160000       1.361079       0.742988       3.301493
       8.170000       1.387521       0.762363       3.332117
       8.180000       1.414738       0.780817       3.363112
       8.190000       1.442499       0.797526       3.394841
       8.200000       1.470352       0.811774       3.427798
       8.210000       1.497623       0.823055       3.462482
       8.220000       1.523417       0.831126       3.499264
       8.230000       1.546624       0.835990       3.538287
       8.240000       1.565973       0.837828       3.579439
       8.250000       1.580134       0.836916       3.622378
       8.260000       1.587897       0.833566       3.666623
       8.270000       1.588385       0.828108       3.711646
       8.280000       1.581227       0.820888       3.756934
       8.290000       1.566621       0.812265       3.802001
       8.300000       1.545203       0.802575       3.846335
       8.310000       1.517765       0.792088       3.889304
       8.320000       1.484909       0.780948       3.930061
       8.330000       1.446768       0.769143       3.967464
       8.340000       1.402902       0.756524       4.000055
       8.350000       1.352394       0.742878       4.026081
       8.360000       1.294137       0.728060       4.043582
       8.370000       1.227244       0.712104       4.050516
       8.380000       1.151486       0.695291       4.044946
       8.390000       1.067620       0.678104       4.025247
       8.400000       0.977476       0.661075       3.990340
       8.410000       0.883731       0.644609       3.939885
       8.420000       0.789449       0.628863       3.874372
       8.430000       0.697582       0.613756       3.795065
       8.440000       0.610612       0.599096       3.703795
       8.450000       0.530437       0.584754       3.602665
       8.460000       0.458417       0.570795       3.493771
       8.470000       0.395491       0.557509       3.379022
       8.480000       0.342277       0.545341       3.260089
       8.490000       0.299138       0.534751       3.138431
       8.500000       0.266214       0.526083       3.015323
       8.510000       0.243411       0.519498       2.891850
       8.520000       0.230349       0.515017       2.768856
       8.530000       0.226301       0.512645       2.646941
       8.540000       0.230178       0.512502       2.526518
       8.550000       0.240585       0.514866       2.407944
       8.560000       0.255955       0.520082       2.291662
       8.570000       0.274718       0.528363       2.178282
       8.580000       0.295467       0.539554       2.068601
       8.590000       0.317073       0.552987       1.963550
       8.600000       0.338737       0.567478       1.864109
       8.610000       0.359952       0.581463       1.771196
       8.620000       0.380362       0.593246       1.685529
       8.630000       0.399566       0.601269       1.607509
       8.640000       0.416914       0.604339       1.537152
       8.650000       0.431397       0.601776       1.474111
       8.660000       0.441670       0.593425       1.417774
       8.670000       0.446223       0.579593       1.367441
       8.680000       0.443630       0.560917       1.322544
       8.690000       0.432822       0.538238       1.282834
       8.700000       0.413315       0.512487       1.248467
       8.710000       0.385327       0.484592       1.219898
       8.720000       0.349788       0.455413       1.197609
       8.730000       0.308210       0.425704       1.181776
       8.740000       0.262498       0.396121       1.172026
       8.750000       0.214735       0.367264       1.167396
       8.760000       0.167028       0.339736       1.166471
       8.770000       0.121401       0.314191       1.167673
       8.780000       0.079717       0.291350       1.169567
       8.790000       0.043570       0.271967       1.171132
       8.800000       0.014159       0.256745       1.171919
       8.810000      -0.007820       0.246212       1.172081
       8.820000      -0.022212       0.240573       1.172258
       8.830000      -0.029359       0.239619       1.173350
       8.840000      -0.029983       0.242713       1.176229
       8.850000      -0.025035       0.248903       1.181475
       8.860000      -0.015523       0.257117       1.189186
       8.870000      -0.002382       0.266399       1.198908
       8.880000       0.013616       0.276086       1.209681
       8.890000       0.031892       0.285881       1.220179
       8.900000       0.052054       0.295810       1.228916
       8.910000       0.073857       0.306107       1.234495
       8.920000       0.097174       0.317097       1.235848
       8.930000       0.121952       0.329139       1.232448
       8.940000       0.148165       0.342609       1.224451
       8.950000       0.175746       0.357893       1.212730
       8.960000       0.204499       0.375364       1.198753
       8.970000       0.234033       0.395348       1.184311
       8.980000       0.263717       0.418080       1.171158
       8.990000       0.292709       0.443668       1.160672
       9.000000       0.320042       0.472046       1.153641
       9.010000       0.344755       0.502934       1.150253
       9.020000       0.366037       0.535836       1.150253
       9.030000       0.383358       0.570046       1.153209
       9.040000       0.396548       0.604703       1.158763
       9.050000       0.405810       0.638845       1.166803
       9.060000       0.411627       0.671462       1.177503
       9.070000       0.414590       0.701553       1.191239
       9.080000       0.415185       0.728150       1.208458
       9.090000       0.413620       0.750306       1.229545
       9.100000       0.409773       0.767064       1.254743
       9.110000       0.403275       0.777405       1.284128
       9.120000       0.393703       0.780264       1.317616
       9.130000       0.380784       0.774643       1.354982
       9.140000       0.364550       0.759843       1.395855
       9.150000       0.345379       0.735780       1.439697
       9.160000       0.323952       0.703261       1.485769
       9.170000       0.301164       0.664115       1.533122
       9.180000       0.278011       0.621079       1.580629
       9.190000       0.255496       0.577453       1.627073
       9.200000       0.234559       0.536619       1.671263
       9.210000       0.216024       0.501556       1.712164
       9.220000       0.200552       0.474513       1.749015
       9.230000       0.188587       0.456863       1.781392
       9.240000       0.180317       0.449146       1.809226
       9.250000       0.175656       0.451195       1.832746
       9.260000       0.174264       0.462300       1.852395
       9.270000       0.175571       0.481341       1.868728
       9.280000       0.178817       0.506906       1.882323
       9.290000       0.183126       0.537394       1.893694
       9.300000       0.187605       0.571111       1.903195
       9.310000       0.191473       0.606381       1.910945
       9.320000       0.194183       0.641637       1.916794
       9.330000       0.195487       0.675519       1.920334
       9.340000       0.195452       0.706932       1.920951
       9.350000       0.194403       0.735086       1.917893
       9.360000       0.192843       0.759484       1.910338
       9.370000       0.191333       0.779885       1.897480
       9.380000       0.190381       0.796225       1.878632
       9.390000       0.190324       0.808551       1.853350
       9.400000       0.191240       0.816939       1.821524
       9.410000       0.192912       0.821431       1.783424
       9.420000       0.194867       0.821996       1.739672
       9.430000       0.196510       0.818533       1.691163
       9.440000       0.197296       0.810937       1.638984
       9.450000       0.196894       0.799215       1.584345
       9.460000       0.195274       0.783608       1.528526
       9.470000       0.192672       0.764646       1.472828
       9.480000       0.189460       0.743116       1.418500
       9.490000       0.185979       0.719940       1.366627
       9.500000       0.182396       0.696043       1.318020
       9.510000       0.178662       0.672268       1.273127
       9.520000       0.174570       0.649365       1.232024
       9.530000       0.169897       0.628040       1.194472
       9.540000       0.164566       0.608989       1.160022
       9.550000       0.158754       0.592859       1.128115
       9.560000       0.152899       0.580114       1.098145
       9.570000       0.147611       0.570865       1.069479
       9.580000       0.143533       0.564740       1.041469
       9.590000       0.141220       0.560888       1.013498
       9.600000       0.141082       0.558123       0.985065
       9.610000       0.143390       0.555157       0.955902
       9.620000       0.148312       0.550814       0.926059
       9.630000       0.155941       0.544178       0.895909
       9.640000       0.166308       0.534642       0.866051
       9.650000       0.179385       0.521894       0.837164
       9.660000       0.195088       0.505896       0.809846
       9.670000       0.213291       0.486860       0.784496
       9.680000       0.233825       0.465213       0.761254
       9.690000       0.256445       0.441543       0.739993
       9.700000       0.280786       0.416526       0.720383
       9.710000       0.306323       0.390867       0.701992
       9.720000       0.332362       0.365278       0.684412
       9.730000       0.358070       0.340487       0.667365
       9.740000       0.382515       0.317236       0.650741
       9.750000       0.404715       0.296242       0.634584
       9.760000       0.423657       0.278098       0.619037
       9.770000       0.438316       0.263154       0.604283
       9.780000       0.447687       0.251412       0.590511
       9.790000       0.450850       0.242487       0.577905
       9.800000       0.447087       0.235641       0.566626
       9.810000       0.436043       0.229892       0.556783
       9.820000       0.417891       0.224145       0.548403
       9.830000       0.393421       0.217327       0.541406
       9.840000       0.364023       0.208486       0.535603
       9.850000       0.331516       0.196873       0.530702
       9.860000       0.297871       0.181988       0.526331
       9.870000       0.264903       0.163627       0.522059
       9.880000       0.234009       0.141906       0.517439
       9.890000       0.206040       0.117267       0.512081
       9.900000       0.181344       0.090446       0.505750
       9.910000       0.159936       0.062388       0.498479
       9.920000       0.141697       0.034116       0.490644
       9.930000       0.126507       0.006573       0.482965
       9.940000       0.114253      -0.019501       0.476422
       9.950000       0.104762      -0.043625       0.472094
       9.960000       0.097717      -0.065559       0.470986
       9.970000       0.092638      -0.085231       0.473875
       9.980000       0.088942      -0.102636       0.481205
       9.990000       0.086064      -0.117745       0.493041
      10.000000       0.083594      -0.130426       0.509083
      10.010000       0.081373      -0.140417       0.528731
      10.020000       0.079534      -0.147358       0.551196
      10.030000       0.078443      -0.150889       0.575655
      10.040000       0.078578      -0.150780       0.601379
      10.050000       0.080360      -0.147031       0.627822
      10.060000       0.083998      -0.139884       0.654648
      10.070000       0.089420      -0.129759       0.681686
      10.080000       0.096292      -0.117142       0.708879
      10.090000       0.104133      -0.102507       0.736227
      10.100000       0.112477      -0.086324       0.763751
      10.110000       0.121008      -0.069128       0.791468
      10.120000       0.129642      -0.051623       0.819373
      10.130000       0.138498      -0.034733       0.847416
      10.140000       0.147818      -0.019571       0.875497
      10.150000       0.157846      -0.007308       0.903453
      10.160000       0.168736       0.001025       0.931063
      10.170000       0.180500       0.004764       0.958041
      10.180000       0.193020       0.003786       0.984017
      10.190000       0.206075      -0.001417       1.008517
      10.200000       0.219389      -0.009801       1.030963
      10.210000       0.232668      -0.019953       1.050718
      10.220000       0.245623      -0.030345       1.067155
      10.230000       0.257988      -0.039598       1.079745
      10.240000       0.269517      -0.046687       1.088119
      10.250000       0.279970      -0.051078       1.092088
      10.260000       0.289090      -0.052792       1.091624
      10.270000       0.296584      -0.052379       1.086812
      10.280000       0.302128      -0.050824       1.077790
      10.290000       0.305406      -0.049359       1.064690
      10.300000       0.306165      -0.049212       1.047582
      10.310000       0.304280      -0.051350       1.026432
      10.320000       0.299802      -0.056281       1.001085
      10.330000       0.292980      -0.063981       0.971284
      10.340000       0.284266      -0.073981       0.936716
      10.350000       0.274297      -0.085586       0.897056
      10.360000       0.263847      -0.098130       0.851984
      10.370000       0.253764      -0.111182       0.801152
      10.380000       0.244872      -0.124596       0.744114
      10.390000       0.237868      -0.138408       0.680285
      10.400000       0.233238      -0.152639       0.608976
      10.410000       0.231211      -0.167095       0.529544
      10.420000       0.231764      -0.181270       0.441611
      10.430000       0.234672      -0.194392       0.345272
      10.440000       0.239561      -0.205589       0.241206
      10.450000       0.245949      -0.214094       0.130643
      10.460000       0.253247      -0.219405       0.015233
      10.470000       0.260735      -0.221323      -0.103136
      10.480000       0.267550      -0.219895      -0.222461
      10.490000       0.272696      -0.215311      -0.340679
      10.500000       0.275112      -0.207829      -0.455648
      10.510000       0.273773      -0.197761      -0.565124
      10.520000       0.267828      -0.185510      -0.666808
      10.530000       0.256724      -0.171606      -0.758499
      10.540000       0.240312      -0.156713      -0.838351
      10.550000       0.218892      -0.141588      -0.905148
      10.560000       0.193201      -0.127001      -0.958491
      10.570000       0.164329      -0.113638      -0.998820
      10.580000       0.133584      -0.101998      -1.027253
      10.590000       0.102340      -0.092323      -1.045309
      10.600000       0.071886      -0.084579      -1.054610
      10.610000       0.043299      -0.078501      -1.056651
      10.620000       0.017362      -0.073703      -1.052697
      10.630000      -0.005461      -0.069807      -1.043769
      10.640000      -0.024990      -0.066542      -1.030693
      10.650000      -0.041240      -0.063793      -1.014159
      10.660000      -0.054334      -0.061602      -0.994774
      10.670000      -0.064434      -0.060122      -0.973093
      10.680000      -0.071698      -0.059560      -0.949648
      10.690000      -0.076271      -0.060087      -0.924937
      10.700000      -0.078269      -0.061736      -0.899416
      10.710000      -0.077764      -0.064332      -0.873478
      10.720000      -0.074767      -0.067484      -0.847452
      10.730000      -0.069238      -0.070664      -0.821641
      10.740000      -0.061120      -0.073348      -0.796381
      10.750000      -0.050402      -0.075136      -0.772086
      10.760000      -0.037170      -0.075819      -0.749247
      10.770000      -0.021652      -0.075349      -0.728353
      10.780000      -0.004223      -0.073754      -0.709778
      10.790000       0.014602      -0.071047      -0.693668
      10.800000       0.034207      -0.067174      -0.679887
      10.810000       0.053923      -0.062001      -0.668063
      10.820000       0.073071      -0.055349      -0.657708
      10.830000       0.090998      -0.047027      -0.648371
      10.840000       0.107092      -0.036871      -0.639761
      10.850000       0.120785      -0.024797      -0.631794
      10.860000       0.131557      -0.010828      -0.624571
      10.870000       0.138953       0.004869      -0.618293
      10.880000       0.142625       0.021986      -0.613174
      10.890000       0.142383       0.040105      -0.609380
      10.900000       0.138271       0.058747      -0.606995
      10.910000       0.130617       0.077437      -0.606015
      10.920000       0.120059       0.095743      -0.606345
      10.930000       0.107493       0.113300      -0.607810
      10.940000       0.093933       0.129799      -0.610184
      10.950000       0.080327       0.144979      -0.613238
      10.960000       0.067375       0.158632      -0.616807
      10.970000       0.055429       0.170627      -0.620843
      10.980000       0.044519       0.180937      -0.625436
      10.990000       0.034454       0.189630      -0.630791
      11.000000       0.024963       0.196822      -0.637152
      11.010000       0.015819       0.202599      -0.644689
      11.020000       0.006908       0.206920      -0.653392
      11.030000      -0.001751       0.209555      -0.663006
      11.040000      -0.010022       0.210063      -0.673044
      11.050000      -0.017692       0.207833      -0.682878
      11.060000      -0.024505       0.202187      -0.691870
      11.070000      -0.030183       0.192496      -0.699498
      11.080000      -0.034441       0.178310      -0.705432
      11.090000      -0.037004       0.159445      -0.709563
      11.100000      -0.037645       0.136042      -0.711985
      11.110000      -0.036235       0.108585      -0.712964
      11.120000      -0.032789       0.077887      -0.712880
      11.130000      -0.027475       0.045052      -0.712163
      11.140000      -0.020578       0.011399      -0.711205
      11.150000      -0.012433      -0.021651      -0.710270
      11.160000      -0.003344      -0.052731      -0.709443
      11.170000       0.006472      -0.080683      -0.708612
      11.180000       0.016890      -0.104701      -0.707505
      11.190000       0.027847      -0.124412      -0.705755
      11.200000       0.039273      -0.139868      -0.702967
      11.210000       0.051018      -0.151470      -0.698776
      11.220000       0.062801      -0.159830      -0.692889
      11.230000       0.074193      -0.165636      -0.685111
      11.240000       0.084643      -0.169536      -0.675358
      11.250000       0.093549      -0.172087      -0.663674
      11.260000       0.100347      -0.173748      -0.650226
      11.270000       0.104599      -0.174922      -0.635288
      11.280000       0.106071      -0.175983      -0.619207
      11.290000       0.104759      -0.177281      -0.602359
      11.300000       0.100893      -0.179098      -0.585108
      11.310000       0.094920      -0.181582      -0.567772
      11.320000       0.087476      -0.184695      -0.550595
      11.330000       0.079350      -0.188193      -0.533741
      11.340000       0.071418      -0.191664      -0.517306
      11.350000       0.064540      -0.194601      -0.501336
      11.360000       0.059439      -0.196502      -0.485847
      11.370000       0.056585      -0.196966      -0.470826
      11.380000       0.056140      -0.195764      -0.456228
      11.390000       0.057959      -0.192864      -0.441974
      11.400000       0.061662      -0.188397      -0.427972
      11.410000       0.066726      -0.182582      -0.414148
      11.420000       0.072590      -0.175643      -0.400494
      11.430000       0.078732      -0.167743      -0.387087
      11.440000       0.084715      -0.158960      -0.374107
      11.450000       0.090200      -0.149307      -0.361802
      11.460000       0.094918      -0.138775      -0.350445
      11.470000       0.098650      -0.127375      -0.340276
      11.480000       0.101203      -0.115157      -0.331442
      11.490000       0.102414      -0.102233      -0.323964
      11.500000       0.102156      -0.088783      -0.317713
      11.510000       0.100353      -0.075059      -0.312416
      11.520000       0.096990      -0.061378      -0.307675
      11.530000       0.092118      -0.048089      -0.303017
      11.540000       0.085858      -0.035525      -0.297960
      11.550000       0.078382      -0.023954      -0.292089
      11.560000       0.069897      -0.013546      -0.285112
      11.570000       0.060633      -0.004363      -0.276903
      11.580000       0.050837       0.003612      -0.267497
      11.590000       0.040787       0.010427      -0.257061
      11.600000       0.030803       0.016102      -0.245848
      11.610000       0.021250       0.020585      -0.234141
      11.620000       0.012522       0.023726      -0.222211
      11.630000       0.004994       0.025298      -0.210294
      11.640000      -0.001034       0.025028      -0.198588
      11.650000      -0.005395       0.022654      -0.187262
      11.660000      -0.008084       0.017997      -0.176460
      11.670000      -0.009246       0.011027      -0.166294
      11.680000      -0.009121       0.001926      -0.156823
      11.690000      -0.007980      -0.008877      -0.148054
      11.700000      -0.006063      -0.020717      -0.139940
      11.710000      -0.003543      -0.032774      -0.132408
      11.720000      -0.000525      -0.044212      -0.125382
      11.730000       0.002939      -0.054328      -0.118804
      11.740000       0.006817      -0.062685      -0.112644
      11.750000       0.011074      -0.069153      -0.106890
      11.760000       0.015645      -0.073887      -0.101551
      11.770000       0.020427      -0.077221      -0.096648
      11.780000       0.025289      -0.079545      -0.092214
      11.790000       0.030111      -0.081183      -0.088285
      11.800000       0.034821      -0.082322      -0.084887
      11.810000       0.039432      -0.083000      -0.082020
      11.820000       0.044041      -0.083143      -0.079637
      11.830000       0.048808      -0.082626      -0.077643
      11.840000       0.053908      -0.081318      -0.075901
      11.850000       0.059487      -0.079106      -0.074273
      11.860000       0.065625      -0.075905      -0.072660
      11.870000       0.072332      -0.071660      -0.071053
      11.880000       0.079556      -0.066356      -0.069553
      11.890000       0.087198      -0.060029      -0.068360
      11.900000       0.095137      -0.052768      -0.067730
      11.910000       0.103246      -0.044714      -0.067919
      11.920000       0.111405      -0.036045      -0.069126
      11.930000       0.119511      -0.026956      -0.071444
      11.940000       0.127476      -0.017625      -0.074835
      11.950000       0.135229      -0.008187      -0.079124
      11.960000       0.142708       0.001288      -0.084013
      11.970000       0.149866       0.010788      -0.089128
      11.980000       0.156663       0.020345      -0.094076
      11.990000       0.163060       0.029996      -0.098509
      12.000000       0.169008       0.039769      -0.102164
      12.010000       0.174437       0.049665      -0.104886
      12.020000       0.179255       0.059661      -0.106627
      12.030000       0.183358       0.069723      -0.107434
      12.040000       0.186646       0.079811      -0.107422
      12.050000       0.189049       0.089878      -0.106737
      12.060000       0.190540       0.099876      -0.105510
      12.070000       0.191150       0.109742      -0.103816
      12.080000       0.190959       0.119387      -0.101651
      12.090000       0.190079       0.128689      -0.098938
      12.100000       0.188640       0.137488      -0.095562
      12.110000       0.186783       0.145599      -0.091419
      12.120000       0.184670       0.152828      -0.086456
      12.130000       0.182490       0.159007      -0.080693
      12.140000       0.180458       0.164017      -0.074226
      12.150000       0.178789       0.167807      -0.067210
      12.160000       0.177656       0.170402      -0.059840
      12.170000       0.177152       0.171912      -0.052321
      12.180000       0.177274       0.172534      -0.044849
      12.190000       0.177933       0.172543      -0.037591
      12.200000       0.178990       0.172276      -0.030673
      12.210000       0.180307       0.172102      -0.024172
      12.220000       0.181778       0.172363      -0.018113
      12.230000       0.183353       0.173311      -0.012475
      12.240000       0.185040       0.175051      -0.007202
      12.250000       0.186892       0.177504      -0.002227
      12.260000       0.188976       0.180421       0.002511
      12.270000       0.191339       0.183425       0.007049
      12.280000       0.193960       0.186096       0.011399
      12.290000       0.196714       0.188065       0.015552
      12.300000       0.199366       0.189093       0.019494
      12.310000       0.201594       0.189140       0.023216
      12.320000       0.203036       0.188376       0.026726
      12.330000       0.203366       0.187155       0.030051
      12.340000       0.202360       0.185953       0.033237
      12.350000       0.199957       0.185278       0.036343
      12.360000       0.196291       0.185576       0.039435
      12.370000       0.191681       0.187164       0.042577
      12.380000       0.186567       0.190200       0.045834
      12.390000       0.181427       0.194687       0.049269
      12.400000       0.176683       0.200505       0.052953
      12.410000       0.172633       0.207453       0.056967
      12.420000       0.169426       0.215283       0.061392
      12.430000       0.167076       0.223732       0.066307
      12.440000       0.165492       0.232540       0.071767
      12.450000       0.164529       0.241473       0.077796
      12.460000       0.164023       0.250346       0.084373
      12.470000       0.163829       0.259043       0.091435
      12.480000       0.163846       0.267520       0.098890
      12.490000       0.164036       0.275788       0.106628
      12.500000       0.164410       0.283884       0.114537
      12.510000       0.165016       0.291831       0.122523
      12.520000       0.165900       0.299615       0.130506
      12.530000       0.167095       0.307176       0.138434
      12.540000       0.168607       0.314424       0.146272
      12.550000       0.170421       0.321250       0.154004
      12.560000       0.172507       0.327544       0.161633
      12.570000       0.174819       0.333218       0.169176
      12.580000       0.177286       0.338216       0.176668
      12.590000       0.179799       0.342516       0.184147
      12.600000       0.182203       0.346131       0.191648
      12.610000       0.184308       0.349092       0.199181
      12.620000       0.185919       0.351432       0.206726
      12.630000       0.186876       0.353176       0.214232
      12.640000       0.187101       0.354340       0.221619
      12.650000       0.186632       0.354931       0.228803
      12.660000       0.185626       0.354956       0.235702
      12.670000       0.184332       0.354430       0.242260
      12.680000       0.183044       0.353378       0.248448
      12.690000       0.182055       0.351826       0.254263
      12.700000       0.181619       0.349799       0.259722
      12.710000       0.181935       0.347303       0.264844
      12.720000       0.183138       0.344328       0.269650
      12.730000       0.185299       0.340844       0.274155
      12.740000       0.188423       0.336831       0.278379
      12.750000       0.192462       0.332305       0.282358
      12.760000       0.197327       0.327354       0.286150
      12.770000       0.202911       0.322164       0.289838
      12.780000       0.209118       0.317026       0.293516
      12.790000       0.215874       0.312319       0.297277
      12.800000       0.223142       0.308454       0.301201
      12.810000       0.230910       0.305803       0.305347
      12.820000       0.239180       0.304624       0.309751
      12.830000       0.247957       0.305007       0.314434
      12.840000       0.257225       0.306854       0.319399
      12.850000       0.266944       0.309904       0.324637
      12.860000       0.277037       0.313784       0.330124
      12.870000       0.287388       0.318072       0.335818
      12.880000       0.297852       0.322365       0.341663
      12.890000       0.308260       0.326322       0.347588
      12.900000       0.318435       0.329681       0.353517
      12.910000       0.328200       0.332251       0.359381
      12.920000       0.337375       0.333886       0.365129
      12.930000       0.345784       0.334467       0.370732
      12.940000       0.353242       0.333908       0.376189
      12.950000       0.359570       0.332174       0.381517
      12.960000       0.364609       0.329321       0.386746
      12.970000       0.368263       0.325502       0.391915
      12.980000       0.370537       0.320971       0.397062
      12.990000       0.371570       0.316047       0.402229
      13.000000       0.371644       0.311081       0.407448
      13.010000       0.371154       0.306414       0.412745
      13.020000       0.370554       0.302335       0.418127
      13.030000       0.370283       0.299058       0.423581
      13.040000       0.370698       0.296696       0.429076
      13.050000       0.372041       0.295278       0.434571
      13.060000       0.374426       0.294766       0.440022
      13.070000       0.377842       0.295090       0.445385
      13.080000       0.382182       0.296160       0.450622
      13.090000       0.387255       0.297868       0.455690
      13.100000       0.392810       0.300089       0.460545
      13.110000       0.398545       0.302688       0.465129
      13.120000       0.404124       0.305544       0.469380
      13.130000       0.409180       0.308568       0.473233
      13.140000       0.413339       0.311720       0.476638
      13.150000       0.416238       0.314993       0.479568
      13.160000       0.417536       0.318391       0.482038
      13.170000       0.416940       0.321896       0.484103
      13.180000       0.414205       0.325443       0.485859
      13.190000       0.409136       0.328909       0.487432
      13.200000       0.401594       0.332127       0.488966
      13.210000       0.391510       0.334911       0.490604
      13.220000       0.378937       0.337107       0.492474
      13.230000       0.364119       0.338638       0.494671
      13.240000       0.347544       0.339530       0.497248
      13.250000       0.329958       0.339913       0.500215
      13.260000       0.312300       0.339983       0.503540
      13.270000       0.295566       0.339954       0.507164
      13.280000       0.280657       0.340004       0.511013
      13.290000       0.268242       0.340239       0.515013
      13.300000       0.258693       0.340688       0.519096
      13.310000       0.252088       0.341309       0.523208
      13.320000       0.248267       0.342022       0.527305
      13.330000       0.246920       0.342734       0.531353
      13.340000       0.247663       0.343375       0.535329
      13.350000       0.250101       0.343908       0.539225
      13.360000       0.253868       0.344346       0.543043
      13.370000       0.258640       0.344748       0.546797
      13.380000       0.264134       0.345225       0.550498
      13.390000       0.270097       0.345928       0.554145
      13.400000       0.276296       0.347037       0.557724
      13.410000       0.282506       0.348723       0.561204
      13.420000       0.288524       0.351109       0.564544
      13.430000       0.294172       0.354217       0.567706
      13.440000       0.299313       0.357952       0.570657
      13.450000       0.303856       0.362092       0.573370
      13.460000       0.307755       0.366313       0.575822
      13.470000       0.311006       0.370225       0.577988
      13.480000       0.313637       0.373412       0.579846
      13.490000       0.315700       0.375484       0.581378
      13.500000       0.317256       0.376126       0.582582
      13.510000       0.318368       0.375143       0.583478
      13.520000       0.319093       0.372498       0.584111
      13.530000       0.319488       0.368332       0.584549
      13.540000       0.319614       0.362933       0.584866
      13.550000       0.319551       0.356694       0.585136
      13.560000       0.319391       0.350031       0.585418
      13.570000       0.319229       0.343326       0.585743
      13.580000       0.319139       0.336885       0.586110
      13.590000       0.319159       0.330913       0.586489
      13.600000       0.319294       0.325524       0.586836
      13.610000       0.319547       0.320744       0.587106
      13.620000       0.319942       0.316538       0.587274
      13.630000       0.320553       0.312831       0.587342
      13.640000       0.321498       0.309538       0.587338
      13.650000       0.322916       0.306569       0.587320
      13.660000       0.324931       0.303839       0.587359
      13.670000       0.327616       0.301261       0.587539
      13.680000       0.330970       0.298739       0.587940
      13.690000       0.334907       0.296179       0.588630
      13.700000       0.339262       0.293489       0.589651
      13.710000       0.343804       0.290600       0.591016
      13.720000       0.348257       0.287463       0.592711
      13.730000       0.352339       0.284058       0.594701
      13.740000       0.355785       0.280386       0.596934
      13.750000       0.358381       0.276464       0.599348
      13.760000       0.359987       0.272316       0.601872
      13.770000       0.360553       0.267965       0.604425
      13.780000       0.360126       0.263430       0.606917
      13.790000       0.358844       0.258727       0.609260
      13.800000       0.356919       0.253882       0.611371
      13.810000       0.354624       0.248946       0.613177
      13.820000       0.352270       0.244010       0.614616
      13.830000       0.350178       0.239217       0.615640
      13.840000       0.348648       0.234757       0.616216
      13.850000       0.347921       0.230845       0.616332
      13.860000       0.348150       0.227677       0.615993
      13.870000       0.349398       0.225383       0.615225
      13.880000       0.351644       0.223999       0.614066
      13.890000       0.354806       0.223469       0.612561
      13.900000       0.358768       0.223680       0.610758
      13.910000       0.363402       0.224506       0.608705
      13.920000       0.368586       0.225837       0.606451
      13.930000       0.374213       0.227590       0.604049
      13.940000       0.380188       0.229695       0.601565
      13.950000       0.386425       0.232079       0.599084
      13.960000       0.392828       0.234655       0.596711
      13.970000       0.399288       0.237320       0.594558
      13.980000       0.405679       0.239971       0.592727
      13.990000       0.411862       0.242517       0.591297
      14.000000       0.417690       0.244898       0.590312
      14.010000       0.423016       0.247089       0.589777
      14.020000       0.427691       0.249103       0.589668
      14.030000       0.431581       0.250988       0.589941
      14.040000       0.434566       0.252807       0.590533
      14.050000       0.436554       0.254624       0.591366
      14.060000       0.437476       0.256479       0.592349
      14.070000       0.437280       0.258370       0.593379
      14.080000       0.435923       0.260239       0.594357
      14.090000       0.433363       0.261988       0.595209
      14.100000       0.429563       0.263490       0.595914
      14.110000       0.424504       0.264625       0.596518
      14.120000       0.418202       0.265291       0.597138
      14.130000       0.410744       0.265419       0.597938
      14.140000       0.402307       0.264970       0.599099
      14.150000       0.393175       0.263941       0.600774
      14.160000       0.383727       0.262357       0.603061
      14.170000       0.374388       0.260279       0.605996
      14.180000       0.365559       0.257804       0.609556
      14.190000       0.357545       0.255076       0.613677
      14.200000       0.350515       0.252279       0.618271
      14.210000       0.344503       0.249626       0.623238
      14.220000       0.339455       0.247336       0.628473
      14.230000       0.335281       0.245609       0.633877
      14.240000       0.331906       0.244606       0.639359
      14.250000       0.329282       0.244441       0.644855
      14.260000       0.327385       0.245176       0.650326
      14.270000       0.326188       0.246815       0.655765
      14.280000       0.325642       0.249296       0.661187
      14.290000       0.325655       0.252491       0.666618
      14.300000       0.326103       0.256208       0.672073
      14.310000       0.326837       0.260211       0.677546
      14.320000       0.327715       0.264248       0.683004
      14.330000       0.328620       0.268086       0.688392
      14.340000       0.329489       0.271549       0.693639
      14.350000       0.330312       0.274528       0.698666
      14.360000       0.331133       0.276997       0.703384
      14.370000       0.332019       0.278984       0.707694
      14.380000       0.333035       0.280550       0.711486
      14.390000       0.334216       0.281751       0.714647
      14.400000       0.335566       0.282602       0.717081
      14.410000       0.337064       0.283071       0.718722
      14.420000       0.338693       0.283084       0.719551
      14.430000       0.340456       0.282550       0.719595
      14.440000       0.342382       0.281388       0.718930
      14.450000       0.344522       0.279548       0.717668
      14.460000       0.346934       0.277016       0.715951
      14.470000       0.349667       0.273818       0.713946
      14.480000       0.352753       0.270026       0.711830
      14.490000       0.356202       0.265762       0.709783
      14.500000       0.360007       0.261208       0.707973
      14.510000       0.364145       0.256605       0.706552
      14.520000       0.368580       0.252233       0.705642
      14.530000       0.373263       0.248371       0.705336
      14.540000       0.378134       0.245263       0.705703
      14.550000       0.383126       0.243077       0.706784
      14.560000       0.388167       0.241888       0.708595
      14.570000       0.393187       0.241671       0.711127
      14.580000       0.398120       0.242313       0.714336
      14.590000       0.402904       0.243627       0.718147
      14.600000       0.407481       0.245378       0.722451
      14.610000       0.411800       0.247317       0.727120
      14.620000       0.415823       0.249220       0.732027
      14.630000       0.419529       0.250927       0.737067
      14.640000       0.422929       0.252366       0.742178
      14.650000       0.426074       0.253560       0.747354
      14.660000       0.429048       0.254602       0.752635
      14.670000       0.431958       0.255625       0.758089
      14.680000       0.434901       0.256757       0.763786
      14.690000       0.437939       0.258091       0.769774
      14.700000       0.441085       0.259672       0.776059
      14.710000       0.444299       0.261494       0.782596
      14.720000       0.447508       0.263509       0.789288
      14.730000       0.450622       0.265652       0.795994
      14.740000       0.453549       0.267850       0.802537
      14.750000       0.456200       0.270036       0.808716
      14.760000       0.458496       0.272157       0.814323
      14.770000       0.460371       0.274175       0.819147
      14.780000       0.461774       0.276066       0.822983
      14.790000       0.462678       0.277823       0.825627
      14.800000       0.463076       0.279453       0.826877
      14.810000       0.462981       0.280977       0.826538
      14.820000       0.462427       0.282433       0.824438
      14.830000       0.461478       0.283878       0.820452
      14.840000       0.460235       0.285391       0.814529
      14.850000       0.458849       0.287065       0.806723
      14.860000       0.457495       0.288997       0.797204
      14.870000       0.456354       0.291269       0.786260
      14.880000       0.455561       0.293930       0.774265
      14.890000       0.455176       0.296985       0.761644
      14.900000       0.455166       0.300391       0.748809
      14.910000       0.455417       0.304068       0.736117
      14.920000       0.455764       0.307916       0.723833
      14.930000       0.456043       0.311830       0.712124
      14.940000       0.456131       0.315718       0.701074
      14.950000       0.455977       0.319512       0.690704
      14.960000       0.455604       0.323172       0.680984
      14.970000       0.455099       0.326679       0.671841
      14.980000       0.454574       0.330033       0.663159
      14.990000       0.454133       0.333239       0.654783
      15.000000       0.453840       0.336302       0.646529
      15.010000       0.453699       0.339219       0.638215
      15.020000       0.453651       0.341984       0.629683
      15.030000       0.453582       0.344582       0.620829
      15.040000       0.453347       0.346998       0.611601
      15.050000       0.452798       0.349215       0.601994
      15.060000       0.451807       0.351223       0.592026
      15.070000       0.450296       0.353019       0.581729
      15.080000       0.448246       0.354612       0.571148
      15.090000       0.445705       0.356025       0.560362
      15.100000       0.442777       0.357289       0.549500
      15.110000       0.439603       0.358449       0.538761
      15.120000       0.436324       0.359556       0.528393
      15.130000       0.433055       0.360664       0.518665
      15.140000       0.429866       0.361827       0.509809
      15.150000       0.426776       0.363083       0.501977
      15.160000       0.423778       0.364454       0.495208
      15.170000       0.420857       0.365942       0.489429
      15.180000       0.418026       0.367532       0.484475
      15.190000       0.415339       0.369203       0.480129
      15.200000       0.412898       0.370938       0.476167
      15.210000       0.410836       0.372730       0.472405
      15.220000       0.409279       0.374580       0.468724
      15.230000       0.408319       0.376499       0.465084
      15.240000       0.407991       0.378500       0.461506
      15.250000       0.408273       0.380600       0.458040
      15.260000       0.409103       0.382821       0.454733
      15.270000       0.410400       0.385181       0.451601
      15.280000       0.412087       0.387700       0.448622
      15.290000       0.414103       0.390387       0.445750
      15.300000       0.416405       0.393237       0.442939
      15.310000       0.418967       0.396216       0.440168
      15.320000       0.421768       0.399266       0.437455
      15.330000       0.424784       0.402299       0.434846
      15.340000       0.427980       0.405216       0.432395
      15.350000       0.431311       0.407919       0.430132
      15.360000       0.434720       0.410321       0.428047
      15.370000       0.438147       0.412361       0.426092
      15.380000       0.441536       0.414005       0.424196
      15.390000       0.444831       0.415245       0.422300
      15.400000       0.447983       0.416097       0.420390
      15.410000       0.450949       0.416600       0.418512
      15.420000       0.453694       0.416812       0.416776
      15.430000       0.456200       0.416808       0.415344
      15.440000       0.458471       0.416675       0.414396
      15.450000       0.460532       0.416505       0.414104
      15.460000       0.462428       0.416387       0.414605
      15.470000       0.464216       0.416400       0.415988
      15.480000       0.465953       0.416602       0.418282
      15.490000       0.467689       0.417031       0.421461
      15.500000       0.469456       0.417702       0.425448
      15.510000       0.471267       0.418613       0.430131
      15.520000       0.473110       0.419748       0.435375
      15.530000       0.474952       0.421084       0.441041
      15.540000       0.476736       0.422593       0.446998
      15.550000       0.478389       0.424239       0.453132
      15.560000       0.479832       0.425986       0.459346
      15.570000       0.480989       0.427796       0.465557
      15.580000       0.481813       0.429642       0.471691
      15.590000       0.482291       0.431509       0.477683
      15.600000       0.482459       0.433397       0.483469
      15.610000       0.482388       0.435321       0.488994
      15.620000       0.482175       0.437300       0.494203
      15.630000       0.481916       0.439352       0.499052
      15.640000       0.481681       0.441480       0.503499
      15.650000       0.481497       0.443670       0.507512
      15.660000       0.481350       0.445882       0.511071
      15.670000       0.481191       0.448063       0.514171
      15.680000       0.480971       0.450149       0.516823
      15.690000       0.480662       0.452082       0.519053
      15.700000       0.480277       0.453818       0.520891
      15.710000       0.479865       0.455334       0.522368
      15.720000       0.479499       0.456631       0.523513
      15.730000       0.479245       0.457721       0.524363
      15.740000       0.479147       0.458630       0.524971
      15.750000       0.479215       0.459388       0.525416
      15.760000       0.479436       0.460028       0.525801
      15.770000       0.479782       0.460588       0.526243
      15.780000       0.480218       0.461103       0.526853
      15.790000       0.480715       0.461605       0.527720
      15.800000       0.481247       0.462117       0.528908
      15.810000       0.481795       0.462653       0.530446
      15.820000       0.482352       0.463210       0.532340
      15.830000       0.482923       0.463781       0.534575
      15.840000       0.483534       0.464354       0.537122
      15.850000       0.484223       0.464924       0.539944
      15.860000       0.485032       0.465497       0.542996
      15.870000       0.485990       0.466092       0.546227
      15.880000       0.487103       0.466736       0.549583
      15.890000       0.488351       0.467460       0.553003
      15.900000       0.489690       0.468288       0.556429
      15.910000       0.491066       0.469234       0.559806
      15.920000       0.492423       0.470297       0.563081
      15.930000       0.493716       0.471464       0.566214
      15.940000       0.494917       0.472714       0.569167
      15.950000       0.496013       0.474020       0.571914
      15.960000       0.497005       0.475350       0.574432
      15.970000       0.497905       0.476671       0.576709
      15.980000       0.498728       0.477955       0.578741
      15.990000       0.499484       0.479179       0.580545
      16.000000       0.500185       0.480338       0.582158
      16.010000       0.500835       0.481444       0.583640
      16.020000       0.501433       0.482529       0.585063
      16.030000       0.501975       0.483634       0.586503
      16.040000       0.502444       0.484804       0.588025
      16.050000       0.502817       0.486076       0.589676
      16.060000       0.503053       0.487472       0.591476
      16.070000       0.503099       0.488993       0.593424
      16.080000       0.502889       0.490627       0.595501
      16.090000       0.502348       0.492346       0.597686
      16.100000       0.501391       0.494114       0.599961
      16.110000       0.499941       0.495893       0.602316
      16.120000       0.497933       0.497645       0.604745
      16.130000       0.495331       0.499330       0.607243
      16.140000       0.492147       0.500908       0.609798
      16.150000       0.488449       0.502342       0.612393
      16.160000       0.484362       0.503594       0.615006
      16.170000       0.480057       0.504633       0.617614
      16.180000       0.475726       0.505439       0.620197
      16.190000       0.471557       0.506003       0.622742
      16.200000       0.467711       0.506337       0.625241
      16.210000       0.464317       0.506472       0.627691
      16.220000       0.461473       0.506463       0.630092
      16.230000       0.459255       0.506382       0.632448
      16.240000       0.457719       0.506315       0.634761
      16.250000       0.456905       0.506350       0.637032
      16.260000       0.456827       0.506567       0.639254
      16.270000       0.457469       0.507025       0.641419
      16.280000       0.458774       0.507756       0.643514
      16.290000       0.460650       0.508759       0.645526
      16.300000       0.462971       0.510007       0.647438
      16.310000       0.465593       0.511454       0.649236
      16.320000       0.468368       0.513050       0.650907
      16.330000       0.471158       0.514744       0.652447
      16.340000       0.473843       0.516497       0.653859
      16.350000       0.476325       0.518282       0.655157
      16.360000       0.478531       0.520081       0.656361
      16.370000       0.480413       0.521881       0.657490
      16.380000       0.481943       0.523669       0.658560
      16.390000       0.483119       0.525429       0.659579
      16.400000       0.483965       0.527140       0.660549
      16.410000       0.484529       0.528775       0.661471
      16.420000       0.484887       0.530310       0.662351
      16.430000       0.485128       0.531719       0.663201
      16.440000       0.485347       0.532975       0.664047
      16.450000       0.485627       0.534056       0.664916
      16.460000       0.486029       0.534933       0.665835
      16.470000       0.486584       0.535583       0.666826
      16.480000       0.487297       0.535985       0.667898
      16.490000       0.488150       0.536127       0.669055
      16.500000       0.489110       0.536010       0.670294
      16.510000       0.490144       0.535650       0.671609
      16.520000       0.491225       0.535079       0.672997
      16.530000       0.492339       0.534343       0.674449
      16.540000       0.493489       0.533500       0.675953
      16.550000       0.494688       0.532615       0.677489
      16.560000       0.495951       0.531749       0.679028
      16.570000       0.497291       0.530955       0.680538
      16.580000       0.498707       0.530269       0.681985
      16.590000       0.500183       0.529713       0.683342
      16.600000       0.501685       0.529295       0.684592
      16.610000       0.503169       0.529020       0.685725
      16.620000       0.504587       0.528892       0.686748
      16.630000       0.505889       0.528919       0.687675
      16.640000       0.507032       0.529106       0.688535
      16.650000       0.507980       0.529456       0.689360
      16.660000       0.508709       0.529963       0.690181
      16.670000       0.509208       0.530604       0.691018
      16.680000       0.509482       0.531344       0.691883
      16.690000       0.509556       0.532137       0.692777
      16.700000       0.509475       0.532927       0.693699
      16.710000       0.509299       0.533661       0.694650
      16.720000       0.509101       0.534285       0.695638
      16.730000       0.508957       0.534757       0.696673
      16.740000       0.508935       0.535039       0.697768
      16.750000       0.509089       0.535109       0.698933
      16.760000       0.509449       0.534960       0.700179
      16.770000       0.510024       0.534600       0.701512
      16.780000       0.510803       0.534061       0.702942
      16.790000       0.511761       0.533386       0.704476
      16.800000       0.512871       0.532625       0.706127
      16.810000       0.514108       0.531822       0.707906
      16.820000       0.515462       0.531008       0.709824
      16.830000       0.516937       0.530197       0.711891
      16.840000       0.518547       0.529393       0.714106
      16.850000       0.520311       0.528591       0.716462
      16.860000       0.522241       0.527788       0.718940
      16.870000       0.524337       0.526987       0.721510
      16.880000       0.526583       0.526203       0.724135
      16.890000       0.528951       0.525467       0.726778
      16.900000       0.531403       0.524824       0.729400
      16.910000       0.533903       0.524325       0.731968
      16.920000       0.536423       0.524017       0.734459
      16.930000       0.538947       0.523927       0.736857
      16.940000       0.541473       0.524060       0.739156
      16.950000       0.544010       0.524392       0.741359
      16.960000       0.546569       0.524880       0.743478
      16.970000       0.549152       0.525468       0.745530
      16.980000       0.551747       0.526099       0.747532
      16.990000       0.554323       0.526721       0.749502
      17.000000       0.556831       0.527298       0.751451
      17.010000       0.559212       0.527808       0.753385
      17.020000       0.561399       0.528250       0.755300
      17.030000       0.563325       0.528643       0.757190
      17.040000       0.564924       0.529024       0.759048
      17.050000       0.566139       0.529440       0.760874
      17.060000       0.566926       0.529940       0.762678
      17.070000       0.567258       0.530570       0.764482
      17.080000       0.567134       0.531360       0.766319
      17.090000       0.566583       0.532324       0.768222
      17.100000       0.565663       0.533457       0.770225
      17.110000       0.564457       0.534739       0.772348
      17.120000       0.563059       0.536131       0.774603
      17.130000       0.561548       0.537589       0.776983
      17.140000       0.559976       0.539062       0.779474
      17.150000       0.558351       0.540500       0.782055
      17.160000       0.556649       0.541861       0.784703
      17.170000       0.554821       0.543111       0.787398
      17.180000       0.552822       0.544229       0.790124
      17.190000       0.550630       0.545202       0.792864
      17.200000       0.548261       0.546032       0.795601
      17.210000       0.545772       0.546725       0.798314
      17.220000       0.543252       0.547287       0.800982
      17.230000       0.540807       0.547727       0.803588
      17.240000       0.538541       0.548051       0.806122
      17.250000       0.536545       0.548270       0.808590
      17.260000       0.534884       0.548400       0.811013
      17.270000       0.533598       0.548469       0.813425
      17.280000       0.532705       0.548518       0.815871
      17.290000       0.532204       0.548589       0.818397
      17.300000       0.532080       0.548721       0.821041
      17.310000       0.532306       0.548939       0.823825
      17.320000       0.532850       0.549248       0.826755
      17.330000       0.533673       0.549637       0.829815
      17.340000       0.534737       0.550080       0.832977
      17.350000       0.536007       0.550551       0.836197
      17.360000       0.537445       0.551028       0.839429
      17.370000       0.539021       0.551501       0.842625
      17.380000       0.540702       0.551970       0.845741
      17.390000       0.542460       0.552448       0.848744
      17.400000       0.544273       0.552955       0.851605
      17.410000       0.546124       0.553511       0.854311
      17.420000       0.548007       0.554132       0.856855
      17.430000       0.549919       0.554828       0.859246
      17.440000       0.551864       0.555595       0.861503
      17.450000       0.553844       0.556419       0.863657
      17.460000       0.555855       0.557277       0.865747
      17.470000       0.557890       0.558139       0.867821
      17.480000       0.559940       0.558977       0.869924
      17.490000       0.561992       0.559763       0.872097
      17.500000       0.564035       0.560476       0.874366
      17.510000       0.566058       0.561100       0.876746
      17.520000       0.568043       0.561630       0.879233
      17.530000       0.569973       0.562068       0.881817
      17.540000       0.571831       0.562421       0.884484
      17.550000       0.573599       0.562704       0.887231
      17.560000       0.575270       0.562932       0.890064
      17.570000       0.576844       0.563122       0.892997
      17.580000       0.578332       0.563292       0.896049
      17.590000       0.579754       0.563460       0.899233
      17.600000       0.581135       0.563645       0.902547
      17.610000       0.582499       0.563862       0.905966
      17.620000       0.583869       0.564120       0.909439
      17.630000       0.585256       0.564424       0.912894
      17.640000       0.586667       0.564768       0.916246
      17.650000       0.588100       0.565145       0.919408
      17.660000       0.589551       0.565538       0.922314
      17.670000       0.591019       0.565929       0.924927
      17.680000       0.592502       0.566294       0.927243
      17.690000       0.593998       0.566609       0.929290
      17.700000       0.595499       0.566845       0.931120
      17.710000       0.596988       0.566978       0.932792
      17.720000       0.598439       0.566992       0.934360
      17.730000       0.599820       0.566883       0.935858
      17.740000       0.601100       0.566665       0.937300
      17.750000       0.602254       0.566368       0.938674
      17.760000       0.603269       0.566035       0.939957
      17.770000       0.604147       0.565713       0.941130
      17.780000       0.604901       0.565450       0.942189
      17.790000       0.605553       0.565287       0.943150
      17.800000       0.606121       0.565257       0.944044
      17.810000       0.606617       0.565383       0.944896
      17.820000       0.607040       0.565680       0.945710
      17.830000       0.607371       0.566157       0.946456
      17.840000       0.607581       0.566820       0.947070
      17.850000       0.607627       0.567663       0.947467
      17.860000       0.607463       0.568674       0.947564
      17.870000       0.607048       0.569831       0.947299
      17.880000       0.606355       0.571101       0.946648
      17.890000       0.605381       0.572447       0.945636
      17.900000       0.604153       0.573827       0.944329
      17.910000       0.602720       0.575202       0.942827
      17.920000       0.601145       0.576537       0.941235
      17.930000       0.599496       0.577804       0.939641
      17.940000       0.597827       0.578982       0.938104
      17.950000       0.596178       0.580058       0.936639
      17.960000       0.594578       0.581027       0.935220
      17.970000       0.593055       0.581884       0.933785
      17.980000       0.591641       0.582631       0.932251
      17.990000       0.590377       0.583272       0.930531
      18.000000       0.589308       0.583818       0.928563
      18.010000       0.588473       0.584285       0.926334
      18.020000       0.587898       0.584696       0.923896
      18.030000       0.587596       0.585078       0.921370
      18.040000       0.587568       0.585460       0.918922
      18.050000       0.587807       0.585872       0.916725
      18.060000       0.588301       0.586337       0.914908
      18.070000       0.589028       0.586871       0.913519
      18.080000       0.589960       0.587485       0.912519
      18.090000       0.591061       0.588180       0.911791
      18.100000       0.592289       0.588952       0.911177
      18.110000       0.593600       0.589793       0.910514
      18.120000       0.594960       0.590691       0.909665
      18.130000       0.596339       0.591635       0.908535
      18.140000       0.597723       0.592613       0.907071
      18.150000       0.599103       0.593610       0.905255
      18.160000       0.600482       0.594610       0.903088
      18.170000       0.601864       0.595597       0.900584
      18.180000       0.603254       0.596551       0.897770
      18.190000       0.604655       0.597457       0.894695
      18.200000       0.606068       0.598300       0.891425
      18.210000       0.607492       0.599072       0.888036
      18.220000       0.608925       0.599774       0.884591
      18.230000       0.610365       0.600414       0.881127
      18.240000       0.611804       0.601010       0.877652
      18.250000       0.613235       0.601585       0.874150
      18.260000       0.614643       0.602162       0.870601
      18.270000       0.616010       0.602763       0.866987
      18.280000       0.617309       0.603404       0.863301
      18.290000       0.618511       0.604098       0.859554
      18.300000       0.619586       0.604851       0.855772
      18.310000       0.620508       0.605666       0.852001
      18.320000       0.621264       0.606544       0.848306
      18.330000       0.621855       0.607478       0.844766
      18.340000       0.622305       0.608456       0.841455
      18.350000       0.622650       0.609459       0.838438
      18.360000       0.622938       0.610462       0.835761
      18.370000       0.623220       0.611434       0.833454
      18.380000       0.623534       0.612344       0.831530
      18.390000       0.623904       0.613159       0.829974
      18.400000       0.624334       0.613852       0.828735
      18.410000       0.624813       0.614401       0.827711
      18.420000       0.625320       0.614791       0.826747
      18.430000       0.625831       0.615026       0.825655
      18.440000       0.626324       0.615118       0.824236
      18.450000       0.626777       0.615098       0.822320
      18.460000       0.627170       0.615005       0.819799
      18.470000       0.627483       0.614878       0.816650
      18.480000       0.627698       0.614757       0.812941
      18.490000       0.627799       0.614670       0.808815
      18.500000       0.627778       0.614637       0.804451
      18.510000       0.627637       0.614669       0.800031
      18.520000       0.627395       0.614772       0.795694
      18.530000       0.627084       0.614950       0.791530
      18.540000       0.626747       0.615206       0.787581
      18.550000       0.626432       0.615547       0.783870
      18.560000       0.626182       0.615976       0.780419
      18.570000       0.626024       0.616495       0.777264
      18.580000       0.625967       0.617102       0.774460
      18.590000       0.626001       0.617789       0.772068
      18.600000       0.626103       0.618548       0.770144
      18.610000       0.626239       0.619371       0.768733
      18.620000       0.626373       0.620253       0.767856
      18.630000       0.626473       0.621191       0.767511
      18.640000       0.626509       0.622183       0.767673
      18.650000       0.626463       0.623228       0.768289
      18.660000       0.626329       0.624322       0.769286
      18.670000       0.626114       0.625461       0.770577
      18.680000       0.625838       0.626645       0.772064
      18.690000       0.625531       0.627872       0.773639
      18.700000       0.625233       0.629146       0.775187
      18.710000       0.624985       0.630472       0.776583
      18.720000       0.624826       0.631853       0.777706
      18.730000       0.624789       0.633288       0.778443
      18.740000       0.624893       0.634769       0.778712
      18.750000       0.625140       0.636283       0.778471
      18.760000       0.625519       0.637809       0.777732
      18.770000       0.626010       0.639321       0.776566
      18.780000       0.626586       0.640791       0.775092
      18.790000       0.627221       0.642191       0.773466
      18.800000       0.627893       0.643497       0.771853
      18.810000       0.628583       0.644687       0.770407
      18.820000       0.629273       0.645745       0.769248
      18.830000       0.629948       0.646659       0.768455
      18.840000       0.630597       0.647426       0.768068
      18.850000       0.631210       0.648047       0.768090
      18.860000       0.631784       0.648531       0.768494
      18.870000       0.632322       0.648892       0.769231
      18.880000       0.632828       0.649151       0.770233
      18.890000       0.633311       0.649334       0.771422
      18.900000       0.633782       0.649470       0.772706
      18.910000       0.634251       0.649588       0.773981
      18.920000       0.634729       0.649713       0.775132
      18.930000       0.635223       0.649864       0.776050
      18.940000       0.635736       0.650054       0.776653
      18.950000       0.636265       0.650285       0.776910
      18.960000       0.636802       0.650549       0.776852
      18.970000       0.637330       0.650835       0.776568
      18.980000       0.637830       0.651124       0.776176
      18.990000       0.638280       0.651400       0.775796
      19.000000       0.638658       0.651652       0.775505
      19.010000       0.638943       0.651879       0.775325
      19.020000       0.639124       0.652088       0.775211
      19.030000       0.639200       0.652295       0.775066
      19.040000       0.639182       0.652518       0.774769
      19.050000       0.639092       0.652773       0.774200
      19.060000       0.638959       0.653072       0.773271
      19.070000       0.638815       0.653414       0.771946
      19.080000       0.638684       0.653790       0.770240
      19.090000       0.638585       0.654182       0.768220
      19.100000       0.638523       0.654569       0.765982
      19.110000       0.638497       0.654930       0.763626
      19.120000       0.638505       0.655248       0.761229
      19.130000       0.638540       0.655512       0.758835
      19.140000       0.638603       0.655719       0.756453
      19.150000       0.638696       0.655870       0.754078
      19.160000       0.638826       0.655969       0.751712
      19.170000       0.639002       0.656020       0.749383
      19.180000       0.639235       0.656027       0.747158
      19.190000       0.639535       0.655994       0.745146
      19.200000       0.639908       0.655925       0.743483
      19.210000       0.640356       0.655823       0.742304
      19.220000       0.640872       0.655695       0.741716
      19.230000       0.641441       0.655549       0.741777
      19.240000       0.642042       0.655395       0.742484
      19.250000       0.642649       0.655244       0.743793
      19.260000       0.643235       0.655105       0.745630
      19.270000       0.643778       0.654985       0.747910
      19.280000       0.644261       0.654889       0.750548
      19.290000       0.644679       0.654824       0.753459
      19.300000       0.645037       0.654796       0.756559
      19.310000       0.645347       0.654812       0.759770
      19.320000       0.645624       0.654882       0.763022
      19.330000       0.645884       0.655016       0.766264
      19.340000       0.646139       0.655220       0.769475
      19.350000       0.646397       0.655499       0.772670
      19.360000       0.646661       0.655852       0.775891
      19.370000       0.646931       0.656274       0.779199
      19.380000       0.647205       0.656754       0.782653
      19.390000       0.647484       0.657278       0.786288
      19.400000       0.647771       0.657827       0.790106
      19.410000       0.648071       0.658380       0.794068
      19.420000       0.648394       0.658915       0.798097
      19.430000       0.648748       0.659412       0.802098
      19.440000       0.649138       0.659855       0.805972
      19.450000       0.649568       0.660231       0.809633
      19.460000       0.650041       0.660539       0.813010
      19.470000       0.650556       0.660781       0.816051
      19.480000       0.651115       0.660969       0.818712
      19.490000       0.651716       0.661120       0.820952
      19.500000       0.652361       0.661255       0.822731
      19.510000       0.653049       0.661394       0.824013
      19.520000       0.653780       0.661555       0.824779
      19.530000       0.654555       0.661754       0.825034
      19.540000       0.655371       0.661997       0.824817
      19.550000       0.656227       0.662287       0.824206
      19.560000       0.657117       0.662614       0.823309
      19.570000       0.658035       0.662963       0.822252
      19.580000       0.658971       0.663309       0.821151
      19.590000       0.659916       0.663627       0.820089
      19.600000       0.660861       0.663890       0.819094
      19.610000       0.661797       0.664076       0.818146
      19.620000       0.662718       0.664171       0.817186
      19.630000       0.663621       0.664174       0.816135
      19.640000       0.664503       0.664097       0.814907
      19.650000       0.665367       0.663961       0.813404
      19.660000       0.666216       0.663795       0.811519
      19.670000       0.667052       0.663634       0.809127
      19.680000       0.667880       0.663507       0.806093
      19.690000       0.668707       0.663440       0.802293
      19.700000       0.669538       0.663453       0.797642
      19.710000       0.670381       0.663559       0.792120
      19.720000       0.671243       0.663763       0.785798
      19.730000       0.672129       0.664067       0.778836
      19.740000       0.673046       0.664466       0.771476
      19.750000       0.673996       0.664955       0.764016
      19.760000       0.674978       0.665526       0.756772
      19.770000       0.675993       0.666170       0.750038
      19.780000       0.677039       0.666878       0.744056
      19.790000       0.678114       0.667638       0.738988
      19.800000       0.679217       0.668434       0.734911
      19.810000       0.680345       0.669250       0.731826
      19.820000       0.681494       0.670068       0.729673
      19.830000       0.682661       0.670871       0.728348
      19.840000       0.683839       0.671642       0.727723
      19.850000       0.685020       0.672369       0.727657
      19.860000       0.686196       0.673043       0.728001
      19.870000       0.687361       0.673660       0.728599
      19.880000       0.688505       0.674219       0.729288
      19.890000       0.689619       0.674725       0.729902
      19.900000       0.690693       0.675187       0.730276
      19.910000       0.691716       0.675621       0.730259
      19.920000       0.692676       0.676046       0.729724
      19.930000       0.693559       0.676483       0.728572
      19.940000       0.694349       0.676948       0.726730
      19.950000       0.695033       0.677453       0.724143
      19.960000       0.695597       0.678001       0.720765
      19.970000       0.696036       0.678589       0.716556
      19.980000       0.696351       0.679208       0.711502
      19.990000       0.696553       0.679848       0.705627
      20.000000       0.696665       0.680499       0.699030
