  # energy grid [eV]     epsi_x  epsi_y  epsi_z
       0.000000            NaN            NaN            NaN
       0.010000       0.000117       0.000013       0.000156
       0.020000       0.000234       0.000026       0.000312
       0.030000       0.000352       0.000039       0.000468
       0.040000       0.000469       0.000053       0.000626
       0.050000       0.000586       0.000066       0.000784
       0.060000       0.000704       0.000079       0.000943
       0.070000       0.000821       0.000092       0.001103
       0.080000       0.000938       0.000105       0.001265
       0.090000       0.001056       0.000118       0.001429
       0.100000       0.001173       0.000131       0.001595
       0.110000       0.001291       0.000144       0.001763
       0.120000       0.001408       0.000158       0.001934
       0.130000       0.001526       0.000171       0.002108
       0.140000       0.001644       0.000184       0.002286
       0.150000       0.001762       0.000197       0.002467
       0.160000       0.001879       0.000210       0.002652
       0.170000       0.001997       0.000223       0.002841
       0.180000       0.002115       0.000237       0.003036
       0.190000       0.002233       0.000250       0.003236
       0.200000       0.002352       0.000263       0.003441
       0.210000       0.002470       0.000276       0.003654
       0.220000       0.002588       0.000289       0.003873
       0.230000       0.002707       0.000302       0.004101
       0.240000       0.002826       0.000316       0.004337
       0.250000       0.002944       0.000329       0.004583
       0.260000       0.003063       0.000342       0.004839
       0.270000       0.003182       0.000355       0.005107
       0.280000       0.003302       0.000368       0.005387
       0.290000       0.003421       0.000382       0.005682
       0.300000       0.003540       0.000395       0.005992
       0.310000       0.003660       0.000408       0.006319
       0.320000       0.003780       0.000421       0.006666
       0.330000       0.003900       0.000435       0.007034
       0.340000       0.004020       0.000448       0.007425
       0.350000       0.004140       0.000461       0.007843
       0.360000       0.004261       0.000474       0.008290
       0.370000       0.004382       0.000488       0.008771
       0.380000       0.004502       0.000501       0.009289
       0.390000       0.004624       0.000514       0.009848
       0.400000       0.004745       0.000528       0.010455
       0.410000       0.004866       0.000541       0.011115
       0.420000       0.004988       0.000554       0.011836
       0.430000       0.005110       0.000567       0.012626
       0.440000       0.005232       0.000581       0.013494
       0.450000       0.005355       0.000594       0.014450
       0.460000       0.005477       0.000608       0.015509
       0.470000       0.005600       0.000621       0.016682
       0.480000       0.005723       0.000634       0.017987
       0.490000       0.005847       0.000648       0.019442
       0.500000       0.005970       0.000661       0.021065
       0.510000       0.006094       0.000674       0.022877
       0.520000       0.006219       0.000688       0.024899
       0.530000       0.006343       0.000701       0.027151
       0.540000       0.006468       0.000715       0.029647
       0.550000       0.006593       0.000728       0.032393
       0.560000       0.006718       0.000742       0.035379
       0.570000       0.006844       0.000755       0.038572
       0.580000       0.006970       0.000769       0.041904
       0.590000       0.007097       0.000782       0.045266
       0.600000       0.007223       0.000796       0.048497
       0.610000       0.007350       0.000809       0.051396
       0.620000       0.007478       0.000823       0.053736
       0.630000       0.007605       0.000836       0.055304
       0.640000       0.007733       0.000850       0.055946
       0.650000       0.007862       0.000863       0.055603
       0.660000       0.007990       0.000877       0.054334
       0.670000       0.008120       0.000891       0.052293
       0.680000       0.008249       0.000904       0.049694
       0.690000       0.008379       0.000918       0.046763
       0.700000       0.008509       0.000932       0.043702
       0.710000       0.008640       0.000945       0.040673
       0.720000       0.008771       0.000959       0.037786
       0.730000       0.008902       0.000973       0.035108
       0.740000       0.009034       0.000986       0.032674
       0.750000       0.009166       0.001000       0.030494
       0.760000       0.009299       0.001014       0.028563
       0.770000       0.009432       0.001028       0.026866
       0.780000       0.009566       0.001041       0.025385
       0.790000       0.009700       0.001055       0.024100
       0.800000       0.009835       0.001069       0.022991
       0.810000       0.009970       0.001083       0.022038
       0.820000       0.010105       0.001097       0.021225
       0.830000       0.010241       0.001111       0.020537
       0.840000       0.010378       0.001124       0.019961
       0.850000       0.010515       0.001138       0.019485
       0.860000       0.010653       0.001152       0.019099
       0.870000       0.010791       0.001166       0.018795
       0.880000       0.010929       0.001180       0.018567
       0.890000       0.011068       0.001194       0.018408
       0.900000       0.011208       0.001208       0.018315
       0.910000       0.011348       0.001222       0.018282
       0.920000       0.011489       0.001236       0.018309
       0.930000       0.011630       0.001250       0.018393
       0.940000       0.011772       0.001265       0.018532
       0.950000       0.011915       0.001279       0.018728
       0.960000       0.012058       0.001293       0.018979
       0.970000       0.012202       0.001307       0.019287
       0.980000       0.012346       0.001321       0.019655
       0.990000       0.012491       0.001335       0.020085
       1.000000       0.012637       0.001350       0.020580
       1.010000       0.012783       0.001364       0.021145
       1.020000       0.012930       0.001378       0.021786
       1.030000       0.013078       0.001393       0.022510
       1.040000       0.013226       0.001407       0.023323
       1.050000       0.013375       0.001421       0.024237
       1.060000       0.013525       0.001436       0.025261
       1.070000       0.013675       0.001450       0.026409
       1.080000       0.013826       0.001465       0.027697
       1.090000       0.013978       0.001479       0.029141
       1.100000       0.014130       0.001493       0.030762
       1.110000       0.014284       0.001508       0.032584
       1.120000       0.014438       0.001523       0.034632
       1.130000       0.014593       0.001537       0.036935
       1.140000       0.014748       0.001552       0.039527
       1.150000       0.014905       0.001566       0.042440
       1.160000       0.015062       0.001581       0.045708
       1.170000       0.015220       0.001596       0.049363
       1.180000       0.015379       0.001610       0.053426
       1.190000       0.015538       0.001625       0.057906
       1.200000       0.015699       0.001640       0.062781
       1.210000       0.015860       0.001655       0.067991
       1.220000       0.016023       0.001670       0.073420
       1.230000       0.016186       0.001684       0.078878
       1.240000       0.016350       0.001699       0.084098
       1.250000       0.016515       0.001714       0.088749
       1.260000       0.016681       0.001729       0.092463
       1.270000       0.016847       0.001744       0.094900
       1.280000       0.017015       0.001759       0.095819
       1.290000       0.017184       0.001774       0.095133
       1.300000       0.017354       0.001789       0.092937
       1.310000       0.017525       0.001804       0.089477
       1.320000       0.017696       0.001820       0.085096
       1.330000       0.017869       0.001835       0.080160
       1.340000       0.018043       0.001850       0.075000
       1.350000       0.018218       0.001865       0.069880
       1.360000       0.018394       0.001881       0.064986
       1.370000       0.018571       0.001896       0.060432
       1.380000       0.018749       0.001911       0.056278
       1.390000       0.018928       0.001927       0.052543
       1.400000       0.019109       0.001942       0.049220
       1.410000       0.019290       0.001958       0.046286
       1.420000       0.019473       0.001973       0.043712
       1.430000       0.019657       0.001989       0.041462
       1.440000       0.019842       0.002004       0.039505
       1.450000       0.020028       0.002020       0.037810
       1.460000       0.020216       0.002036       0.036346
       1.470000       0.020405       0.002051       0.035090
       1.480000       0.020595       0.002067       0.034018
       1.490000       0.020786       0.002083       0.033111
       1.500000       0.020979       0.002099       0.032353
       1.510000       0.021173       0.002115       0.031730
       1.520000       0.021368       0.002131       0.031230
       1.530000       0.021565       0.002147       0.030843
       1.540000       0.021763       0.002163       0.030560
       1.550000       0.021963       0.002179       0.030377
       1.560000       0.022164       0.002195       0.030287
       1.570000       0.022366       0.002211       0.030287
       1.580000       0.022570       0.002227       0.030375
       1.590000       0.022776       0.002243       0.030549
       1.600000       0.022983       0.002259       0.030810
       1.610000       0.023191       0.002276       0.031159
       1.620000       0.023401       0.002292       0.031599
       1.630000       0.023613       0.002309       0.032132
       1.640000       0.023826       0.002325       0.032765
       1.650000       0.024041       0.002342       0.033503
       1.660000       0.024258       0.002358       0.034355
       1.670000       0.024476       0.002375       0.035330
       1.680000       0.024696       0.002391       0.036440
       1.690000       0.024918       0.002408       0.037699
       1.700000       0.025142       0.002425       0.039123
       1.710000       0.025367       0.002442       0.040732
       1.720000       0.025594       0.002459       0.042548
       1.730000       0.025824       0.002475       0.044596
       1.740000       0.026054       0.002492       0.046907
       1.750000       0.026287       0.002509       0.049513
       1.760000       0.026522       0.002527       0.052452
       1.770000       0.026759       0.002544       0.055763
       1.780000       0.026998       0.002561       0.059488
       1.790000       0.027239       0.002578       0.063667
       1.800000       0.027482       0.002595       0.068334
       1.810000       0.027727       0.002613       0.073511
       1.820000       0.027974       0.002630       0.079198
       1.830000       0.028224       0.002648       0.085354
       1.840000       0.028475       0.002665       0.091888
       1.850000       0.028729       0.002683       0.098632
       1.860000       0.028985       0.002701       0.105337
       1.870000       0.029244       0.002718       0.111665
       1.880000       0.029505       0.002736       0.117213
       1.890000       0.029768       0.002754       0.121561
       1.900000       0.030034       0.002772       0.124338
       1.910000       0.030302       0.002790       0.125294
       1.920000       0.030573       0.002808       0.124357
       1.930000       0.030846       0.002826       0.121646
       1.940000       0.031122       0.002844       0.117445
       1.950000       0.031401       0.002862       0.112143
       1.960000       0.031682       0.002881       0.106160
       1.970000       0.031967       0.002899       0.099886
       1.980000       0.032254       0.002917       0.093638
       1.990000       0.032543       0.002936       0.087648
       2.000000       0.032836       0.002955       0.082065
       2.010000       0.033132       0.002973       0.076969
       2.020000       0.033431       0.002992       0.072392
       2.030000       0.033733       0.003011       0.068329
       2.040000       0.034037       0.003030       0.064757
       2.050000       0.034346       0.003049       0.061641
       2.060000       0.034657       0.003068       0.058941
       2.070000       0.034972       0.003087       0.056617
       2.080000       0.035290       0.003106       0.054632
       2.090000       0.035611       0.003125       0.052951
       2.100000       0.035936       0.003145       0.051544
       2.110000       0.036265       0.003164       0.050383
       2.120000       0.036597       0.003184       0.049446
       2.130000       0.036933       0.003203       0.048714
       2.140000       0.037272       0.003223       0.048170
       2.150000       0.037616       0.003243       0.047803
       2.160000       0.037963       0.003263       0.047600
       2.170000       0.038315       0.003283       0.047556
       2.180000       0.038670       0.003303       0.047665
       2.190000       0.039030       0.003323       0.047924
       2.200000       0.039393       0.003343       0.048332
       2.210000       0.039762       0.003363       0.048892
       2.220000       0.040134       0.003384       0.049606
       2.230000       0.040511       0.003404       0.050480
       2.240000       0.040893       0.003425       0.051524
       2.250000       0.041279       0.003446       0.052747
       2.260000       0.041670       0.003466       0.054163
       2.270000       0.042066       0.003487       0.055790
       2.280000       0.042467       0.003508       0.057647
       2.290000       0.042873       0.003529       0.059759
       2.300000       0.043284       0.003551       0.062153
       2.310000       0.043701       0.003572       0.064862
       2.320000       0.044123       0.003593       0.067924
       2.330000       0.044550       0.003615       0.071383
       2.340000       0.044983       0.003637       0.075286
       2.350000       0.045422       0.003658       0.079689
       2.360000       0.045867       0.003680       0.084647
       2.370000       0.046318       0.003702       0.090220
       2.380000       0.046775       0.003724       0.096462
       2.390000       0.047238       0.003747       0.103418
       2.400000       0.047708       0.003769       0.111111
       2.410000       0.048184       0.003791       0.119530
       2.420000       0.048667       0.003814       0.128606
       2.430000       0.049158       0.003837       0.138197
       2.440000       0.049655       0.003860       0.148064
       2.450000       0.050159       0.003883       0.157870
       2.460000       0.050671       0.003906       0.167184
       2.470000       0.051191       0.003929       0.175518
       2.480000       0.051718       0.003953       0.182380
       2.490000       0.052253       0.003976       0.187336
       2.500000       0.052797       0.004000       0.190067
       2.510000       0.053349       0.004024       0.190412
       2.520000       0.053909       0.004048       0.188382
       2.530000       0.054478       0.004072       0.184158
       2.540000       0.055057       0.004096       0.178066
       2.550000       0.055644       0.004120       0.170534
       2.560000       0.056242       0.004145       0.162044
       2.570000       0.056849       0.004170       0.153070
       2.580000       0.057466       0.004195       0.144032
       2.590000       0.058093       0.004220       0.135266
       2.600000       0.058731       0.004245       0.127010
       2.610000       0.059380       0.004271       0.119412
       2.620000       0.060040       0.004296       0.112545
       2.630000       0.060711       0.004322       0.106430
       2.640000       0.061395       0.004348       0.101046
       2.650000       0.062090       0.004374       0.096356
       2.660000       0.062798       0.004401       0.092307
       2.670000       0.063519       0.004427       0.088846
       2.680000       0.064253       0.004454       0.085920
       2.690000       0.065001       0.004481       0.083478
       2.700000       0.065763       0.004508       0.081478
       2.710000       0.066540       0.004536       0.079881
       2.720000       0.067331       0.004563       0.078653
       2.730000       0.068138       0.004591       0.077770
       2.740000       0.068960       0.004619       0.077208
       2.750000       0.069799       0.004648       0.076953
       2.760000       0.070655       0.004676       0.076993
       2.770000       0.071529       0.004705       0.077322
       2.780000       0.072420       0.004734       0.077938
       2.790000       0.073330       0.004764       0.078843
       2.800000       0.074259       0.004793       0.080045
       2.810000       0.075209       0.004823       0.081556
       2.820000       0.076179       0.004853       0.083392
       2.830000       0.077170       0.004884       0.085576
       2.840000       0.078183       0.004914       0.088136
       2.850000       0.079219       0.004945       0.091105
       2.860000       0.080279       0.004977       0.094523
       2.870000       0.081363       0.005008       0.098437
       2.880000       0.082472       0.005040       0.102901
       2.890000       0.083609       0.005073       0.107976
       2.900000       0.084772       0.005106       0.113727
       2.910000       0.085964       0.005139       0.120221
       2.920000       0.087185       0.005172       0.127526
       2.930000       0.088438       0.005206       0.135699
       2.940000       0.089722       0.005240       0.144778
       2.950000       0.091039       0.005275       0.154766
       2.960000       0.092391       0.005310       0.165612
       2.970000       0.093779       0.005345       0.177188
       2.980000       0.095205       0.005381       0.189275
       2.990000       0.096670       0.005418       0.201553
       3.000000       0.098176       0.005455       0.213610
       3.010000       0.099725       0.005492       0.224972
       3.020000       0.101318       0.005530       0.235158
       3.030000       0.102958       0.005568       0.243727
       3.040000       0.104648       0.005607       0.250322
       3.050000       0.106388       0.005647       0.254697
       3.060000       0.108182       0.005687       0.256719
       3.070000       0.110032       0.005728       0.256361
       3.080000       0.111941       0.005770       0.253690
       3.090000       0.113913       0.005812       0.248863
       3.100000       0.115950       0.005855       0.242124
       3.110000       0.118055       0.005899       0.233800
       3.120000       0.120233       0.005943       0.224289
       3.130000       0.122487       0.005989       0.214029
       3.140000       0.124821       0.006035       0.203466
       3.150000       0.127241       0.006082       0.193008
       3.160000       0.129750       0.006130       0.182991
       3.170000       0.132355       0.006180       0.173662
       3.180000       0.135060       0.006230       0.165180
       3.190000       0.137873       0.006281       0.157630
       3.200000       0.140799       0.006334       0.151034
       3.210000       0.143845       0.006388       0.145378
       3.220000       0.147021       0.006443       0.140622
       3.230000       0.150333       0.006500       0.136714
       3.240000       0.153792       0.006559       0.133600
       3.250000       0.157408       0.006618       0.131227
       3.260000       0.161191       0.006680       0.129550
       3.270000       0.165153       0.006744       0.128529
       3.280000       0.169309       0.006809       0.128135
       3.290000       0.173672       0.006877       0.128347
       3.300000       0.178260       0.006947       0.129153
       3.310000       0.183089       0.007020       0.130554
       3.320000       0.188179       0.007096       0.132556
       3.330000       0.193552       0.007174       0.135179
       3.340000       0.199233       0.007256       0.138449
       3.350000       0.205249       0.007341       0.142407
       3.360000       0.211629       0.007430       0.147101
       3.370000       0.218409       0.007523       0.152592
       3.380000       0.225625       0.007620       0.158949
       3.390000       0.233322       0.007723       0.166253
       3.400000       0.241546       0.007831       0.174589
       3.410000       0.250354       0.007946       0.184045
       3.420000       0.259805       0.008067       0.194704
       3.430000       0.269972       0.008196       0.206631
       3.440000       0.280934       0.008333       0.219854
       3.450000       0.292781       0.008479       0.234350
       3.460000       0.305617       0.008637       0.250009
       3.470000       0.319560       0.008806       0.266619
       3.480000       0.334744       0.008988       0.283851
       3.490000       0.351321       0.009186       0.301263
       3.500000       0.369463       0.009400       0.318332
       3.510000       0.389361       0.009634       0.334514
       3.520000       0.411228       0.009888       0.349307
       3.530000       0.435294       0.010167       0.362311
       3.540000       0.461801       0.010472       0.373262
       3.550000       0.490992       0.010806       0.382028
       3.560000       0.523091       0.011172       0.388578
       3.570000       0.558272       0.011570       0.392931
       3.580000       0.596616       0.012001       0.395118
       3.590000       0.638049       0.012463       0.395144
       3.600000       0.682275       0.012951       0.392997
       3.610000       0.728707       0.013457       0.388673
       3.620000       0.776436       0.013967       0.382235
       3.630000       0.824271       0.014465       0.373863
       3.640000       0.870888       0.014933       0.363891
       3.650000       0.915103       0.015352       0.352801
       3.660000       0.956197       0.015712       0.341170
       3.670000       0.994192       0.016011       0.329593
       3.680000       1.029928       0.016257       0.318607
       3.690000       1.064906       0.016467       0.308634
       3.700000       1.100926       0.016662       0.299959
       3.710000       1.139671       0.016864       0.292739
       3.720000       1.182309       0.017089       0.287029
       3.730000       1.229220       0.017343       0.282824
       3.740000       1.279815       0.017627       0.280093
       3.750000       1.332509       0.017932       0.278810
       3.760000       1.384854       0.018239       0.278961
       3.770000       1.433906       0.018529       0.280536
       3.780000       1.476829       0.018784       0.283516
       3.790000       1.511619       0.018992       0.287858
       3.800000       1.537723       0.019151       0.293489
       3.810000       1.556299       0.019274       0.300317
       3.820000       1.569989       0.019381       0.308249
       3.830000       1.582315       0.019497       0.317217
       3.840000       1.596934       0.019647       0.327185
       3.850000       1.617007       0.019852       0.338147
       3.860000       1.644770       0.020125       0.350097
       3.870000       1.681338       0.020470       0.363004
       3.880000       1.726655       0.020880       0.376798
       3.890000       1.779594       0.021341       0.391359
       3.900000       1.838169       0.021826       0.406532
       3.910000       1.899888       0.022301       0.422131
       3.920000       1.962180       0.022732       0.437936
       3.930000       2.022799       0.023085       0.453689
       3.940000       2.080011       0.023336       0.469098
       3.950000       2.132462       0.023477       0.483858
       3.960000       2.178759       0.023512       0.497670
       3.970000       2.216977       0.023457       0.510273
       3.980000       2.244404       0.023330       0.521459
       3.990000       2.257767       0.023148       0.531082
       4.000000       2.253961       0.022926       0.539068
       4.010000       2.231026       0.022671       0.545406
       4.020000       2.188952       0.022391       0.550130
       4.030000       2.129954       0.022097       0.553289
       4.040000       2.058110       0.021801       0.554909
       4.050000       1.978563       0.021519       0.554973
       4.060000       1.896604       0.021270       0.553413
       4.070000       1.816921       0.021071       0.550133
       4.080000       1.743160       0.020938       0.545060
       4.090000       1.677796       0.020885       0.538200
       4.100000       1.622236       0.020922       0.529697
       4.110000       1.577054       0.021054       0.519857
       4.120000       1.542270       0.021287       0.509135
       4.130000       1.517590       0.021618       0.498083
       4.140000       1.502563       0.022045       0.487280
       4.150000       1.496618       0.022560       0.477273
       4.160000       1.499001       0.023146       0.468535
       4.170000       1.508657       0.023781       0.461451
       4.180000       1.524144       0.024433       0.456316
       4.190000       1.543635       0.025064       0.453331
       4.200000       1.565049       0.025628       0.452604
       4.210000       1.586292       0.026082       0.454150
       4.220000       1.605527       0.026393       0.457893
       4.230000       1.621376       0.026540       0.463675
       4.240000       1.632959       0.026522       0.471279
       4.250000       1.639802       0.026360       0.480466
       4.260000       1.641666       0.026088       0.491021
       4.270000       1.638449       0.025753       0.502788
       4.280000       1.630244       0.025398       0.515682
       4.290000       1.617543       0.025065       0.529663
       4.300000       1.601461       0.024788       0.544693
       4.310000       1.583805       0.024592       0.560679
       4.320000       1.566933       0.024494       0.577428
       4.330000       1.553451       0.024505       0.594634
       4.340000       1.545889       0.024633       0.611892
       4.350000       1.546467       0.024883       0.628747
       4.360000       1.556988       0.025260       0.644755
       4.370000       1.578828       0.025767       0.659540
       4.380000       1.612975       0.026406       0.672818
       4.390000       1.660052       0.027178       0.684406
       4.400000       1.720293       0.028081       0.694203
       4.410000       1.793458       0.029107       0.702167
       4.420000       1.878672       0.030243       0.708291
       4.430000       1.974230       0.031465       0.712572
       4.440000       2.077416       0.032739       0.714977
       4.450000       2.184433       0.034020       0.715426
       4.460000       2.290572       0.035260       0.713799
       4.470000       2.390681       0.036412       0.709970
       4.480000       2.479897       0.037440       0.703874
       4.490000       2.554428       0.038326       0.695584
       4.500000       2.612049       0.039071       0.685382
       4.510000       2.652086       0.039689       0.673789
       4.520000       2.674929       0.040200       0.661538
       4.530000       2.681384       0.040623       0.649492
       4.540000       2.672274       0.040972       0.638539
       4.550000       2.648485       0.041259       0.629483
       4.560000       2.611356       0.041501       0.622975
       4.570000       2.563067       0.041723       0.619480
       4.580000       2.506740       0.041955       0.619276
       4.590000       2.446121       0.042228       0.622471
       4.600000       2.384966       0.042564       0.629031
       4.610000       2.326377       0.042971       0.638786
       4.620000       2.272337       0.043437       0.651429
       4.630000       2.223595       0.043930       0.666504
       4.640000       2.179904       0.044403       0.683411
       4.650000       2.140537       0.044808       0.701437
       4.660000       2.104871       0.045112       0.719832
       4.670000       2.072821       0.045304       0.737901
       4.680000       2.044966       0.045404       0.755096
       4.690000       2.022321       0.045455       0.771055
       4.700000       2.005905       0.045514       0.785599
       4.710000       1.996265       0.045635       0.798693
       4.720000       1.993145       0.045862       0.810379
       4.730000       1.995387       0.046219       0.820717
       4.740000       2.001110       0.046710       0.829722
       4.750000       2.008132       0.047326       0.837325
       4.760000       2.014530       0.048049       0.843370
       4.770000       2.019143       0.048863       0.847634
       4.780000       2.021808       0.049757       0.849908
       4.790000       2.023221       0.050724       0.850089
       4.800000       2.024491       0.051761       0.848290
       4.810000       2.026620       0.052856       0.844916
       4.820000       2.030124       0.053978       0.840676
       4.830000       2.034965       0.055081       0.836522
       4.840000       2.040743       0.056098       0.833535
       4.850000       2.047048       0.056950       0.832775
       4.860000       2.053758       0.057558       0.835151
       4.870000       2.061174       0.057854       0.841323
       4.880000       2.069951       0.057796       0.851638
       4.890000       2.080876       0.057377       0.866115
       4.900000       2.094577       0.056635       0.884445
       4.910000       2.111209       0.055646       0.906036
       4.920000       2.130214       0.054509       0.930071
       4.930000       2.150251       0.053330       0.955595
       4.940000       2.169388       0.052204       0.981604
       4.950000       2.185560       0.051205       1.007115
       4.960000       2.197149       0.050385       1.031224
       4.970000       2.203430       0.049771       1.053128
       4.980000       2.204662       0.049372       1.072158
       4.990000       2.201788       0.049184       1.087813
       5.000000       2.195922       0.049194       1.099828
       5.010000       2.187895       0.049385       1.108251
       5.020000       2.178061       0.049741       1.113482
       5.030000       2.166407       0.050252       1.116256
       5.040000       2.152871       0.050910       1.117504
       5.050000       2.137683       0.051714       1.118140
       5.060000       2.121556       0.052660       1.118816
       5.070000       2.105646       0.053744       1.119717
       5.080000       2.091310       0.054954       1.120448
       5.090000       2.079812       0.056274       1.120043
       5.100000       2.072153       0.057685       1.117095
       5.110000       2.069051       0.059173       1.109987
       5.120000       2.071040       0.060733       1.097191
       5.130000       2.078546       0.062370       1.077571
       5.140000       2.091857       0.064090       1.050627
       5.150000       2.110956       0.065894       1.016603
       5.160000       2.135307       0.067764       0.976458
       5.170000       2.163672       0.069654       0.931687
       5.180000       2.194093       0.071487       0.884077
       5.190000       2.224109       0.073163       0.835450
       5.200000       2.251198       0.074575       0.787455
       5.210000       2.273332       0.075639       0.741433
       5.220000       2.289435       0.076312       0.698362
       5.230000       2.299575       0.076603       0.658866
       5.240000       2.304842       0.076569       0.623259
       5.250000       2.306998       0.076289       0.591609
       5.260000       2.308093       0.075845       0.563807
       5.270000       2.310159       0.075303       0.539620
       5.280000       2.315023       0.074712       0.518741
       5.290000       2.324208       0.074109       0.500821
       5.300000       2.338844       0.073527       0.485506
       5.310000       2.359561       0.073007       0.472465
       5.320000       2.386343       0.072594       0.461418
       5.330000       2.418402       0.072330       0.452155
       5.340000       2.454117       0.072247       0.444538
       5.350000       2.491080       0.072362       0.438485
       5.360000       2.526278       0.072670       0.433942
       5.370000       2.556420       0.073154       0.430848
       5.380000       2.578446       0.073776       0.429110
       5.390000       2.590144       0.074495       0.428582
       5.400000       2.590714       0.075262       0.429061
       5.410000       2.581007       0.076029       0.430305
       5.420000       2.563298       0.076743       0.432069
       5.430000       2.540646       0.077353       0.434145
       5.440000       2.516130       0.077807       0.436414
       5.450000       2.492230       0.078069       0.438870
       5.460000       2.470520       0.078131       0.441607
       5.470000       2.451661       0.078022       0.444791
       5.480000       2.435626       0.077812       0.448605
       5.490000       2.422065       0.077599       0.453216
       5.500000       2.410717       0.077489       0.458749
       5.510000       2.401747       0.077585       0.465292
       5.520000       2.395888       0.077968       0.472910
       5.530000       2.394296       0.078694       0.481654
       5.540000       2.398197       0.079787       0.491566
       5.550000       2.408466       0.081240       0.502668
       5.560000       2.425304       0.083014       0.514957
       5.570000       2.448112       0.085039       0.528404
       5.580000       2.475584       0.087217       0.542956
       5.590000       2.505972       0.089435       0.558559
       5.600000       2.537482       0.091576       0.575187
       5.610000       2.568703       0.093536       0.592869
       5.620000       2.598995       0.095249       0.611735
       5.630000       2.628703       0.096695       0.632033
       5.640000       2.659139       0.097906       0.654141
       5.650000       2.692332       0.098948       0.678542
       5.660000       2.730651       0.099895       0.705767
       5.670000       2.776425       0.100801       0.736342
       5.680000       2.831679       0.101681       0.770719
       5.690000       2.898032       0.102501       0.809226
       5.700000       2.976737       0.103194       0.852018
       5.710000       3.068788       0.103678       0.899041
       5.720000       3.175014       0.103883       0.950011
       5.730000       3.296083       0.103770       1.004430
       5.740000       3.432391       0.103332       1.061642
       5.750000       3.583881       0.102591       1.120943
       5.760000       3.749863       0.101581       1.181709
       5.770000       3.928922       0.100348       1.243520
       5.780000       4.118998       0.098943       1.306228
       5.790000       4.317648       0.097424       1.369932
       5.800000       4.522472       0.095853       1.434870
       5.810000       4.731571       0.094284       1.501224
       5.820000       4.943897       0.092766       1.568898
       5.830000       5.159378       0.091338       1.637338
       5.840000       5.378770       0.090040       1.705475
       5.850000       5.603254       0.088915       1.771813
       5.860000       5.833844       0.088017       1.834659
       5.870000       6.070732       0.087403       1.892414
       5.880000       6.312716       0.087134       1.943874
       5.890000       6.556867       0.087262       1.988438
       5.900000       6.798509       0.087829       2.026200
       5.910000       7.031531       0.088865       2.057873
       5.920000       7.248983       0.090388       2.084610
       5.930000       7.443849       0.092403       2.107734
       5.940000       7.609854       0.094903       2.128437
       5.950000       7.742159       0.097867       2.147508
       5.960000       7.837850       0.101254       2.165141
       5.970000       7.896156       0.105012       2.180920
       5.980000       7.918387       0.109072       2.194000
       5.990000       7.907563       0.113358       2.203460
       6.000000       7.867828       0.117794       2.208708
       6.010000       7.803796       0.122302       2.209788
       6.020000       7.720045       0.126795       2.207469
       6.030000       7.620922       0.131168       2.203087
       6.040000       7.510660       0.135288       2.198209
       6.050000       7.393623       0.138988       2.194258
       6.060000       7.274412       0.142079       2.192213
       6.070000       7.157645       0.144373       2.192472
       6.080000       7.047451       0.145704       2.194885
       6.090000       6.946896       0.145958       2.198913
       6.100000       6.857575       0.145096       2.203876
       6.110000       6.779496       0.143167       2.209162
       6.120000       6.711216       0.140321       2.214342
       6.130000       6.650112       0.136789       2.219152
       6.140000       6.592705       0.132855       2.223380
       6.150000       6.535022       0.128811       2.226779
       6.160000       6.473025       0.124922       2.229049
       6.170000       6.403087       0.121403       2.229918
       6.180000       6.322449       0.118409       2.229252
       6.190000       6.229596       0.116039       2.227145
       6.200000       6.124479       0.114347       2.223968
       6.210000       6.008587       0.113350       2.220373
       6.220000       5.884816       0.113036       2.217275
       6.230000       5.757090       0.113370       2.215798
       6.240000       5.629725       0.114291       2.217162
       6.250000       5.506645       0.115707       2.222542
       6.260000       5.390662       0.117494       2.232908
       6.270000       5.283044       0.119496       2.248919
       6.280000       5.183498       0.121538       2.270887
       6.290000       5.090551       0.123443       2.298782
       6.300000       5.002172       0.125065       2.332255
       6.310000       4.916467       0.126301       2.370682
       6.320000       4.832241       0.127110       2.413256
       6.330000       4.749341       0.127505       2.459163
       6.340000       4.668683       0.127541       2.507814
       6.350000       4.591975       0.127299       2.559062
       6.360000       4.521243       0.126879       2.613322
       6.370000       4.458325       0.126391       2.671536
       6.380000       4.404496       0.125946       2.734986
       6.390000       4.360273       0.125648       2.804948
       6.400000       4.325365       0.125587       2.882269
       6.410000       4.298692       0.125827       2.966923
       6.420000       4.278403       0.126400       3.057690
       6.430000       4.261895       0.127304       3.152059
       6.440000       4.245848       0.128492       3.246444
       6.450000       4.226385       0.129887       3.336709
       6.460000       4.199403       0.131390       3.418820
       6.470000       4.161117       0.132909       3.489404
       6.480000       4.108725       0.134384       3.546013
       6.490000       4.041036       0.135806       3.587051
       6.500000       3.958850       0.137219       3.611555
       6.510000       3.864966       0.138696       3.619023
       6.520000       3.763772       0.140308       3.609404
       6.530000       3.660554       0.142088       3.583202
       6.540000       3.560698       0.144013       3.541577
       6.550000       3.468999       0.146002       3.486375
       6.560000       3.389222       0.147929       3.420075
       6.570000       3.323929       0.149658       3.345705
       6.580000       3.274508       0.151076       3.266731
       6.590000       3.241293       0.152108       3.186903
       6.600000       3.223706       0.152728       3.110022
       6.610000       3.220410       0.152947       3.039596
       6.620000       3.229487       0.152797       2.978440
       6.630000       3.248673       0.152324       2.928308
       6.640000       3.275604       0.151590       2.889668
       6.650000       3.308013       0.150674       2.861678
       6.660000       3.343860       0.149675       2.842393
       6.670000       3.381414       0.148708       2.829133
       6.680000       3.419369       0.147893       2.818941
       6.690000       3.457013       0.147349       2.809005
       6.700000       3.494371       0.147175       2.796945
       6.710000       3.532229       0.147445       2.780916
       6.720000       3.571948       0.148204       2.759559
       6.730000       3.615084       0.149470       2.731936
       6.740000       3.662897       0.151244       2.697545
       6.750000       3.715844       0.153515       2.656443
       6.760000       3.773165       0.156266       2.609384
       6.770000       3.832638       0.159475       2.557824
       6.780000       3.890583       0.163111       2.503707
       6.790000       3.942166       0.167131       2.449101
       6.800000       3.982039       0.171477       2.395809
       6.810000       4.005209       0.176086       2.345076
       6.820000       4.007967       0.180897       2.297451
       6.830000       3.988626       0.185864       2.252826
       6.840000       3.947892       0.190966       2.210616
       6.850000       3.888763       0.196214       2.170041
       6.860000       3.815960       0.201637       2.130421
       6.870000       3.735022       0.207264       2.091415
       6.880000       3.651299       0.213080       2.053159
       6.890000       3.569145       0.218990       2.016292
       6.900000       3.491530       0.224796       1.981882
       6.910000       3.420085       0.230196       1.951271
       6.920000       3.355460       0.234818       1.925870
       6.930000       3.297769       0.238283       1.906914
       6.940000       3.246962       0.240270       1.895213
       6.950000       3.203041       0.240584       1.890926
       6.960000       3.166119       0.239205       1.893414
       6.970000       3.136359       0.236297       1.901211
       6.980000       3.113864       0.232191       1.912190
       6.990000       3.098587       0.227323       1.923901
       7.000000       3.090330       0.222166       1.934050
       7.010000       3.088816       0.217168       1.940963
       7.020000       3.093746       0.212701       1.943890
       7.030000       3.104732       0.209048       1.943017
       7.040000       3.121093       0.206403       1.939195
       7.050000       3.141628       0.204888       1.933481
       7.060000       3.164565       0.204565       1.926683
       7.070000       3.187806       0.205457       1.919036
       7.080000       3.209446       0.207552       1.910109
       7.090000       3.228335       0.210809       1.898936
       7.100000       3.244431       0.215157       1.884322
       7.110000       3.258774       0.220484       1.865221
       7.120000       3.273115       0.226629       1.841059
       7.130000       3.289408       0.233381       1.811941
       7.140000       3.309397       0.240477       1.778659
       7.150000       3.334421       0.247631       1.742549
       7.160000       3.365442       0.254569       1.705225
       7.170000       3.403180       0.261083       1.668306
       7.180000       3.448259       0.267075       1.633215
       7.190000       3.501285       0.272584       1.601095
       7.200000       3.562835       0.277791       1.572843
       7.210000       3.633314       0.282993       1.549186
       7.220000       3.712692       0.288559       1.530736
       7.230000       3.800171       0.294887       1.517975
       7.240000       3.893866       0.302350       1.511164
       7.250000       3.990624       0.311268       1.510221
       7.260000       4.086075       0.321880       1.514632
       7.270000       4.174994       0.334326       1.523419
       7.280000       4.251962       0.348639       1.535214
       7.290000       4.312237       0.364725       1.548425
       7.300000       4.352620       0.382368       1.561471
       7.310000       4.372051       0.401226       1.573021
       7.320000       4.371726       0.420869       1.582164
       7.330000       4.354707       0.440829       1.588452
       7.340000       4.325169       0.460680       1.591823
       7.350000       4.287562       0.480109       1.592443
       7.360000       4.245936       0.498965       1.590515
       7.370000       4.203538       0.517272       1.586128
       7.380000       4.162710       0.535192       1.579150
       7.390000       4.124976       0.552966       1.569233
       7.400000       4.091269       0.570842       1.555905
       7.410000       4.062173       0.589002       1.538718
       7.420000       4.038118       0.607509       1.517421
       7.430000       4.019475       0.626264       1.492094
       7.440000       4.006576       0.644994       1.463236
       7.450000       3.999659       0.663248       1.431755
       7.460000       3.998743       0.680430       1.398865
       7.470000       4.003446       0.695849       1.365893
       7.480000       4.012789       0.708800       1.334074
       7.490000       4.025105       0.718662       1.304384
       7.500000       4.038132       0.725003       1.277486
       7.510000       4.049335       0.727671       1.253779
       7.520000       4.056382       0.726866       1.233516
       7.530000       4.057666       0.723153       1.216949
       7.540000       4.052685       0.717404       1.204433
       7.550000       4.042207       0.710681       1.196466
       7.560000       4.028172       0.704081       1.193642
       7.570000       4.013408       0.698589       1.196529
       7.580000       4.001211       0.694957       1.205522
       7.590000       3.994885       0.693631       1.220696
       7.600000       3.997311       0.694733       1.241693
       7.610000       4.010635       0.698056       1.267658
       7.620000       4.036077       0.703113       1.297244
       7.630000       4.073832       0.709226       1.328691
       7.640000       4.123036       0.715661       1.359989
       7.650000       4.181810       0.721805       1.389124
       7.660000       4.247467       0.727330       1.414344
       7.670000       4.316973       0.732283       1.434404
       7.680000       4.387599       0.737064       1.448688
       7.690000       4.457614       0.742319       1.457201
       7.700000       4.526690       0.748788       1.460418
       7.710000       4.595809       0.757153       1.459074
       7.720000       4.666610       0.767942       1.453936
       7.730000       4.740393       0.781444       1.445634
       7.740000       4.817141       0.797652       1.434548
       7.750000       4.894893       0.816212       1.420770
       7.760000       4.969691       0.836399       1.404140
       7.770000       5.036101       0.857156       1.384375
       7.780000       5.088180       0.877196       1.361276
       7.790000       5.120659       0.895176       1.334952
       7.800000       5.130061       0.909898       1.305974
       7.810000       5.115444       0.920484       1.275380
       7.820000       5.078601       0.926494       1.244525
       7.830000       5.023671       0.927968       1.214832
       7.840000       4.956359       0.925416       1.187529
       7.850000       4.883004       0.919736       1.163444
       7.860000       4.809696       0.912071       1.142890
       7.870000       4.741603       0.903605       1.125667
       7.880000       4.682563       0.895343       1.111158
       7.890000       4.634971       0.887921       1.098517
       7.900000       4.599909       0.881514       1.086902
       7.910000       4.577354       0.875857       1.075696
       7.920000       4.566387       0.870374       1.064658
       7.930000       4.565337       0.864371       1.053983
       7.940000       4.571919       0.857204       1.044252
       7.950000       4.583449       0.848390       1.036321
       7.960000       4.597138       0.837653       1.031172
       7.970000       4.610417       0.824923       1.029764
       7.980000       4.621199       0.810345       1.032903
       7.990000       4.628033       0.794258       1.041135
       8.000000       4.630138       0.777171       1.054672
       8.010000       4.627327       0.759694       1.073356
       8.020000       4.619824       0.742472       1.096658
       8.030000       4.608070       0.726138       1.123723
       8.040000       4.592600       0.711289       1.153464
       8.050000       4.574004       0.698476       1.184684
       8.060000       4.552880       0.688205       1.216205
       8.070000       4.529655       0.680926       1.246962
       8.080000       4.504264       0.677011       1.276052
       8.090000       4.475864       0.676740       1.302732
       8.100000       4.442775       0.680287       1.326389
       8.110000       4.402718       0.687710       1.346490
       8.120000       4.353271       0.698947       1.362535
       8.130000       4.292378       0.713813       1.374040
       8.140000       4.218799       0.731995       1.380547
       8.150000       4.132489       0.753054       1.381658
       8.160000       4.034876       0.776448       1.377096
       8.170000       3.928930       0.801559       1.366778
       8.180000       3.818920       0.827736       1.350912
       8.190000       3.709850       0.854327       1.330059
       8.200000       3.606745       0.880696       1.305127
       8.210000       3.513992       0.906207       1.277270
       8.220000       3.434893       0.930197       1.247715
       8.230000       3.371436       0.951966       1.217624
       8.240000       3.324228       0.970816       1.188023
       8.250000       3.292551       0.986127       1.159808
       8.260000       3.274510       0.997465       1.133780
       8.270000       3.267304       1.004656       1.110633
       8.280000       3.267641       1.007808       1.090903
       8.290000       3.272271       1.007239       1.074877
       8.300000       3.278512       1.003361       1.062508
       8.310000       3.284596       0.996544       1.053384
       8.320000       3.289673       0.987047       1.046782
       8.330000       3.293461       0.975041       1.041803
       8.340000       3.295705       0.960700       1.037563
       8.350000       3.295716       0.944294       1.033395
       8.360000       3.292189       0.926224       1.028971
       8.370000       3.283413       0.906981       1.024317
       8.380000       3.267762       0.887070       1.019725
       8.390000       3.244318       0.866957       1.015603
       8.400000       3.213351       0.847077       1.012346
       8.410000       3.176498       0.827878       1.010248
       8.420000       3.136566       0.809857       1.009483
       8.430000       3.097016       0.793572       1.010157
       8.440000       3.061301       0.779614       1.012383
       8.450000       3.032230       0.768572       1.016358
       8.460000       3.011512       0.760991       1.022403
       8.470000       2.999545       0.757333       1.030942
       8.480000       2.995476       0.757941       1.042436
       8.490000       2.997473       0.763006       1.057274
       8.500000       3.003124       0.772540       1.075665
       8.510000       3.009850       0.786363       1.097554
       8.520000       3.015205       0.804102       1.122596
       8.530000       3.017007       0.825206       1.150191
       8.540000       3.013339       0.848976       1.179572
       8.550000       3.002533       0.874603       1.209898
       8.560000       2.983212       0.901202       1.240317
       8.570000       2.954409       0.927842       1.269974
       8.580000       2.915695       0.953539       1.297983
       8.590000       2.867267       0.977242       1.323427
       8.600000       2.809960       0.997828       1.345405
       8.610000       2.745181       1.014155       1.363134
       8.620000       2.674763       1.025207       1.376049
       8.630000       2.600712       1.030311       1.383864
       8.640000       2.524924       1.029359       1.386576
       8.650000       2.448953       1.022941       1.384434
       8.660000       2.373892       1.012298       1.377892
       8.670000       2.300411       0.999122       1.367579
       8.680000       2.228884       0.985254       1.354258
       8.690000       2.159567       0.972392       1.338804
       8.700000       2.092769       0.961885       1.322161
       8.710000       2.028989       0.954631       1.305282
       8.720000       1.968989       0.951089       1.289037
       8.730000       1.913771       0.951344       1.274106
       8.740000       1.864450       0.955206       1.260909
       8.750000       1.822070       0.962280       1.249591
       8.760000       1.787429       0.972001       1.240081
       8.770000       1.760969       0.983646       1.232187
       8.780000       1.742758       0.996363       1.225688
       8.790000       1.732533       1.009256       1.220397
       8.800000       1.729800       1.021509       1.216187
       8.810000       1.733913       1.032528       1.212998
       8.820000       1.744147       1.042003       1.210837
       8.830000       1.759719       1.049869       1.209778
       8.840000       1.779799       1.056161       1.209949
       8.850000       1.803531       1.060855       1.211492
       8.860000       1.830117       1.063781       1.214499
       8.870000       1.858965       1.064666       1.218936
       8.880000       1.889826       1.063305       1.224599
       8.890000       1.922843       1.059756       1.231132
       8.900000       1.958419       1.054462       1.238108
       8.910000       1.996941       1.048220       1.245165
       8.920000       2.038449       1.041994       1.252125
       8.930000       2.082374       1.036661       1.259069
       8.940000       2.127443       1.032766       1.266329
       8.950000       2.171758       1.030397       1.274417
       8.960000       2.213004       1.029205       1.283908
       8.970000       2.248684       1.028554       1.295327
       8.980000       2.276342       1.027744       1.309043
       8.990000       2.293768       1.026202       1.325207
       9.000000       2.299269       1.023564       1.343733
       9.010000       2.292014       1.019643       1.364332
       9.020000       2.272359       1.014318       1.386606
       9.030000       2.241971       1.007446       1.410189
       9.040000       2.203630       0.998870       1.434904
       9.050000       2.160740       0.988517       1.460869
       9.060000       2.116734       0.976543       1.488513
       9.070000       2.074546       0.963408       1.518470
       9.080000       2.036295       0.949856       1.551412
       9.090000       2.003211       0.936767       1.587873
       9.100000       1.975758       0.924968       1.628132
       9.110000       1.953898       0.915062       1.672153
       9.120000       1.937381       0.907326       1.719602
       9.130000       1.925948       0.901688       1.769874
       9.140000       1.919377       0.897792       1.822163
       9.150000       1.917373       0.895124       1.875547
       9.160000       1.919412       0.893189       1.929095
       9.170000       1.924633       0.891689       1.981971
       9.180000       1.931888       0.890669       2.033513
       9.190000       1.939933       0.890570       2.083310
       9.200000       1.947690       0.892163       2.131248
       9.210000       1.954466       0.896412       2.177538
       9.220000       1.959989       0.904318       2.222691
       9.230000       1.964270       0.916787       2.267424
       9.240000       1.967345       0.934558       2.312541
       9.250000       1.969054       0.958156       2.358803
       9.260000       1.968960       0.987878       2.406823
       9.270000       1.966407       1.023749       2.457029
       9.280000       1.960676       1.065479       2.509672
       9.290000       1.951182       1.112391       2.564889
       9.300000       1.937650       1.163363       2.622790
       9.310000       1.920227       1.216801       2.683533
       9.320000       1.899475       1.270682       2.747367
       9.330000       1.876249       1.322703       2.814653
       9.340000       1.851500       1.370525       2.885863
       9.350000       1.826071       1.412060       2.961582
       9.360000       1.800547       1.445720       3.042497
       9.370000       1.775166       1.470563       3.129378
       9.380000       1.749783       1.486293       3.223045
       9.390000       1.723918       1.493188       3.324343
       9.400000       1.696879       1.491988       3.434115
       9.410000       1.667999       1.483786       3.553193
       9.420000       1.636922       1.469915       3.682403
       9.430000       1.603835       1.451807       3.822580
       9.440000       1.569556       1.430838       3.974614
       9.450000       1.535419       1.408195       4.139480
       9.460000       1.503012       1.384783       4.318279
       9.470000       1.473870       1.361195       4.512218
       9.480000       1.449226       1.337725       4.722541
       9.490000       1.429861       1.314421       4.950346
       9.500000       1.416089       1.291180       5.196325
       9.510000       1.407831       1.267888       5.460437
       9.520000       1.404771       1.244565       5.741543
       9.530000       1.406517       1.221469       6.037050
       9.540000       1.412727       1.199115       6.342622
       9.550000       1.423143       1.178205       6.652030
       9.560000       1.437544       1.159480       6.957251
       9.570000       1.455641       1.143591       7.248888
       9.580000       1.476983       1.131014       7.516930
       9.590000       1.500911       1.122050       7.751775
       9.600000       1.526575       1.116881       7.945398
       9.610000       1.552992       1.115608       8.092443
       9.620000       1.579090       1.118244       8.190955
       9.630000       1.603710       1.124653       8.242488
       9.640000       1.625565       1.134460       8.251465
       9.650000       1.643218       1.147000       8.223989
       9.660000       1.655149       1.161323       8.166527
       9.670000       1.659958       1.176265       8.084881
       9.680000       1.656667       1.190563       7.983738
       9.690000       1.645023       1.202994       7.866750
       9.700000       1.625658       1.212514       7.736924
       9.710000       1.600022       1.218399       7.597024
       9.720000       1.570080       1.220352       7.449829
       9.730000       1.537901       1.218568       7.298184
       9.740000       1.505279       1.213711       7.144884
       9.750000       1.473524       1.206813       6.992463
       9.760000       1.443447       1.199129       6.842980
       9.770000       1.415516       1.191952       6.697924
       9.780000       1.390061       1.186437       6.558294
       9.790000       1.367426       1.183442       6.424788
       9.800000       1.348021       1.183452       6.297940
       9.810000       1.332267       1.186599       6.178120
       9.820000       1.320508       1.192784       6.065407
       9.830000       1.312919       1.201855       5.959454
       9.840000       1.309456       1.213768       5.859448
       9.850000       1.309840       1.228670       5.764231
       9.860000       1.313573       1.246875       5.672531
       9.870000       1.319991       1.268759       5.583241
       9.880000       1.328360       1.294624       5.495686
       9.890000       1.337999       1.324565       5.409823
       9.900000       1.348401       1.358380       5.326326
       9.910000       1.359324       1.395551       5.246515
       9.920000       1.370827       1.435301       5.172073
       9.930000       1.383237       1.476737       5.104602
       9.940000       1.397066       1.519017       5.045127
       9.950000       1.412879       1.561510       4.993691
       9.960000       1.431125       1.603863       4.949157
       9.970000       1.451981       1.645954       4.909266
       9.980000       1.475232       1.687722       4.870926
       9.990000       1.500268       1.728912       4.830677
      10.000000       1.526194       1.768821       4.785237
      10.010000       1.552039       1.806171       4.732014
      10.020000       1.576952       1.839167       4.669504
      10.030000       1.600324       1.865757       4.597484
      10.040000       1.621788       1.883986       4.516952
      10.050000       1.641123       1.892349       4.429829
      10.060000       1.658158       1.890041       4.338481
      10.070000       1.672762       1.877088       4.245230
      10.080000       1.684918       1.854376       4.152012
      10.090000       1.694823       1.823591       4.060271
      10.100000       1.702903       1.787067       3.971075
      10.110000       1.709683       1.747521       3.885331
      10.120000       1.715545       1.707712       3.803944
      10.130000       1.720487       1.670093       3.727817
      10.140000       1.724009       1.636532       3.657691
      10.150000       1.725147       1.608162       3.593873
      10.160000       1.722654       1.585361       3.535994
      10.170000       1.715285       1.567836       3.482891
      10.180000       1.702108       1.554794       3.432714
      10.190000       1.682785       1.545159       3.383253
      10.200000       1.657730       1.537818       3.332428
      10.210000       1.628080       1.531831       3.278810
      10.220000       1.595503       1.526566       3.221989
      10.230000       1.561916       1.521757       3.162662
      10.240000       1.529222       1.517496       3.102403
      10.250000       1.499136       1.514196       3.043227
      10.260000       1.473080       1.512526       2.987115
      10.270000       1.452131       1.513332       2.935688
      10.280000       1.437007       1.517530       2.890074
      10.290000       1.428051       1.525965       2.850964
      10.300000       1.425244       1.539259       2.818746
      10.310000       1.428194       1.557665       2.793638
      10.320000       1.436134       1.581012       2.775772
      10.330000       1.447897       1.608752       2.765204
      10.340000       1.461939       1.640143       2.761887
      10.350000       1.476424       1.674476       2.765647
      10.360000       1.489422       1.711309       2.776183
      10.370000       1.499199       1.750582       2.793103
      10.380000       1.504518       1.792592       2.815927
      10.390000       1.504869       1.837813       2.844044
      10.400000       1.500525       1.886617       2.876606
      10.410000       1.492398       1.938953       2.912402
      10.420000       1.481769       1.994115       2.949800
      10.430000       1.469975       2.050656       2.986811
      10.440000       1.458151       2.106503       3.021296
      10.450000       1.447101       2.159235       3.051269
      10.460000       1.437269       2.206456       3.075213
      10.470000       1.428790       2.246171       3.092293
      10.480000       1.421566       2.277103       3.102367
      10.490000       1.415355       2.298925       3.105782
      10.500000       1.409846       2.312357       3.103067
      10.510000       1.404740       2.319073       3.094673
      10.520000       1.399796       2.321388       3.080858
      10.530000       1.394845       2.321802       3.061740
      10.540000       1.389758       2.322480       3.037427
      10.550000       1.384368       2.324812       3.008147
      10.560000       1.378383       2.329141       2.974316
      10.570000       1.371337       2.334723       2.936542
      10.580000       1.362615       2.339941       2.895598
      10.590000       1.351581       2.342742       2.852388
      10.600000       1.337775       2.341178       2.807913
      10.610000       1.321096       2.333872       2.763216
      10.620000       1.301892       2.320302       2.719293
      10.630000       1.280914       2.300796       2.676975
      10.640000       1.259174       2.276335       2.636834
      10.650000       1.237752       2.248240       2.599125
      10.660000       1.217641       2.217874       2.563785
      10.670000       1.199638       2.186428       2.530470
      10.680000       1.184286       2.154813       2.498603
      10.690000       1.171870       2.123677       2.467439
      10.700000       1.162435       2.093511       2.436148
      10.710000       1.155813       2.064769       2.403912
      10.720000       1.151640       2.037933       2.370051
      10.730000       1.149377       2.013482       2.334162
      10.740000       1.148358       1.991828       2.296270
      10.750000       1.147890       1.973301       2.256926
      10.760000       1.147391       1.958198       2.217215
      10.770000       1.146517       1.946843       2.178618
      10.780000       1.145217       1.939596       2.142766
      10.790000       1.143692       1.936785       2.111175
      10.800000       1.142292       1.938607       2.085036
      10.810000       1.141412       1.945057       2.065112
      10.820000       1.141409       1.955919       2.051701
      10.830000       1.142569       1.970814       2.044633
      10.840000       1.145077       1.989264       2.043281
      10.850000       1.148999       2.010717       2.046599
      10.860000       1.154258       2.034515       2.053212
      10.870000       1.160638       2.059823       2.061569
      10.880000       1.167838       2.085591       2.070125
      10.890000       1.175572       2.110580       2.077513
      10.900000       1.183685       2.133467       2.082692
      10.910000       1.192213       2.152950       2.085047
      10.920000       1.201338       2.167827       2.084431
      10.930000       1.211269       2.177009       2.081145
      10.940000       1.222075       2.179504       2.075821
      10.950000       1.233577       2.174455       2.069238
      10.960000       1.245340       2.161240       2.062115
      10.970000       1.256762       2.139641       2.054932
      10.980000       1.267238       2.109959       2.047823
      10.990000       1.276303       2.073022       2.040552
      11.000000       1.283724       2.030046       2.032583
      11.010000       1.289497       1.982434       2.023231
      11.020000       1.293789       1.931646       2.011872
      11.030000       1.296819       1.879163       1.998163
      11.040000       1.298752       1.826528       1.982211
      11.050000       1.299593       1.775357       1.964605
      11.060000       1.299147       1.727263       1.946298
      11.070000       1.297033       1.683715       1.928366
      11.080000       1.292796       1.645899       1.911704
      11.090000       1.286065       1.614625       1.896803
      11.100000       1.276702       1.590282       1.883641
      11.110000       1.264863       1.572820       1.871729
      11.120000       1.250940       1.561741       1.860287
      11.130000       1.235413       1.556136       1.848469
      11.140000       1.218701       1.554802       1.835580
      11.150000       1.201074       1.556455       1.821202
      11.160000       1.182638       1.559970       1.805211
      11.170000       1.163398       1.564571       1.787705
      11.180000       1.143335       1.569868       1.768886
      11.190000       1.122486       1.575749       1.748959
      11.200000       1.100978       1.582209       1.728053
      11.210000       1.079029       1.589234       1.706194
      11.220000       1.056895       1.596761       1.683311
      11.230000       1.034822       1.604694       1.659261
      11.240000       1.012982       1.612891       1.633879
      11.250000       0.991449       1.621084       1.607036
      11.260000       0.970204       1.628778       1.578691
      11.270000       0.949192       1.635198       1.548937
      11.280000       0.928400       1.639366       1.518021
      11.290000       0.907927       1.640298       1.486352
      11.300000       0.888028       1.637271       1.454508
      11.310000       0.869098       1.630066       1.423241
      11.320000       0.851623       1.619097       1.393448
      11.330000       0.836098       1.605396       1.366102
      11.340000       0.822953       1.590434       1.342133
      11.350000       0.812479       1.575857       1.322293
      11.360000       0.804789       1.563195       1.307054
      11.370000       0.799790       1.553611       1.296523
      11.380000       0.797197       1.547757       1.290418
      11.390000       0.796575       1.545761       1.288076
      11.400000       0.797409       1.547355       1.288528
      11.410000       0.799176       1.552054       1.290619
      11.420000       0.801402       1.559331       1.293186
      11.430000       0.803694       1.568692       1.295231
      11.440000       0.805744       1.579658       1.296048
      11.450000       0.807327       1.591732       1.295270
      11.460000       0.808309       1.604404       1.292828
      11.470000       0.808642       1.617245       1.288871
      11.480000       0.808364       1.630012       1.283687
      11.490000       0.807567       1.642690       1.277652
      11.500000       0.806349       1.655407       1.271228
      11.510000       0.804754       1.668256       1.264957
      11.520000       0.802726       1.681137       1.259456
      11.530000       0.800107       1.693690       1.255380
      11.540000       0.796677       1.705381       1.253350
      11.550000       0.792229       1.715673       1.253880
      11.560000       0.786626       1.724216       1.257325
      11.570000       0.779850       1.730968       1.263856
      11.580000       0.772010       1.736203       1.273470
      11.590000       0.763335       1.740433       1.285999
      11.600000       0.754149       1.744239       1.301111
      11.610000       0.744834       1.748091       1.318318
      11.620000       0.735795       1.752175       1.337016
      11.630000       0.727428       1.756308       1.356575
      11.640000       0.720095       1.759949       1.376466
      11.650000       0.714101       1.762322       1.396367
      11.660000       0.709692       1.762591       1.416211
      11.670000       0.707046       1.760054       1.436146
      11.680000       0.706282       1.754308       1.456416
      11.690000       0.707472       1.745376       1.477234
      11.700000       0.710654       1.733781       1.498678
      11.710000       0.715857       1.720546       1.520639
      11.720000       0.723097       1.707080       1.542826
      11.730000       0.732368       1.694965       1.564792
      11.740000       0.743599       1.685666       1.585964
      11.750000       0.756604       1.680262       1.605664
      11.760000       0.771031       1.679261       1.623101
      11.770000       0.786335       1.682548       1.637377
      11.780000       0.801794       1.689463       1.647505
      11.790000       0.816568       1.698974       1.652492
      11.800000       0.829805       1.709837       1.651467
      11.810000       0.840750       1.720701       1.643857
      11.820000       0.848827       1.730141       1.629519
      11.830000       0.853658       1.736658       1.608786
      11.840000       0.855034       1.738753       1.582395
      11.850000       0.852877       1.735117       1.551325
      11.860000       0.847224       1.724912       1.516624
      11.870000       0.838264       1.708052       1.479273
      11.880000       0.826372       1.685366       1.440135
      11.890000       0.812114       1.658551       1.399967
      11.900000       0.796203       1.629930       1.359457
      11.910000       0.779399       1.602064       1.319251
      11.920000       0.762420       1.577334       1.279957
      11.930000       0.745874       1.557571       1.242122
      11.940000       0.730217       1.543790       1.206206
      11.950000       0.715745       1.536055       1.172565
      11.960000       0.702602       1.533476       1.141441
      11.970000       0.690793       1.534343       1.112958
      11.980000       0.680221       1.536419       1.087108
      11.990000       0.670723       1.537341       1.063729
      12.000000       0.662108       1.535064       1.042490
      12.010000       0.654197       1.528197       1.022890
      12.020000       0.646844       1.516149       1.004291
      12.030000       0.639951       1.499043       0.985984
      12.040000       0.633479       1.477484       0.967294
      12.050000       0.627452       1.452318       0.947700
      12.060000       0.621964       1.424490       0.926933
      12.070000       0.617167       1.395009       0.905038
      12.080000       0.613251       1.364960       0.882349
      12.090000       0.610404       1.335470       0.859410
      12.100000       0.608774       1.307615       0.836860
      12.110000       0.608454       1.282288       0.815319
      12.120000       0.609474       1.260132       0.795313
      12.130000       0.611808       1.241542       0.777236
      12.140000       0.615383       1.226765       0.761348
      12.150000       0.620077       1.216005       0.747794
      12.160000       0.625723       1.209500       0.736640
      12.170000       0.632116       1.207525       0.727923
      12.180000       0.639028       1.210338       0.721685
      12.190000       0.646212       1.218118       0.717989
      12.200000       0.653401       1.230904       0.716913
      12.210000       0.660293       1.248577       0.718521
      12.220000       0.666549       1.270861       0.722826
      12.230000       0.671799       1.297336       0.729759
      12.240000       0.675682       1.327455       0.739139
      12.250000       0.677907       1.360576       0.750660
      12.260000       0.678324       1.395975       0.763875
      12.270000       0.676968       1.432835       0.778192
      12.280000       0.674070       1.470201       0.792883
      12.290000       0.670002       1.506944       0.807119
      12.300000       0.665205       1.541771       0.820018
      12.310000       0.660111       1.573333       0.830728
      12.320000       0.655091       1.600400       0.838501
      12.330000       0.650431       1.622028       0.842766
      12.340000       0.646329       1.637669       0.843188
      12.350000       0.642902       1.647185       0.839723
      12.360000       0.640191       1.650822       0.832648
      12.370000       0.638169       1.649136       0.822543
      12.380000       0.636739       1.642913       0.810226
      12.390000       0.635737       1.633048       0.796622
      12.400000       0.634946       1.620407       0.782622
      12.410000       0.634134       1.605732       0.768973
      12.420000       0.633096       1.589616       0.756224
      12.430000       0.631701       1.572541       0.744749
      12.440000       0.629916       1.554929       0.734803
      12.450000       0.627800       1.537152       0.726576
      12.460000       0.625489       1.519503       0.720220
      12.470000       0.623169       1.502184       0.715838
      12.480000       0.621055       1.485357       0.713447
      12.490000       0.619377       1.469245       0.712940
      12.500000       0.618366       1.454223       0.714052
      12.510000       0.618228       1.440831       0.716356
      12.520000       0.619109       1.429666       0.719290
      12.530000       0.621044       1.421193       0.722221
      12.540000       0.623918       1.415539       0.724534
      12.550000       0.627433       1.412377       0.725733
      12.560000       0.631117       1.410956       0.725538
      12.570000       0.634384       1.410284       0.723937
      12.580000       0.636610       1.409419       0.721185
      12.590000       0.637249       1.407728       0.717745
      12.600000       0.635918       1.405024       0.714169
      12.610000       0.632460       1.401513       0.710975
      12.620000       0.626947       1.397598       0.708525
      12.630000       0.619638       1.393643       0.706955
      12.640000       0.610910       1.389793       0.706151
      12.650000       0.601189       1.385929       0.705766
      12.660000       0.590895       1.381726       0.705298
      12.670000       0.580401       1.376771       0.704182
      12.680000       0.570006       1.370697       0.701911
      12.690000       0.559920       1.363282       0.698129
      12.700000       0.550268       1.354524       0.692690
      12.710000       0.541102       1.344646       0.685659
      12.720000       0.532436       1.334045       0.677256
      12.730000       0.524277       1.323175       0.667781
      12.740000       0.516660       1.312424       0.657543
      12.750000       0.509667       1.302033       0.646814
      12.760000       0.503434       1.292091       0.635828
      12.770000       0.498148       1.282597       0.624800
      12.780000       0.494019       1.273558       0.613954
      12.790000       0.491247       1.265073       0.603541
      12.800000       0.489982       1.257379       0.593833
      12.810000       0.490285       1.250809       0.585101
      12.820000       0.492107       1.245696       0.577589
      12.830000       0.495284       1.242237       0.571495
      12.840000       0.499551       1.240384       0.566957
      12.850000       0.504579       1.239790       0.564052
      12.860000       0.510005       1.239833       0.562806
      12.870000       0.515479       1.239738       0.563202
      12.880000       0.520703       1.238765       0.565202
      12.890000       0.525458       1.236416       0.568768
      12.900000       0.529628       1.232574       0.573870
      12.910000       0.533197       1.227529       0.580495
      12.920000       0.536242       1.221870       0.588644
      12.930000       0.538912       1.216340       0.598331
      12.940000       0.541408       1.211681       0.609585
      12.950000       0.543948       1.208540       0.622460
      12.960000       0.546744       1.207426       0.637040
      12.970000       0.549960       1.208694       0.653448
      12.980000       0.553678       1.212545       0.671832
      12.990000       0.557873       1.219024       0.692359
      13.000000       0.562412       1.227996       0.715195
      13.010000       0.567066       1.239108       0.740490
      13.020000       0.571550       1.251758       0.768355
      13.030000       0.575578       1.265116       0.798825
      13.040000       0.578905       1.278210       0.831810
      13.050000       0.581363       1.290074       0.867027
      13.060000       0.582869       1.299931       0.903956
      13.070000       0.583415       1.307340       0.941813
      13.080000       0.583053       1.312257       0.979575
      13.090000       0.581867       1.314964       1.016055
      13.100000       0.579961       1.315888       1.049986
      13.110000       0.577437       1.315391       1.080108
      13.120000       0.574397       1.313618       1.105221
      13.130000       0.570951       1.310451       1.124237
      13.140000       0.567228       1.305559       1.136231
      13.150000       0.563385       1.298517       1.140529
      13.160000       0.559590       1.288926       1.136807
      13.170000       0.555992       1.276537       1.125177
      13.180000       0.552692       1.261340       1.106212
      13.190000       0.549717       1.243595       1.080897
      13.200000       0.547036       1.223810       1.050526
      13.210000       0.544584       1.202657       1.016567
      13.220000       0.542308       1.180867       0.980529
      13.230000       0.540207       1.159154       0.943838
      13.240000       0.538347       1.138184       0.907759
      13.250000       0.536866       1.118586       0.873337
      13.260000       0.535938       1.100978       0.841384
      13.270000       0.535735       1.085940       0.812494
      13.280000       0.536374       1.073936       0.787068
      13.290000       0.537878       1.065192       0.765348
      13.300000       0.540154       1.059582       0.747448
      13.310000       0.543008       1.056595       0.733390
      13.320000       0.546175       1.055383       0.723133
      13.330000       0.549371       1.054899       0.716600
      13.340000       0.552336       1.054071       0.713699
      13.350000       0.554866       1.051983       0.714319
      13.360000       0.556818       1.047996       0.718314
      13.370000       0.558112       1.041807       0.725471
      13.380000       0.558727       1.033419       0.735482
      13.390000       0.558701       1.023061       0.747930
      13.400000       0.558149       1.011096       0.762308
      13.410000       0.557268       0.997943       0.778080
      13.420000       0.556338       0.984030       0.794756
      13.430000       0.555695       0.969756       0.811973
      13.440000       0.555694       0.955465       0.829531
      13.450000       0.556650       0.941425       0.847386
      13.460000       0.558790       0.927837       0.865602
      13.470000       0.562225       0.914865       0.884270
      13.480000       0.566935       0.902682       0.903434
      13.490000       0.572780       0.891485       0.923015
      13.500000       0.579519       0.881491       0.942744
      13.510000       0.586832       0.872894       0.962109
      13.520000       0.594342       0.865817       0.980338
      13.530000       0.601647       0.860287       0.996440
      13.540000       0.608345       0.856238       1.009329
      13.550000       0.614066       0.853541       1.018033
      13.560000       0.618485       0.852042       1.021923
      13.570000       0.621326       0.851596       1.020894
      13.580000       0.622364       0.852102       1.015414
      13.590000       0.621431       0.853549       1.006426
      13.600000       0.618427       0.856081       0.995141
      13.610000       0.613348       0.860042       0.982822
      13.620000       0.606305       0.865986       0.970607
      13.630000       0.597548       0.874616       0.959413
      13.640000       0.587458       0.886667       0.949903
      13.650000       0.576524       0.902765       0.942501
      13.660000       0.565272       0.923287       0.937417
      13.670000       0.554196       0.948255       0.934671
      13.680000       0.543681       0.977261       0.934096
      13.690000       0.533971       1.009440       0.935331
      13.700000       0.525156       1.043500       0.937810
      13.710000       0.517212       1.077812       0.940788
      13.720000       0.510037       1.110563       0.943410
      13.730000       0.503506       1.139986       0.944839
      13.740000       0.497489       1.164615       0.944419
      13.750000       0.491870       1.183512       0.941820
      13.760000       0.486541       1.196396       0.937120
      13.770000       0.481403       1.203598       0.930796
      13.780000       0.476359       1.205870       0.923630
      13.790000       0.471319       1.204089       0.916551
      13.800000       0.466199       1.198994       0.910481
      13.810000       0.460924       1.191033       0.906204
      13.820000       0.455450       1.180366       0.904283
      13.830000       0.449775       1.166983       0.905025
      13.840000       0.443958       1.150880       0.908475
      13.850000       0.438110       1.132187       0.914440
      13.860000       0.432364       1.111195       0.922535
      13.870000       0.426829       1.088282       0.932246
      13.880000       0.421547       1.063797       0.943018
      13.890000       0.416475       1.037965       0.954335
      13.900000       0.411490       1.010880       0.965787
      13.910000       0.406416       0.982565       0.977092
      13.920000       0.401074       0.953084       0.988082
      13.930000       0.395315       0.922653       0.998662
      13.940000       0.389045       0.891693       1.008779
      13.950000       0.382234       0.860818       1.018410
      13.960000       0.374898       0.830766       1.027589
      13.970000       0.367100       0.802303       1.036458
      13.980000       0.358936       0.776131       1.045288
      13.990000       0.350541       0.752818       1.054476
      14.000000       0.342087       0.732755       1.064491
      14.010000       0.333778       0.716141       1.075789
      14.020000       0.325827       0.702992       1.088709
      14.030000       0.318436       0.693171       1.103377
      14.040000       0.311764       0.686412       1.119629
      14.050000       0.305905       0.682333       1.136968
      14.060000       0.300881       0.680455       1.154565
      14.070000       0.296654       0.680230       1.171315
      14.080000       0.293145       0.681093       1.185956
      14.090000       0.290269       0.682542       1.197229
      14.100000       0.287954       0.684228       1.204078
      14.110000       0.286156       0.686015       1.205828
      14.120000       0.284858       0.688005       1.202280
      14.130000       0.284053       0.690492       1.193696
      14.140000       0.283736       0.693878       1.180687
      14.150000       0.283890       0.698562       1.164050
      14.160000       0.284485       0.704836       1.144630
      14.170000       0.285485       0.712799       1.123231
      14.180000       0.286855       0.722310       1.100584
      14.190000       0.288572       0.732985       1.077343
      14.200000       0.290622       0.744222       1.054081
      14.210000       0.292997       0.755266       1.031290
      14.220000       0.295671       0.765288       1.009366
      14.230000       0.298594       0.773475       0.988594
      14.240000       0.301675       0.779121       0.969149
      14.250000       0.304785       0.781719       0.951106
      14.260000       0.307770       0.781030       0.934465
      14.270000       0.310476       0.777118       0.919184
      14.280000       0.312779       0.770323       0.905205
      14.290000       0.314609       0.761187       0.892477
      14.300000       0.315968       0.750328       0.880946
      14.310000       0.316910       0.738335       0.870544
      14.320000       0.317518       0.725677       0.861161
      14.330000       0.317864       0.712678       0.852634
      14.340000       0.317978       0.699524       0.844758
      14.350000       0.317844       0.686304       0.837314
      14.360000       0.317412       0.673044       0.830126
      14.370000       0.316624       0.659745       0.823099
      14.380000       0.315441       0.646411       0.816233
      14.390000       0.313862       0.633074       0.809602
      14.400000       0.311920       0.619814       0.803300
      14.410000       0.309675       0.606771       0.797379
      14.420000       0.307203       0.594128       0.791799
      14.430000       0.304592       0.582089       0.786405
      14.440000       0.301940       0.570858       0.780944
      14.450000       0.299357       0.560636       0.775106
      14.460000       0.296960       0.551635       0.768589
      14.470000       0.294855       0.544096       0.761153
      14.480000       0.293122       0.538303       0.752656
      14.490000       0.291800       0.534574       0.743073
      14.500000       0.290885       0.533243       0.732486
      14.510000       0.290340       0.534635       0.721056
      14.520000       0.290114       0.539038       0.708996
      14.530000       0.290156       0.546687       0.696553
      14.540000       0.290426       0.557742       0.683989
      14.550000       0.290895       0.572267       0.671580
      14.560000       0.291543       0.590213       0.659610
      14.570000       0.292356       0.611389       0.648361
      14.580000       0.293325       0.635451       0.638096
      14.590000       0.294442       0.661901       0.629051
      14.600000       0.295707       0.690106       0.621426
      14.610000       0.297129       0.719322       0.615396
      14.620000       0.298742       0.748708       0.611113
      14.630000       0.300597       0.777322       0.608697
      14.640000       0.302747       0.804107       0.608225
      14.650000       0.305231       0.827934       0.609699
      14.660000       0.308047       0.847707       0.613021
      14.670000       0.311158       0.862565       0.617956
      14.680000       0.314492       0.872089       0.624107
      14.690000       0.317959       0.876424       0.630890
      14.700000       0.321447       0.876244       0.637549
      14.710000       0.324832       0.872550       0.643204
      14.720000       0.327973       0.866407       0.646962
      14.730000       0.330724       0.858715       0.648064
      14.740000       0.332951       0.850095       0.646029
      14.750000       0.334528       0.840895       0.640753
      14.760000       0.335344       0.831259       0.632512
      14.770000       0.335292       0.821213       0.621889
      14.780000       0.334259       0.810724       0.609627
      14.790000       0.332134       0.799730       0.596490
      14.800000       0.328820       0.788146       0.583147
      14.810000       0.324253       0.775865       0.570115
      14.820000       0.318435       0.762783       0.557743
      14.830000       0.311456       0.748844       0.546223
      14.840000       0.303503       0.734108       0.535601
      14.850000       0.294854       0.718799       0.525795
      14.860000       0.285836       0.703324       0.516618
      14.870000       0.276781       0.688239       0.507817
      14.880000       0.267983       0.674183       0.499126
      14.890000       0.259668       0.661787       0.490316
      14.900000       0.251984       0.651579       0.481247
      14.910000       0.244999       0.643920       0.471891
      14.920000       0.238716       0.638959       0.462321
      14.930000       0.233074       0.636622       0.452692
      14.940000       0.227966       0.636637       0.443192
      14.950000       0.223263       0.638582       0.433999
      14.960000       0.218835       0.641952       0.425250
      14.970000       0.214578       0.646241       0.417023
      14.980000       0.210436       0.651022       0.409339
      14.990000       0.206405       0.656008       0.402179
      15.000000       0.202531       0.661065       0.395515
      15.010000       0.198896       0.666187       0.389324
      15.020000       0.195598       0.671429       0.383600
      15.030000       0.192738       0.676840       0.378355
      15.040000       0.190396       0.682407       0.373604
      15.050000       0.188622       0.688039       0.369358
      15.060000       0.187427       0.693601       0.365611
      15.070000       0.186776       0.698966       0.362336
      15.080000       0.186590       0.704079       0.359484
      15.090000       0.186750       0.708978       0.356991
      15.100000       0.187106       0.713790       0.354795
      15.110000       0.187495       0.718676       0.352855
      15.120000       0.187763       0.723785       0.351169
      15.130000       0.187789       0.729199       0.349779
      15.140000       0.187500       0.734919       0.348766
      15.150000       0.186869       0.740852       0.348227
      15.160000       0.185915       0.746838       0.348252
      15.170000       0.184683       0.752681       0.348905
      15.180000       0.183227       0.758197       0.350214
      15.190000       0.181605       0.763253       0.352175
      15.200000       0.179870       0.767788       0.354759
      15.210000       0.178069       0.771813       0.357924
      15.220000       0.176250       0.775405       0.361622
      15.230000       0.174461       0.778695       0.365811
      15.240000       0.172750       0.781858       0.370466
      15.250000       0.171168       0.785109       0.375591
      15.260000       0.169768       0.788696       0.381235
      15.270000       0.168603       0.792886       0.387494
      15.280000       0.167727       0.797933       0.394506
      15.290000       0.167184       0.804013       0.402426
      15.300000       0.167001       0.811164       0.411388
      15.310000       0.167176       0.819257       0.421468
      15.320000       0.167679       0.828013       0.432651
      15.330000       0.168451       0.837074       0.444804
      15.340000       0.169416       0.846087       0.457664
      15.350000       0.170494       0.854757       0.470832
      15.360000       0.171616       0.862849       0.483780
      15.370000       0.172730       0.870158       0.495877
      15.380000       0.173812       0.876471       0.506424
      15.390000       0.174855       0.881566       0.514726
      15.400000       0.175867       0.885264       0.520167
      15.410000       0.176852       0.887499       0.522307
      15.420000       0.177812       0.888391       0.520957
      15.430000       0.178733       0.888264       0.516227
      15.440000       0.179588       0.887603       0.508523
      15.450000       0.180338       0.886957       0.498485
      15.460000       0.180938       0.886834       0.486885
      15.470000       0.181343       0.887627       0.474506
      15.480000       0.181522       0.889583       0.462033
      15.490000       0.181466       0.892808       0.449999
      15.500000       0.181189       0.897266       0.438765
      15.510000       0.180726       0.902748       0.428544
      15.520000       0.180119       0.908804       0.419443
      15.530000       0.179409       0.914687       0.411496
      15.540000       0.178632       0.919367       0.404692
      15.550000       0.177818       0.921667       0.398989
      15.560000       0.177007       0.920503       0.394324
      15.570000       0.176249       0.915155       0.390616
      15.580000       0.175607       0.905472       0.387772
      15.590000       0.175148       0.891919       0.385686
      15.600000       0.174943       0.875449       0.384244
      15.610000       0.175053       0.857276       0.383318
      15.620000       0.175535       0.838633       0.382771
      15.630000       0.176434       0.820572       0.382450
      15.640000       0.177775       0.803845       0.382192
      15.650000       0.179555       0.788862       0.381826
      15.660000       0.181727       0.775710       0.381183
      15.670000       0.184205       0.764232       0.380111
      15.680000       0.186867       0.754138       0.378496
      15.690000       0.189580       0.745127       0.376278
      15.700000       0.192222       0.736974       0.373458
      15.710000       0.194706       0.729564       0.370091
      15.720000       0.196983       0.722883       0.366275
      15.730000       0.199043       0.716972       0.362133
      15.740000       0.200897       0.711881       0.357792
      15.750000       0.202565       0.707632       0.353375
      15.760000       0.204070       0.704201       0.348984
      15.770000       0.205437       0.701523       0.344702
      15.780000       0.206703       0.699507       0.340589
      15.790000       0.207913       0.698063       0.336692
      15.800000       0.209118       0.697114       0.333051
      15.810000       0.210356       0.696602       0.329708
      15.820000       0.211639       0.696480       0.326702
      15.830000       0.212948       0.696713       0.324070
      15.840000       0.214241       0.697276       0.321839
      15.850000       0.215464       0.698155       0.320022
      15.860000       0.216571       0.699343       0.318617
      15.870000       0.217525       0.700822       0.317610
      15.880000       0.218301       0.702566       0.316981
      15.890000       0.218886       0.704547       0.316711
      15.900000       0.219280       0.706762       0.316789
      15.910000       0.219500       0.709255       0.317216
      15.920000       0.219577       0.712110       0.317995
      15.930000       0.219544       0.715414       0.319129
      15.940000       0.219413       0.719179       0.320610
      15.950000       0.219162       0.723279       0.322415
      15.960000       0.218726       0.727409       0.324511
      15.970000       0.218009       0.731117       0.326858
      15.980000       0.216896       0.733908       0.329415
      15.990000       0.215286       0.735374       0.332141
      16.000000       0.213113       0.735322       0.334997
      16.010000       0.210365       0.733839       0.337948
      16.020000       0.207103       0.731272       0.340968
      16.030000       0.203447       0.728149       0.344035
      16.040000       0.199561       0.725061       0.347134
      16.050000       0.195621       0.722542       0.350238
      16.060000       0.191778       0.720973       0.353297
      16.070000       0.188134       0.720525       0.356228
      16.080000       0.184737       0.721152       0.358905
      16.090000       0.181587       0.722640       0.361162
      16.100000       0.178663       0.724698       0.362797
      16.110000       0.175938       0.727045       0.363583
      16.120000       0.173389       0.729479       0.363288
      16.130000       0.171000       0.731883       0.361701
      16.140000       0.168753       0.734185       0.358669
      16.150000       0.166628       0.736309       0.354131
      16.160000       0.164604       0.738141       0.348149
      16.170000       0.162661       0.739536       0.340913
      16.180000       0.160787       0.740369       0.332714
      16.190000       0.158974       0.740608       0.323903
      16.200000       0.157220       0.740373       0.314835
      16.210000       0.155528       0.739943       0.305825
      16.220000       0.153908       0.739698       0.297115
      16.230000       0.152378       0.740014       0.288872
      16.240000       0.150966       0.741154       0.281191
      16.250000       0.149709       0.743200       0.274113
      16.260000       0.148650       0.746055       0.267637
      16.270000       0.147836       0.749497       0.261742
      16.280000       0.147311       0.753253       0.256400
      16.290000       0.147108       0.757053       0.251581
      16.300000       0.147243       0.760626       0.247263
      16.310000       0.147716       0.763682       0.243425
      16.320000       0.148509       0.765895       0.240039
      16.330000       0.149593       0.766928       0.237071
      16.340000       0.150936       0.766505       0.234469
      16.350000       0.152502       0.764493       0.232165
      16.360000       0.154254       0.760943       0.230085
      16.370000       0.156159       0.756074       0.228155
      16.380000       0.158181       0.750204       0.226312
      16.390000       0.160286       0.743657       0.224521
      16.400000       0.162429       0.736704       0.222772
      16.410000       0.164549       0.729527       0.221080
      16.420000       0.166558       0.722227       0.219475
      16.430000       0.168342       0.714852       0.217985
      16.440000       0.169767       0.707423       0.216626
      16.450000       0.170703       0.699969       0.215401
      16.460000       0.171049       0.692552       0.214306
      16.470000       0.170760       0.685300       0.213339
      16.480000       0.169869       0.678417       0.212505
      16.490000       0.168478       0.672169       0.211819
      16.500000       0.166740       0.666835       0.211297
      16.510000       0.164827       0.662638       0.210942
      16.520000       0.162895       0.659678       0.210738
      16.530000       0.161066       0.657900       0.210651
      16.540000       0.159417       0.657098       0.210630
      16.550000       0.157981       0.656976       0.210625
      16.560000       0.156762       0.657220       0.210601
      16.570000       0.155748       0.657581       0.210549
      16.580000       0.154923       0.657915       0.210488
      16.590000       0.154271       0.658174       0.210464
      16.600000       0.153784       0.658366       0.210538
      16.610000       0.153453       0.658505       0.210776
      16.620000       0.153267       0.658570       0.211240
      16.630000       0.153210       0.658493       0.211983
      16.640000       0.153258       0.658178       0.213046
      16.650000       0.153383       0.657528       0.214456
      16.660000       0.153556       0.656489       0.216229
      16.670000       0.153753       0.655077       0.218362
      16.680000       0.153958       0.653379       0.220834
      16.690000       0.154162       0.651520       0.223606
      16.700000       0.154351       0.649607       0.226615
      16.710000       0.154504       0.647687       0.229787
      16.720000       0.154588       0.645725       0.233038
      16.730000       0.154560       0.643625       0.236286
      16.740000       0.154386       0.641278       0.239460
      16.750000       0.154049       0.638607       0.242503
      16.760000       0.153558       0.635598       0.245373
      16.770000       0.152951       0.632316       0.248036
      16.780000       0.152293       0.628897       0.250453
      16.790000       0.151658       0.625514       0.252572
      16.800000       0.151120       0.622330       0.254327
      16.810000       0.150736       0.619443       0.255636
      16.820000       0.150533       0.616844       0.256408
      16.830000       0.150508       0.614414       0.256539
      16.840000       0.150631       0.611967       0.255919
      16.850000       0.150857       0.609332       0.254441
      16.860000       0.151148       0.606430       0.252018
      16.870000       0.151479       0.603316       0.248608
      16.880000       0.151842       0.600182       0.244236
      16.890000       0.152241       0.597293       0.239010
      16.900000       0.152680       0.594911       0.233112
      16.910000       0.153149       0.593217       0.226775
      16.920000       0.153627       0.592264       0.220246
      16.930000       0.154080       0.591966       0.213752
      16.940000       0.154474       0.592127       0.207470
      16.950000       0.154786       0.592484       0.201525
      16.960000       0.155008       0.592764       0.195990
      16.970000       0.155148       0.592727       0.190899
      16.980000       0.155228       0.592190       0.186260
      16.990000       0.155274       0.591051       0.182059
      17.000000       0.155314       0.589276       0.178270
      17.010000       0.155372       0.586891       0.174853
      17.020000       0.155464       0.583955       0.171763
      17.030000       0.155587       0.580537       0.168956
      17.040000       0.155718       0.576691       0.166395
      17.050000       0.155805       0.572463       0.164056
      17.060000       0.155777       0.567902       0.161931
      17.070000       0.155551       0.563092       0.160028
      17.080000       0.155046       0.558172       0.158367
      17.090000       0.154198       0.553335       0.156971
      17.100000       0.152981       0.548815       0.155871
      17.110000       0.151416       0.544852       0.155093
      17.120000       0.149578       0.541653       0.154664
      17.130000       0.147588       0.539352       0.154604
      17.140000       0.145584       0.537972       0.154925
      17.150000       0.143694       0.537399       0.155635
      17.160000       0.142010       0.537380       0.156732
      17.170000       0.140573       0.537556       0.158205
      17.180000       0.139379       0.537538       0.160038
      17.190000       0.138391       0.536994       0.162208
      17.200000       0.137559       0.535730       0.164681
      17.210000       0.136833       0.533708       0.167415
      17.220000       0.136174       0.531031       0.170352
      17.230000       0.135551       0.527876       0.173419
      17.240000       0.134934       0.524436       0.176530
      17.250000       0.134295       0.520879       0.179601
      17.260000       0.133597       0.517325       0.182564
      17.270000       0.132804       0.513837       0.185383
      17.280000       0.131880       0.510415       0.188061
      17.290000       0.130800       0.506986       0.190629
      17.300000       0.129557       0.503409       0.193135
      17.310000       0.128163       0.499492       0.195625
      17.320000       0.126644       0.495024       0.198132
      17.330000       0.125036       0.489822       0.200680
      17.340000       0.123378       0.483776       0.203286
      17.350000       0.121713       0.476888       0.205968
      17.360000       0.120089       0.469293       0.208746
      17.370000       0.118562       0.461252       0.211652
      17.380000       0.117192       0.453124       0.214721
      17.390000       0.116040       0.445312       0.217997
      17.400000       0.115156       0.438191       0.221527
      17.410000       0.114575       0.432056       0.225360
      17.420000       0.114313       0.427074       0.229538
      17.430000       0.114365       0.423269       0.234083
      17.440000       0.114712       0.420540       0.238983
      17.450000       0.115328       0.418700       0.244189
      17.460000       0.116185       0.417537       0.249612
      17.470000       0.117258       0.416859       0.255131
      17.480000       0.118523       0.416525       0.260599
      17.490000       0.119946       0.416442       0.265849
      17.500000       0.121476       0.416549       0.270710
      17.510000       0.123043       0.416786       0.275016
      17.520000       0.124557       0.417085       0.278630
      17.530000       0.125923       0.417359       0.281460
      17.540000       0.127056       0.417508       0.283468
      17.550000       0.127899       0.417425       0.284670
      17.560000       0.128432       0.417008       0.285132
      17.570000       0.128669       0.416170       0.284958
      17.580000       0.128653       0.414857       0.284287
      17.590000       0.128432       0.413057       0.283281
      17.600000       0.128046       0.410801       0.282110
      17.610000       0.127521       0.408160       0.280941
      17.620000       0.126867       0.405233       0.279923
      17.630000       0.126086       0.402130       0.279178
      17.640000       0.125186       0.398956       0.278801
      17.650000       0.124186       0.395797       0.278853
      17.660000       0.123118       0.392714       0.279363
      17.670000       0.122022       0.389740       0.280331
      17.680000       0.120937       0.386879       0.281740
      17.690000       0.119897       0.384120       0.283564
      17.700000       0.118929       0.381440       0.285777
      17.710000       0.118057       0.378813       0.288341
      17.720000       0.117306       0.376202       0.291198
      17.730000       0.116701       0.373554       0.294249
      17.740000       0.116266       0.370795       0.297350
      17.750000       0.116017       0.367843       0.300315
      17.760000       0.115960       0.364626       0.302936
      17.770000       0.116091       0.361085       0.305005
      17.780000       0.116397       0.357192       0.306352
      17.790000       0.116861       0.352945       0.306866
      17.800000       0.117469       0.348377       0.306515
      17.810000       0.118209       0.343569       0.305347
      17.820000       0.119070       0.338647       0.303474
      17.830000       0.120038       0.333779       0.301049
      17.840000       0.121087       0.329142       0.298247
      17.850000       0.122175       0.324892       0.295238
      17.860000       0.123236       0.321130       0.292177
      17.870000       0.124184       0.317888       0.289183
      17.880000       0.124916       0.315138       0.286342
      17.890000       0.125324       0.312820       0.283701
      17.900000       0.125316       0.310877       0.281282
      17.910000       0.124829       0.309280       0.279104
      17.920000       0.123848       0.308034       0.277188
      17.930000       0.122413       0.307156       0.275566
      17.940000       0.120611       0.306650       0.274268
      17.950000       0.118564       0.306466       0.273304
      17.960000       0.116404       0.306490       0.272662
      17.970000       0.114254       0.306545       0.272301
      17.980000       0.112214       0.306427       0.272167
      17.990000       0.110358       0.305956       0.272205
      18.000000       0.108733       0.305016       0.272374
      18.010000       0.107367       0.303590       0.272657
      18.020000       0.106272       0.301748       0.273055
      18.030000       0.105445       0.299616       0.273581
      18.040000       0.104872       0.297338       0.274242
      18.050000       0.104526       0.295044       0.275025
      18.060000       0.104373       0.292835       0.275876
      18.070000       0.104375       0.290785       0.276698
      18.080000       0.104498       0.288959       0.277351
      18.090000       0.104720       0.287412       0.277669
      18.100000       0.105032       0.286197       0.277479
      18.110000       0.105440       0.285340       0.276631
      18.120000       0.105951       0.284838       0.275027
      18.130000       0.106568       0.284642       0.272643
      18.140000       0.107278       0.284666       0.269548
      18.150000       0.108050       0.284801       0.265894
      18.160000       0.108839       0.284945       0.261901
      18.170000       0.109598       0.285019       0.257814
      18.180000       0.110291       0.284987       0.253870
      18.190000       0.110901       0.284854       0.250262
      18.200000       0.111439       0.284660       0.247127
      18.210000       0.111931       0.284447       0.244540
      18.220000       0.112414       0.284248       0.242521
      18.230000       0.112917       0.284061       0.241045
      18.240000       0.113459       0.283843       0.240050
      18.250000       0.114040       0.283521       0.239440
      18.260000       0.114642       0.282997       0.239088
      18.270000       0.115236       0.282178       0.238839
      18.280000       0.115782       0.280982       0.238520
      18.290000       0.116231       0.279359       0.237965
      18.300000       0.116533       0.277283       0.237033
      18.310000       0.116639       0.274755       0.235640
      18.320000       0.116509       0.271806       0.233773
      18.330000       0.116118       0.268492       0.231489
      18.340000       0.115462       0.264906       0.228899
      18.350000       0.114554       0.261172       0.226142
      18.360000       0.113427       0.257436       0.223366
      18.370000       0.112116       0.253853       0.220706
      18.380000       0.110657       0.250568       0.218275
      18.390000       0.109070       0.247698       0.216165
      18.400000       0.107361       0.245320       0.214439
      18.410000       0.105527       0.243465       0.213140
      18.420000       0.103560       0.242114       0.212284
      18.430000       0.101460       0.241203       0.211861
      18.440000       0.099239       0.240624       0.211839
      18.450000       0.096928       0.240240       0.212166
      18.460000       0.094570       0.239907       0.212779
      18.470000       0.092217       0.239494       0.213605
      18.480000       0.089925       0.238899       0.214570
      18.490000       0.087747       0.238067       0.215601
      18.500000       0.085732       0.236977       0.216618
      18.510000       0.083916       0.235642       0.217527
      18.520000       0.082325       0.234094       0.218222
      18.530000       0.080969       0.232360       0.218586
      18.540000       0.079840       0.230457       0.218505
      18.550000       0.078914       0.228384       0.217888
      18.560000       0.078157       0.226134       0.216692
      18.570000       0.077525       0.223710       0.214929
      18.580000       0.076978       0.221142       0.212663
      18.590000       0.076481       0.218504       0.210002
      18.600000       0.076017       0.215906       0.207069
      18.610000       0.075584       0.213493       0.203987
      18.620000       0.075197       0.211421       0.200867
      18.630000       0.074876       0.209834       0.197797
      18.640000       0.074644       0.208843       0.194846
      18.650000       0.074513       0.208510       0.192059
      18.660000       0.074482       0.208834       0.189461
      18.670000       0.074538       0.209760       0.187062
      18.680000       0.074660       0.211172       0.184862
      18.690000       0.074819       0.212903       0.182857
      18.700000       0.074986       0.214745       0.181042
      18.710000       0.075132       0.216465       0.179413
      18.720000       0.075233       0.217832       0.177964
      18.730000       0.075269       0.218661       0.176679
      18.740000       0.075232       0.218844       0.175536
      18.750000       0.075121       0.218369       0.174500
      18.760000       0.074939       0.217322       0.173530
      18.770000       0.074692       0.215850       0.172574
      18.780000       0.074384       0.214130       0.171580
      18.790000       0.074024       0.212325       0.170499
      18.800000       0.073622       0.210565       0.169299
      18.810000       0.073193       0.208935       0.167981
      18.820000       0.072754       0.207479       0.166584
      18.830000       0.072322       0.206205       0.165188
      18.840000       0.071907       0.205096       0.163903
      18.850000       0.071516       0.204116       0.162842
      18.860000       0.071151       0.203224       0.162105
      18.870000       0.070814       0.202380       0.161756
      18.880000       0.070510       0.201559       0.161815
      18.890000       0.070248       0.200753       0.162257
      18.900000       0.070041       0.199990       0.163014
      18.910000       0.069902       0.199327       0.163990
      18.920000       0.069843       0.198851       0.165071
      18.930000       0.069869       0.198659       0.166141
      18.940000       0.069978       0.198837       0.167106
      18.950000       0.070166       0.199431       0.167906
      18.960000       0.070422       0.200427       0.168521
      18.970000       0.070741       0.201746       0.168969
      18.980000       0.071118       0.203246       0.169293
      18.990000       0.071554       0.204745       0.169546
      19.000000       0.072048       0.206050       0.169775
      19.010000       0.072596       0.206993       0.170013
      19.020000       0.073183       0.207454       0.170270
      19.030000       0.073783       0.207379       0.170538
      19.040000       0.074365       0.206783       0.170791
      19.050000       0.074895       0.205732       0.170986
      19.060000       0.075345       0.204331       0.171071
      19.070000       0.075694       0.202700       0.170984
      19.080000       0.075932       0.200964       0.170659
      19.090000       0.076051       0.199242       0.170032
      19.100000       0.076052       0.197636       0.169049
      19.110000       0.075941       0.196224       0.167678
      19.120000       0.075732       0.195052       0.165911
      19.130000       0.075438       0.194131       0.163774
      19.140000       0.075074       0.193437       0.161325
      19.150000       0.074650       0.192920       0.158646
      19.160000       0.074168       0.192521       0.155833
      19.170000       0.073630       0.192186       0.152988
      19.180000       0.073041       0.191889       0.150201
      19.190000       0.072415       0.191633       0.147552
      19.200000       0.071779       0.191446       0.145098
      19.210000       0.071167       0.191370       0.142878
      19.220000       0.070619       0.191431       0.140913
      19.230000       0.070164       0.191626       0.139209
      19.240000       0.069820       0.191909       0.137767
      19.250000       0.069584       0.192199       0.136582
      19.260000       0.069437       0.192389       0.135654
      19.270000       0.069348       0.192370       0.134988
      19.280000       0.069284       0.192054       0.134595
      19.290000       0.069218       0.191388       0.134492
      19.300000       0.069138       0.190365       0.134696
      19.310000       0.069043       0.189020       0.135222
      19.320000       0.068944       0.187416       0.136079
      19.330000       0.068853       0.185625       0.137264
      19.340000       0.068774       0.183710       0.138762
      19.350000       0.068706       0.181718       0.140551
      19.360000       0.068639       0.179683       0.142599
      19.370000       0.068559       0.177636       0.144865
      19.380000       0.068457       0.175619       0.147296
      19.390000       0.068329       0.173696       0.149829
      19.400000       0.068179       0.171958       0.152388
      19.410000       0.068023       0.170514       0.154889
      19.420000       0.067880       0.169481       0.157249
      19.430000       0.067774       0.168966       0.159396
      19.440000       0.067728       0.169050       0.161280
      19.450000       0.067757       0.169770       0.162876
      19.460000       0.067870       0.171113       0.164185
      19.470000       0.068060       0.173008       0.165222
      19.480000       0.068313       0.175328       0.166005
      19.490000       0.068603       0.177903       0.166542
      19.500000       0.068903       0.180534       0.166821
      19.510000       0.069192       0.183017       0.166819
      19.520000       0.069458       0.185170       0.166503
      19.530000       0.069706       0.186856       0.165850
      19.540000       0.069951       0.187993       0.164856
      19.550000       0.070218       0.188562       0.163548
      19.560000       0.070535       0.188602       0.161986
      19.570000       0.070921       0.188202       0.160259
      19.580000       0.071388       0.187485       0.158472
      19.590000       0.071934       0.186590       0.156730
      19.600000       0.072549       0.185652       0.155124
      19.610000       0.073219       0.184789       0.153722
      19.620000       0.073934       0.184093       0.152558
      19.630000       0.074693       0.183624       0.151633
      19.640000       0.075508       0.183416       0.150919
      19.650000       0.076400       0.183468       0.150369
      19.660000       0.077395       0.183754       0.149925
      19.670000       0.078517       0.184216       0.149535
      19.680000       0.079781       0.184779       0.149159
      19.690000       0.081190       0.185359       0.148779
      19.700000       0.082737       0.185883       0.148406
      19.710000       0.084407       0.186302       0.148071
      19.720000       0.086182       0.186595       0.147835
      19.730000       0.088045       0.186764       0.147774
      19.740000       0.089979       0.186811       0.147978
      19.750000       0.091972       0.186730       0.148541
      19.760000       0.094010       0.186499       0.149554
      19.770000       0.096076       0.186080       0.151085
      19.780000       0.098150       0.185433       0.153174
      19.790000       0.100204       0.184522       0.155821
      19.800000       0.102205       0.183323       0.158971
      19.810000       0.104115       0.181822       0.162513
      19.820000       0.105891       0.180014       0.166270
      19.830000       0.107497       0.177908       0.170013
      19.840000       0.108900       0.175527       0.173468
      19.850000       0.110081       0.172908       0.176352
      19.860000       0.111033       0.170103       0.178418
      19.870000       0.111760       0.167176       0.179497
      19.880000       0.112279       0.164198       0.179539
      19.890000       0.112613       0.161253       0.178615
      19.900000       0.112790       0.158432       0.176902
      19.910000       0.112839       0.155825       0.174639
      19.920000       0.112787       0.153512       0.172082
      19.930000       0.112654       0.151553       0.169469
      19.940000       0.112459       0.149973       0.167001
      19.950000       0.112216       0.148763       0.164834
      19.960000       0.111941       0.147881       0.163074
      19.970000       0.111643       0.147264       0.161783
      19.980000       0.111331       0.146841       0.160978
      19.990000       0.111005       0.146553       0.160636
      20.000000       0.110660       0.146367       0.160709
