  # energy grid [eV]     epsi_x  epsi_y  epsi_z
       0.000000            NaN            NaN            NaN
       0.010000       0.000229       0.000036       0.000204
       0.020000       0.000457       0.000072       0.000408
       0.030000       0.000686       0.000108       0.000613
       0.040000       0.000915       0.000144       0.000819
       0.050000       0.001144       0.000179       0.001026
       0.060000       0.001373       0.000215       0.001234
       0.070000       0.001602       0.000251       0.001443
       0.080000       0.001832       0.000287       0.001655
       0.090000       0.002061       0.000323       0.001869
       0.100000       0.002291       0.000359       0.002085
       0.110000       0.002521       0.000395       0.002304
       0.120000       0.002752       0.000431       0.002527
       0.130000       0.002983       0.000467       0.002753
       0.140000       0.003214       0.000503       0.002983
       0.150000       0.003445       0.000539       0.003217
       0.160000       0.003677       0.000575       0.003457
       0.170000       0.003909       0.000611       0.003702
       0.180000       0.004142       0.000647       0.003953
       0.190000       0.004376       0.000683       0.004211
       0.200000       0.004609       0.000719       0.004477
       0.210000       0.004844       0.000755       0.004750
       0.220000       0.005079       0.000791       0.005032
       0.230000       0.005314       0.000828       0.005325
       0.240000       0.005551       0.000864       0.005628
       0.250000       0.005787       0.000900       0.005943
       0.260000       0.006025       0.000936       0.006272
       0.270000       0.006263       0.000972       0.006615
       0.280000       0.006502       0.001009       0.006975
       0.290000       0.006742       0.001045       0.007353
       0.300000       0.006983       0.001081       0.007751
       0.310000       0.007225       0.001118       0.008172
       0.320000       0.007467       0.001154       0.008618
       0.330000       0.007710       0.001190       0.009092
       0.340000       0.007955       0.001227       0.009597
       0.350000       0.008200       0.001263       0.010139
       0.360000       0.008446       0.001300       0.010720
       0.370000       0.008694       0.001336       0.011347
       0.380000       0.008942       0.001373       0.012025
       0.390000       0.009192       0.001410       0.012761
       0.400000       0.009443       0.001446       0.013563
       0.410000       0.009695       0.001483       0.014440
       0.420000       0.009948       0.001520       0.015403
       0.430000       0.010203       0.001556       0.016463
       0.440000       0.010459       0.001593       0.017633
       0.450000       0.010716       0.001630       0.018929
       0.460000       0.010975       0.001667       0.020368
       0.470000       0.011235       0.001704       0.021966
       0.480000       0.011497       0.001741       0.023742
       0.490000       0.011760       0.001778       0.025713
       0.500000       0.012025       0.001815       0.027893
       0.510000       0.012292       0.001852       0.030290
       0.520000       0.012560       0.001890       0.032899
       0.530000       0.012830       0.001927       0.035697
       0.540000       0.013101       0.001964       0.038634
       0.550000       0.013375       0.002001       0.041624
       0.560000       0.013650       0.002039       0.044542
       0.570000       0.013928       0.002076       0.047219
       0.580000       0.014207       0.002114       0.049464
       0.590000       0.014488       0.002152       0.051086
       0.600000       0.014771       0.002189       0.051934
       0.610000       0.015056       0.002227       0.051938
       0.620000       0.015343       0.002265       0.051123
       0.630000       0.015633       0.002303       0.049602
       0.640000       0.015925       0.002341       0.047553
       0.650000       0.016219       0.002379       0.045171
       0.660000       0.016515       0.002417       0.042639
       0.670000       0.016814       0.002455       0.040106
       0.680000       0.017116       0.002493       0.037676
       0.690000       0.017420       0.002531       0.035418
       0.700000       0.017727       0.002569       0.033368
       0.710000       0.018036       0.002608       0.031538
       0.720000       0.018349       0.002646       0.029928
       0.730000       0.018664       0.002685       0.028525
       0.740000       0.018983       0.002724       0.027315
       0.750000       0.019304       0.002762       0.026282
       0.760000       0.019629       0.002801       0.025406
       0.770000       0.019957       0.002840       0.024673
       0.780000       0.020288       0.002879       0.024066
       0.790000       0.020623       0.002918       0.023574
       0.800000       0.020961       0.002957       0.023183
       0.810000       0.021303       0.002996       0.022885
       0.820000       0.021649       0.003036       0.022670
       0.830000       0.021998       0.003075       0.022531
       0.840000       0.022351       0.003115       0.022463
       0.850000       0.022709       0.003154       0.022460
       0.860000       0.023070       0.003194       0.022519
       0.870000       0.023436       0.003234       0.022636
       0.880000       0.023806       0.003274       0.022810
       0.890000       0.024181       0.003314       0.023039
       0.900000       0.024560       0.003354       0.023322
       0.910000       0.024944       0.003394       0.023660
       0.920000       0.025333       0.003434       0.024054
       0.930000       0.025726       0.003475       0.024504
       0.940000       0.026125       0.003515       0.025013
       0.950000       0.026530       0.003556       0.025585
       0.960000       0.026940       0.003596       0.026223
       0.970000       0.027355       0.003637       0.026933
       0.980000       0.027776       0.003678       0.027720
       0.990000       0.028203       0.003719       0.028590
       1.000000       0.028637       0.003760       0.029554
       1.010000       0.029076       0.003802       0.030621
       1.020000       0.029523       0.003843       0.031802
       1.030000       0.029975       0.003885       0.033111
       1.040000       0.030435       0.003926       0.034563
       1.050000       0.030902       0.003968       0.036176
       1.060000       0.031377       0.004010       0.037971
       1.070000       0.031859       0.004052       0.039969
       1.080000       0.032349       0.004094       0.042194
       1.090000       0.032847       0.004137       0.044671
       1.100000       0.033353       0.004179       0.047425
       1.110000       0.033868       0.004222       0.050476
       1.120000       0.034392       0.004264       0.053836
       1.130000       0.034925       0.004307       0.057505
       1.140000       0.035468       0.004350       0.061458
       1.150000       0.036021       0.004393       0.065635
       1.160000       0.036584       0.004437       0.069934
       1.170000       0.037157       0.004480       0.074196
       1.180000       0.037742       0.004524       0.078208
       1.190000       0.038338       0.004567       0.081717
       1.200000       0.038945       0.004611       0.084461
       1.210000       0.039565       0.004655       0.086220
       1.220000       0.040198       0.004700       0.086863
       1.230000       0.040843       0.004744       0.086381
       1.240000       0.041503       0.004789       0.084894
       1.250000       0.042176       0.004833       0.082613
       1.260000       0.042864       0.004878       0.079799
       1.270000       0.043568       0.004923       0.076711
       1.280000       0.044287       0.004969       0.073570
       1.290000       0.045023       0.005014       0.070546
       1.300000       0.045776       0.005060       0.067751
       1.310000       0.046547       0.005105       0.065253
       1.320000       0.047337       0.005151       0.063084
       1.330000       0.048147       0.005198       0.061250
       1.340000       0.048976       0.005244       0.059744
       1.350000       0.049827       0.005291       0.058550
       1.360000       0.050700       0.005337       0.057646
       1.370000       0.051596       0.005384       0.057012
       1.380000       0.052517       0.005432       0.056628
       1.390000       0.053463       0.005479       0.056476
       1.400000       0.054435       0.005527       0.056540
       1.410000       0.055436       0.005574       0.056808
       1.420000       0.056465       0.005622       0.057269
       1.430000       0.057525       0.005671       0.057916
       1.440000       0.058617       0.005719       0.058744
       1.450000       0.059744       0.005768       0.059750
       1.460000       0.060905       0.005817       0.060935
       1.470000       0.062105       0.005866       0.062300
       1.480000       0.063343       0.005916       0.063850
       1.490000       0.064624       0.005966       0.065592
       1.500000       0.065948       0.006016       0.067535
       1.510000       0.067318       0.006066       0.069691
       1.520000       0.068738       0.006117       0.072074
       1.530000       0.070210       0.006168       0.074701
       1.540000       0.071737       0.006219       0.077595
       1.550000       0.073322       0.006270       0.080778
       1.560000       0.074970       0.006322       0.084279
       1.570000       0.076683       0.006374       0.088131
       1.580000       0.078467       0.006427       0.092373
       1.590000       0.080326       0.006479       0.097048
       1.600000       0.082265       0.006533       0.102206
       1.610000       0.084289       0.006586       0.107904
       1.620000       0.086405       0.006640       0.114207
       1.630000       0.088619       0.006694       0.121185
       1.640000       0.090938       0.006749       0.128917
       1.650000       0.093370       0.006804       0.137484
       1.660000       0.095924       0.006859       0.146973
       1.670000       0.098609       0.006915       0.157466
       1.680000       0.101436       0.006971       0.169034
       1.690000       0.104417       0.007028       0.181731
       1.700000       0.107564       0.007085       0.195581
       1.710000       0.110892       0.007143       0.210569
       1.720000       0.114417       0.007201       0.226633
       1.730000       0.118156       0.007259       0.243668
       1.740000       0.122129       0.007319       0.261524
       1.750000       0.126360       0.007379       0.280018
       1.760000       0.130872       0.007439       0.298924
       1.770000       0.135693       0.007500       0.317960
       1.780000       0.140857       0.007562       0.336771
       1.790000       0.146398       0.007624       0.354926
       1.800000       0.152357       0.007688       0.371941
       1.810000       0.158781       0.007752       0.387347
       1.820000       0.165723       0.007816       0.400778
       1.830000       0.173242       0.007882       0.412067
       1.840000       0.181408       0.007949       0.421311
       1.850000       0.190298       0.008017       0.428868
       1.860000       0.200003       0.008085       0.435278
       1.870000       0.210626       0.008155       0.441127
       1.880000       0.222285       0.008227       0.446904
       1.890000       0.235113       0.008299       0.452900
       1.900000       0.249263       0.008373       0.459186
       1.910000       0.264906       0.008449       0.465663
       1.920000       0.282234       0.008527       0.472152
       1.930000       0.301454       0.008606       0.478478
       1.940000       0.322789       0.008687       0.484508
       1.950000       0.346464       0.008771       0.490145
       1.960000       0.372692       0.008857       0.495288
       1.970000       0.401646       0.008947       0.499810
       1.980000       0.433417       0.009039       0.503562
       1.990000       0.467954       0.009135       0.506407
       2.000000       0.504992       0.009234       0.508254
       2.010000       0.543967       0.009339       0.509058
       2.020000       0.583946       0.009448       0.508783
       2.030000       0.623609       0.009562       0.507339
       2.040000       0.661332       0.009683       0.504555
       2.050000       0.695413       0.009811       0.500187
       2.060000       0.724414       0.009948       0.494000
       2.070000       0.747555       0.010093       0.485870
       2.080000       0.764983       0.010248       0.475885
       2.090000       0.777808       0.010415       0.464394
       2.100000       0.787875       0.010595       0.451969
       2.110000       0.797367       0.010788       0.439304
       2.120000       0.808398       0.010997       0.427072
       2.130000       0.822686       0.011220       0.415809
       2.140000       0.841347       0.011459       0.405851
       2.150000       0.864767       0.011711       0.397337
       2.160000       0.892523       0.011973       0.390266
       2.170000       0.923313       0.012239       0.384569
       2.180000       0.954953       0.012500       0.380178
       2.190000       0.984469       0.012744       0.377045
       2.200000       1.008402       0.012959       0.375132
       2.210000       1.023344       0.013132       0.374378
       2.220000       1.026635       0.013252       0.374674
       2.230000       1.016994       0.013316       0.375865
       2.240000       0.994843       0.013325       0.377759
       2.250000       0.962160       0.013287       0.380152
       2.260000       0.921939       0.013216       0.382827
       2.270000       0.877504       0.013125       0.385551
       2.280000       0.831927       0.013025       0.388071
       2.290000       0.787686       0.012927       0.390128
       2.300000       0.746553       0.012838       0.391483
       2.310000       0.709661       0.012763       0.391949
       2.320000       0.677629       0.012704       0.391406
       2.330000       0.650722       0.012662       0.389803
       2.340000       0.628979       0.012637       0.387133
       2.350000       0.612316       0.012629       0.383415
       2.360000       0.600598       0.012636       0.378679
       2.370000       0.593692       0.012658       0.372968
       2.380000       0.591489       0.012693       0.366359
       2.390000       0.593931       0.012743       0.358975
       2.400000       0.601008       0.012804       0.350983
       2.410000       0.612763       0.012879       0.342581
       2.420000       0.629284       0.012965       0.333973
       2.430000       0.650679       0.013063       0.325340
       2.440000       0.677049       0.013174       0.316830
       2.450000       0.708440       0.013297       0.308550
       2.460000       0.744774       0.013434       0.300586
       2.470000       0.785761       0.013585       0.293029
       2.480000       0.830799       0.013751       0.285988
       2.490000       0.878887       0.013933       0.279593
       2.500000       0.928578       0.014132       0.273973
       2.510000       0.978053       0.014351       0.269216
       2.520000       1.025328       0.014588       0.265346
       2.530000       1.068617       0.014847       0.262312
       2.540000       1.106735       0.015124       0.260009
       2.550000       1.139377       0.015421       0.258311
       2.560000       1.167132       0.015732       0.257112
       2.570000       1.191186       0.016051       0.256337
       2.580000       1.212864       0.016371       0.255941
       2.590000       1.233201       0.016680       0.255882
       2.600000       1.252720       0.016965       0.256093
       2.610000       1.271456       0.017215       0.256470
       2.620000       1.289142       0.017421       0.256878
       2.630000       1.305385       0.017580       0.257159
       2.640000       1.319691       0.017692       0.257148
       2.650000       1.331306       0.017764       0.256671
       2.660000       1.338984       0.017800       0.255556
       2.670000       1.340898       0.017809       0.253647
       2.680000       1.334845       0.017792       0.250835
       2.690000       1.318768       0.017753       0.247100
       2.700000       1.291431       0.017694       0.242528
       2.710000       1.252929       0.017618       0.237327
       2.720000       1.204806       0.017530       0.231802
       2.730000       1.149722       0.017437       0.226315
       2.740000       1.090853       0.017344       0.221234
       2.750000       1.031286       0.017258       0.216893
       2.760000       0.973603       0.017185       0.213565
       2.770000       0.919695       0.017127       0.211459
       2.780000       0.870783       0.017086       0.210721
       2.790000       0.827526       0.017064       0.211450
       2.800000       0.790183       0.017060       0.213700
       2.810000       0.758745       0.017073       0.217491
       2.820000       0.733057       0.017103       0.222798
       2.830000       0.712899       0.017149       0.229548
       2.840000       0.698040       0.017209       0.237596
       2.850000       0.688274       0.017284       0.246713
       2.860000       0.683445       0.017372       0.256573
       2.870000       0.683455       0.017473       0.266758
       2.880000       0.688266       0.017587       0.276784
       2.890000       0.697902       0.017713       0.286151
       2.900000       0.712436       0.017851       0.294395
       2.910000       0.731974       0.018003       0.301145
       2.920000       0.756627       0.018167       0.306151
       2.930000       0.786469       0.018346       0.309286
       2.940000       0.821479       0.018539       0.310533
       2.950000       0.861458       0.018747       0.309958
       2.960000       0.905945       0.018973       0.307698
       2.970000       0.954123       0.019217       0.303953
       2.980000       1.004782       0.019482       0.298985
       2.990000       1.056361       0.019768       0.293106
       3.000000       1.107131       0.020078       0.286659
       3.010000       1.155513       0.020412       0.279982
       3.020000       1.200455       0.020773       0.273368
       3.030000       1.241708       0.021159       0.267044
       3.040000       1.279855       0.021569       0.261163
       3.050000       1.316041       0.021998       0.255816
       3.060000       1.351488       0.022440       0.251053
       3.070000       1.386999       0.022881       0.246903
       3.080000       1.422630       0.023308       0.243377
       3.090000       1.457619       0.023703       0.240464
       3.100000       1.490581       0.024048       0.238120
       3.110000       1.519848       0.024329       0.236260
       3.120000       1.543797       0.024538       0.234769
       3.130000       1.561008       0.024676       0.233508
       3.140000       1.570226       0.024751       0.232331
       3.150000       1.570219       0.024775       0.231088
       3.160000       1.559746       0.024761       0.229631
       3.170000       1.537760       0.024724       0.227832
       3.180000       1.503823       0.024674       0.225601
       3.190000       1.458536       0.024621       0.222914
       3.200000       1.403705       0.024573       0.219834
       3.210000       1.342137       0.024536       0.216512
       3.220000       1.277141       0.024517       0.213175
       3.230000       1.211961       0.024519       0.210091
       3.240000       1.149353       0.024545       0.207538
       3.250000       1.091379       0.024598       0.205770
       3.260000       1.039398       0.024678       0.205000
       3.270000       0.994178       0.024785       0.205398
       3.280000       0.956051       0.024920       0.207091
       3.290000       0.925059       0.025082       0.210171
       3.300000       0.901079       0.025270       0.214699
       3.310000       0.883905       0.025484       0.220705
       3.320000       0.873301       0.025725       0.228180
       3.330000       0.869029       0.025993       0.237059
       3.340000       0.870852       0.026288       0.247203
       3.350000       0.878517       0.026611       0.258382
       3.360000       0.891729       0.026965       0.270255
       3.370000       0.910122       0.027350       0.282378
       3.380000       0.933231       0.027770       0.294228
       3.390000       0.960490       0.028228       0.305255
       3.400000       0.991269       0.028726       0.314949
       3.410000       1.024937       0.029270       0.322894
       3.420000       1.060935       0.029864       0.328814
       3.430000       1.098807       0.030512       0.332577
       3.440000       1.138154       0.031222       0.334184
       3.450000       1.178510       0.031998       0.333739
       3.460000       1.219232       0.032847       0.331425
       3.470000       1.259479       0.033772       0.327476
       3.480000       1.298368       0.034775       0.322168
       3.490000       1.335282       0.035856       0.315798
       3.500000       1.370206       0.037005       0.308675
       3.510000       1.403918       0.038206       0.301098
       3.520000       1.437920       0.039431       0.293341
       3.530000       1.474107       0.040641       0.285634
       3.540000       1.514310       0.041784       0.278163
       3.550000       1.559843       0.042805       0.271066
       3.560000       1.611186       0.043651       0.264442
       3.570000       1.667835       0.044286       0.258370
       3.580000       1.728323       0.044697       0.252924
       3.590000       1.790380       0.044898       0.248180
       3.600000       1.851183       0.044925       0.244218
       3.610000       1.907592       0.044829       0.241107
       3.620000       1.956327       0.044660       0.238892
       3.630000       1.994113       0.044462       0.237580
       3.640000       2.017898       0.044267       0.237144
       3.650000       2.025251       0.044097       0.237538
       3.660000       2.014869       0.043964       0.238713
       3.670000       1.986981       0.043877       0.240638
       3.680000       1.943442       0.043840       0.243301
       3.690000       1.887467       0.043862       0.246706
       3.700000       1.823122       0.043951       0.250858
       3.710000       1.754746       0.044116       0.255752
       3.720000       1.686441       0.044366       0.261377
       3.730000       1.621686       0.044710       0.267711
       3.740000       1.563104       0.045153       0.274735
       3.750000       1.512375       0.045698       0.282426
       3.760000       1.470257       0.046347       0.290756
       3.770000       1.436695       0.047097       0.299697
       3.780000       1.410990       0.047946       0.309217
       3.790000       1.392014       0.048886       0.319279
       3.800000       1.378491       0.049916       0.329830
       3.810000       1.369306       0.051035       0.340776
       3.820000       1.363780       0.052246       0.351948
       3.830000       1.361823       0.053563       0.363078
       3.840000       1.363908       0.055002       0.373797
       3.850000       1.370864       0.056584       0.383663
       3.860000       1.383574       0.058328       0.392226
       3.870000       1.402668       0.060250       0.399091
       3.880000       1.428262       0.062355       0.403972
       3.890000       1.459781       0.064630       0.406722
       3.900000       1.495877       0.067044       0.407324
       3.910000       1.534478       0.069539       0.405873
       3.920000       1.573007       0.072029       0.402542
       3.930000       1.608798       0.074401       0.397554
       3.940000       1.639644       0.076527       0.391155
       3.950000       1.664328       0.078282       0.383598
       3.960000       1.682928       0.079570       0.375136
       3.970000       1.696790       0.080351       0.366009
       3.980000       1.708181       0.080647       0.356448
       3.990000       1.719798       0.080547       0.346670
       4.000000       1.734293       0.080178       0.336886
       4.010000       1.753892       0.079681       0.327292
       4.020000       1.780108       0.079193       0.318081
       4.030000       1.813508       0.078822       0.309436
       4.040000       1.853532       0.078652       0.301535
       4.050000       1.898396       0.078739       0.294547
       4.060000       1.945160       0.079119       0.288627
       4.070000       1.990022       0.079812       0.283914
       4.080000       2.028858       0.080828       0.280522
       4.090000       2.057967       0.082172       0.278535
       4.100000       2.074815       0.083843       0.278006
       4.110000       2.078575       0.085840       0.278954
       4.120000       2.070252       0.088155       0.281369
       4.130000       2.052346       0.090778       0.285221
       4.140000       2.028191       0.093695       0.290471
       4.150000       2.001231       0.096892       0.297093
       4.160000       1.974481       0.100358       0.305088
       4.170000       1.950276       0.104095       0.314499
       4.180000       1.930242       0.108112       0.325403
       4.190000       1.915353       0.112430       0.337895
       4.200000       1.905966       0.117062       0.352043
       4.210000       1.901822       0.122007       0.367842
       4.220000       1.902093       0.127227       0.385168
       4.230000       1.905519       0.132643       0.403741
       4.240000       1.910672       0.138121       0.423115
       4.250000       1.916252       0.143475       0.442699
       4.260000       1.921337       0.148473       0.461817
       4.270000       1.925513       0.152857       0.479788
       4.280000       1.928840       0.156382       0.496017
       4.290000       1.931723       0.158869       0.510054
       4.300000       1.934714       0.160259       0.521623
       4.310000       1.938303       0.160634       0.530607
       4.320000       1.942719       0.160211       0.537021
       4.330000       1.947793       0.159299       0.540974
       4.340000       1.952934       0.158234       0.542640
       4.350000       1.957304       0.157330       0.542234
       4.360000       1.960160       0.156842       0.539998
       4.370000       1.961264       0.156948       0.536177
       4.380000       1.961160       0.157750       0.531006
       4.390000       1.961176       0.159276       0.524694
       4.400000       1.963146       0.161491       0.517427
       4.410000       1.968962       0.164306       0.509370
       4.420000       1.980161       0.167593       0.500680
       4.430000       1.997672       0.171211       0.491521
       4.440000       2.021748       0.175039       0.482068
       4.450000       2.052030       0.178999       0.472520
       4.460000       2.087618       0.183078       0.463113
       4.470000       2.127082       0.187317       0.454126
       4.480000       2.168404       0.191786       0.445885
       4.490000       2.208924       0.196539       0.438747
       4.500000       2.245391       0.201575       0.433084
       4.510000       2.274237       0.206809       0.429251
       4.520000       2.292105       0.212074       0.427564
       4.530000       2.296587       0.217140       0.428285
       4.540000       2.286896       0.221770       0.431609
       4.550000       2.264202       0.225782       0.437662
       4.560000       2.231413       0.229100       0.446498
       4.570000       2.192470       0.231781       0.458083
       4.580000       2.151462       0.233985       0.472280
       4.590000       2.111864       0.235939       0.488826
       4.600000       2.076115       0.237881       0.507307
       4.610000       2.045532       0.240029       0.527156
       4.620000       2.020445       0.242556       0.547676
       4.630000       2.000419       0.245577       0.568098
       4.640000       1.984464       0.249142       0.587662
       4.650000       1.971258       0.253231       0.605707
       4.660000       1.959412       0.257767       0.621735
       4.670000       1.947807       0.262641       0.635447
       4.680000       1.935891       0.267735       0.646731
       4.690000       1.923804       0.272934       0.655627
       4.700000       1.912228       0.278124       0.662281
       4.710000       1.902027       0.283166       0.666900
       4.720000       1.893814       0.287880       0.669711
       4.730000       1.887670       0.292066       0.670934
       4.740000       1.883120       0.295553       0.670766
       4.750000       1.879383       0.298274       0.669378
       4.760000       1.875795       0.300323       0.666915
       4.770000       1.872236       0.301972       0.663527
       4.780000       1.869387       0.303624       0.659394
       4.790000       1.868719       0.305747       0.654769
       4.800000       1.872265       0.308786       0.650018
       4.810000       1.882264       0.313103       0.645629
       4.820000       1.900818       0.318927       0.642206
       4.830000       1.929618       0.326338       0.640411
       4.840000       1.969764       0.335252       0.640903
       4.850000       2.021635       0.345436       0.644264
       4.860000       2.084795       0.356533       0.650955
       4.870000       2.157903       0.368121       0.661275
       4.880000       2.238690       0.379795       0.675348
       4.890000       2.324029       0.391241       0.693114
       4.900000       2.410178       0.402284       0.714324
       4.910000       2.493169       0.412858       0.738542
       4.920000       2.569276       0.422920       0.765158
       4.930000       2.635423       0.432329       0.793422
       4.940000       2.689455       0.440756       0.822505
       4.950000       2.730308       0.447664       0.851574
       4.960000       2.758098       0.452383       0.879885
       4.970000       2.774168       0.454265       0.906851
       4.980000       2.780990       0.452864       0.932076
       4.990000       2.781874       0.448071       0.955356
       5.000000       2.780550       0.440157       0.976648
       5.010000       2.780741       0.429703       0.996028
       5.020000       2.785841       0.417464       1.013652
       5.030000       2.798737       0.404224       1.029725
       5.040000       2.821733       0.390700       1.044470
       5.050000       2.856495       0.377501       1.058124
       5.060000       2.903970       0.365122       1.070951
       5.070000       2.964278       0.353958       1.083285
       5.080000       3.036650       0.344306       1.095597
       5.090000       3.119490       0.336376       1.108559
       5.100000       3.210622       0.330292       1.123072
       5.110000       3.307703       0.326108       1.140226
       5.120000       3.408650       0.323812       1.161215
       5.130000       3.511956       0.323332       1.187199
       5.140000       3.616737       0.324543       1.219184
       5.150000       3.722539       0.327263       1.257923
       5.160000       3.828980       0.331254       1.303856
       5.170000       3.935398       0.336239       1.357086
       5.180000       4.040633       0.341915       1.417390
       5.190000       4.143019       0.347995       1.484258
       5.200000       4.240519       0.354241       1.556978
       5.210000       4.330914       0.360485       1.634733
       5.220000       4.411956       0.366632       1.716687
       5.230000       4.481505       0.372640       1.802008
       5.240000       4.537728       0.378503       1.889796
       5.250000       4.579445       0.384260       1.978940
       5.260000       4.606487       0.390008       2.067930
       5.270000       4.619847       0.395925       2.154731
       5.280000       4.621395       0.402268       2.236808
       5.290000       4.613209       0.409342       2.311365
       5.300000       4.596825       0.417452       2.375795
       5.310000       4.572811       0.426847       2.428208
       5.320000       4.540908       0.437692       2.467852
       5.330000       4.500662       0.450062       2.495243
       5.340000       4.452254       0.463961       2.511960
       5.350000       4.397107       0.479370       2.520247
       5.360000       4.337979       0.496288       2.522605
       5.370000       4.278479       0.514768       2.521494
       5.380000       4.222201       0.534904       2.519114
       5.390000       4.171814       0.556804       2.517161
       5.400000       4.128434       0.580538       2.516548
       5.410000       4.091425       0.606098       2.517181
       5.420000       4.058655       0.633375       2.517927
       5.430000       4.027059       0.662157       2.516888
       5.440000       3.993359       0.692130       2.511930
       5.450000       3.954767       0.722879       2.501330
       5.460000       3.909595       0.753913       2.484321
       5.470000       3.857678       0.784729       2.461356
       5.480000       3.800548       0.814941       2.433997
       5.490000       3.741259       0.844441       2.404496
       5.500000       3.683852       0.873502       2.375178
       5.510000       3.632538       0.902757       2.347800
       5.520000       3.590844       0.933027       2.323019
       5.530000       3.560959       0.965041       2.300095
       5.540000       3.543449       0.999148       2.276895
       5.550000       3.537432       1.035113       2.250267
       5.560000       3.541146       1.072047       2.216738
       5.570000       3.552747       1.108531       2.173396
       5.580000       3.571061       1.142898       2.118701
       5.590000       3.595974       1.173641       2.052957
       5.600000       3.628290       1.199797       1.978266
       5.610000       3.669091       1.221186       1.898033
       5.620000       3.718884       1.238403       1.816229
       5.630000       3.776832       1.252594       1.736686
       5.640000       3.840304       1.265106       1.662588
       5.650000       3.904839       1.277143       1.596209
       5.660000       3.964520       1.289500       1.538856
       5.670000       4.012728       1.302420       1.490928
       5.680000       4.043195       1.315577       1.452012
       5.690000       4.051196       1.328208       1.421011
       5.700000       4.034590       1.339352       1.396272
       5.710000       3.994346       1.348170       1.375783
       5.720000       3.934352       1.354240       1.357440
       5.730000       3.860557       1.357718       1.339389
       5.740000       3.779778       1.359326       1.320361
       5.750000       3.698548       1.360167       1.299907
       5.760000       3.622301       1.361494       1.278422
       5.770000       3.554973       1.364504       1.256981
       5.780000       3.498991       1.370212       1.237037
       5.790000       3.455509       1.379399       1.220118
       5.800000       3.424733       1.392565       1.207607
       5.810000       3.406212       1.409854       1.200637
       5.820000       3.399031       1.430942       1.200090
       5.830000       3.401978       1.454948       1.206641
       5.840000       3.413765       1.480434       1.220819
       5.850000       3.433353       1.505550       1.243050
       5.860000       3.460251       1.528342       1.273660
       5.870000       3.494612       1.547141       1.312862
       5.880000       3.536967       1.560914       1.360709
       5.890000       3.587645       1.569448       1.417042
       5.900000       3.646073       1.573293       1.481410
       5.910000       3.710214       1.573449       1.553013
       5.920000       3.776336       1.570916       1.630663
       5.930000       3.839199       1.566245       1.712819
       5.940000       3.892652       1.559263       1.797707
       5.950000       3.930548       1.549081       1.883528
       5.960000       3.947768       1.534378       1.968665
       5.970000       3.941142       1.513896       2.051832
       5.980000       3.910024       1.486949       2.132074
       5.990000       3.856416       1.453777       2.208654
       6.000000       3.784637       1.415610       2.280887
       6.010000       3.700618       1.374430       2.348013
       6.020000       3.610974       1.332552       2.409170
       6.030000       3.522044       1.292188       2.463471
       6.040000       3.439054       1.255138       2.510146
       6.050000       3.365578       1.222670       2.548692
       6.060000       3.303319       1.195541       2.578978
       6.070000       3.252235       1.174118       2.601269
       6.080000       3.210950       1.158518       2.616177
       6.090000       3.177390       1.148725       2.624574
       6.100000       3.149502       1.144655       2.627503
       6.110000       3.125855       1.146166       2.626086
       6.120000       3.105936       1.153017       2.621432
       6.130000       3.090090       1.164817       2.614529
       6.140000       3.079220       1.180996       2.606170
       6.150000       3.074456       1.200818       2.596919
       6.160000       3.076986       1.223447       2.587120
       6.170000       3.088051       1.248023       2.576898
       6.180000       3.109014       1.273740       2.566123
       6.190000       3.141327       1.299890       2.554349
       6.200000       3.186320       1.325909       2.540816
       6.210000       3.244869       1.351410       2.524580
       6.220000       3.317033       1.376181       2.504792
       6.230000       3.401788       1.400137       2.481011
       6.240000       3.496891       1.423216       2.453401
       6.250000       3.598899       1.445284       2.422681
       6.260000       3.703345       1.466065       2.389838
       6.270000       3.805036       1.485125       2.355766
       6.280000       3.898457       1.501883       2.321004
       6.290000       3.978222       1.515659       2.285739
       6.300000       4.039532       1.525795       2.250028
       6.310000       4.078646       1.531855       2.214100
       6.320000       4.093344       1.533854       2.178523
       6.330000       4.083309       1.532395       2.144129
       6.340000       4.050346       1.528607       2.111727
       6.350000       3.998316       1.523887       2.081759
       6.360000       3.932799       1.519549       2.054096
       6.370000       3.860474       1.516545       2.028071
       6.380000       3.788341       1.515337       2.002763
       6.390000       3.722924       1.515949       1.977419
       6.400000       3.669627       1.518123       1.951810
       6.410000       3.632362       1.521500       1.926374
       6.420000       3.613439       1.525740       1.902073
       6.430000       3.613657       1.530572       1.880050
       6.440000       3.632459       1.535795       1.861228
       6.450000       3.668083       1.541235       1.845997
       6.460000       3.717674       1.546688       1.834078
       6.470000       3.777410       1.551849       1.824595
       6.480000       3.842734       1.556266       1.816329
       6.490000       3.908800       1.559372       1.808101
       6.500000       3.971156       1.560607       1.799131
       6.510000       4.026586       1.559594       1.789238
       6.520000       4.073881       1.556281       1.778819
       6.530000       4.114216       1.550984       1.768599
       6.540000       4.150935       1.544278       1.759302
       6.550000       4.188729       1.536782       1.751337
       6.560000       4.232455       1.528952       1.744621
       6.570000       4.285946       1.520976       1.738567
       6.580000       4.351150       1.512825       1.732212
       6.590000       4.427741       1.504447       1.724446
       6.600000       4.513277       1.495982       1.714285
       6.610000       4.603774       1.487891       1.701124
       6.620000       4.694561       1.480939       1.684888
       6.630000       4.781180       1.476073       1.666045
       6.640000       4.860127       1.474257       1.645478
       6.650000       4.929311       1.476348       1.624278
       6.660000       4.988201       1.483009       1.603544
       6.670000       5.037678       1.494662       1.584228
       6.680000       5.079634       1.511416       1.567031
       6.690000       5.116395       1.533008       1.552322
       6.700000       5.150050       1.558751       1.540075
       6.710000       5.181885       1.587561       1.529821
       6.720000       5.212024       1.618075       1.520656
       6.730000       5.239354       1.648871       1.511337
       6.740000       5.261711       1.678714       1.500495
       6.750000       5.276307       1.706745       1.486909
       6.760000       5.280356       1.732509       1.469770
       6.770000       5.271831       1.755831       1.448841
       6.780000       5.250190       1.776589       1.424472
       6.790000       5.216797       1.794482       1.397504
       6.800000       5.174854       1.808851       1.369121
       6.810000       5.128820       1.818629       1.340714
       6.820000       5.083508       1.822462       1.313745
       6.830000       5.043135       1.819012       1.289604
       6.840000       5.010580       1.807374       1.269463
       6.850000       4.987017       1.787446       1.254126
       6.860000       4.971964       1.760112       1.243939
       6.870000       4.963679       1.727152       1.238753
       6.880000       4.959739       1.690925       1.237941
       6.890000       4.957635       1.653923       1.240471
       6.900000       4.955283       1.618340       1.245013
       6.910000       4.951419       1.585763       1.250093
       6.920000       4.945848       1.557052       1.254287
       6.930000       4.939478       1.532418       1.256431
       6.940000       4.934045       1.511642       1.255800
       6.950000       4.931536       1.494356       1.252189
       6.960000       4.933487       1.480276       1.245891
       6.970000       4.940420       1.469348       1.237558
       6.980000       4.951665       1.461771       1.228026
       6.990000       4.965626       1.457958       1.218139
       7.000000       4.980396       1.458451       1.208632
       7.010000       4.994424       1.463823       1.200071
       7.020000       5.006954       1.474560       1.192836
       7.030000       5.018034       1.490942       1.187124
       7.040000       5.028127       1.512922       1.182956
       7.050000       5.037558       1.540046       1.180199
       7.060000       5.046129       1.571436       1.178606
       7.070000       5.053115       1.605861       1.177883
       7.080000       5.057594       1.641902       1.177753
       7.090000       5.058847       1.678191       1.178005
       7.100000       5.056538       1.713691       1.178497
       7.110000       5.050576       1.747911       1.179126
       7.120000       5.040818       1.780982       1.179782
       7.130000       5.026858       1.813510       1.180292
       7.140000       5.008036       1.846229       1.180409
       7.150000       4.983630       1.879578       1.179824
       7.160000       4.953107       1.913389       1.178224
       7.170000       4.916321       1.946787       1.175367
       7.180000       4.873610       1.978357       1.171132
       7.190000       4.825766       2.006469       1.165535
       7.200000       4.773914       2.029659       1.158699
       7.210000       4.719340       2.046892       1.150780
       7.220000       4.663299       2.057655       1.141892
       7.230000       4.606835       2.061897       1.132076
       7.240000       4.550621       2.059871       1.121336
       7.250000       4.494881       2.051995       1.109713
       7.260000       4.439421       2.038788       1.097377
       7.270000       4.383749       2.020886       1.084655
       7.280000       4.327175       1.999124       1.072002
       7.290000       4.268860       1.974629       1.059900
       7.300000       4.207841       1.948850       1.048736
       7.310000       4.143157       1.923477       1.038706
       7.320000       4.074118       1.900237       1.029794
       7.330000       4.000660       1.880621       1.021828
       7.340000       3.923598       1.865606       1.014599
       7.350000       3.844622       1.855463       1.007982
       7.360000       3.766007       1.849702       1.001995
       7.370000       3.690143       1.847176       0.996783
       7.380000       3.619086       1.846315       0.992536
       7.390000       3.554298       1.845450       0.989387
       7.400000       3.496660       1.843147       0.987325
       7.410000       3.446666       1.838493       0.986181
       7.420000       3.404671       1.831256       0.985664
       7.430000       3.371015       1.821888       0.985437
       7.440000       3.345960       1.811375       0.985174
       7.450000       3.329500       1.800974       0.984585
       7.460000       3.321163       1.791941       0.983392
       7.470000       3.319927       1.785308       0.981302
       7.480000       3.324261       1.781785       0.978006
       7.490000       3.332222       1.781782       0.973213
       7.500000       3.341560       1.785523       0.966739
       7.510000       3.349802       1.793186       0.958603
       7.520000       3.354405       1.804973       0.949099
       7.530000       3.352992       1.821108       0.938803
       7.540000       3.343668       1.841762       0.928485
       7.550000       3.325327       1.866972       0.918976
       7.560000       3.297876       1.896585       0.911016
       7.570000       3.262310       1.930263       0.905150
       7.580000       3.220609       1.967530       0.901666
       7.590000       3.175423       2.007856       0.900595
       7.600000       3.129641       2.050741       0.901751
       7.610000       3.085952       2.095768       0.904811
       7.620000       3.046533       2.142623       0.909428
       7.630000       3.012899       2.191075       0.915326
       7.640000       2.985896       2.240934       0.922381
       7.650000       2.965786       2.291993       0.930632
       7.660000       2.952379       2.343938       0.940237
       7.670000       2.945194       2.396213       0.951372
       7.680000       2.943625       2.447840       0.964098
       7.690000       2.947042       2.497278       0.978236
       7.700000       2.954832       2.542413       0.993281
       7.710000       2.966348       2.580781       1.008391
       7.720000       2.980819       2.609989       1.022443
       7.730000       2.997271       2.628260       1.034155
       7.740000       3.014462       2.634895       1.042274
       7.750000       3.030852       2.630482       1.045796
       7.760000       3.044593       2.616765       1.044174
       7.770000       3.053573       2.596201       1.037448
       7.780000       3.055577       2.571394       1.026252
       7.790000       3.048611       2.544589       1.011686
       7.800000       3.031373       2.517413       0.995090
       7.810000       3.003702       2.490853       0.977812
       7.820000       2.966803       2.465422       0.961004
       7.830000       2.923080       2.441364       0.945521
       7.840000       2.875622       2.418799       0.931897
       7.850000       2.827522       2.397787       0.920391
       7.860000       2.781291       2.378377       0.911070
       7.870000       2.738544       2.360680       0.903870
       7.880000       2.699979       2.344972       0.898646
       7.890000       2.665588       2.331730       0.895183
       7.900000       2.634964       2.321555       0.893195
       7.910000       2.607640       2.315002       0.892321
       7.920000       2.583364       2.312410       0.892135
       7.930000       2.562286       2.313831       0.892177
       7.940000       2.544997       2.319116       0.891996
       7.950000       2.532389       2.328100       0.891216
       7.960000       2.525379       2.340805       0.889585
       7.970000       2.524590       2.357539       0.887014
       7.980000       2.530144       2.378871       0.883587
       7.990000       2.541630       2.405510       0.879536
       8.000000       2.558294       2.438179       0.875191
       8.010000       2.579355       2.477532       0.870941
       8.020000       2.604295       2.524102       0.867190
       8.030000       2.632981       2.578208       0.864340
       8.040000       2.665554       2.639771       0.862757
       8.050000       2.702164       2.708063       0.862748
       8.060000       2.742676       2.781502       0.864539
       8.070000       2.786475       2.857614       0.868269
       8.080000       2.832389       2.933211       0.873998
       8.090000       2.878705       3.004784       0.881728
       8.100000       2.923232       3.068986       0.891411
       8.110000       2.963432       3.123123       0.902944
       8.120000       2.996627       3.165538       0.916156
       8.130000       3.020294       3.195765       0.930800
       8.140000       3.032390       3.214429       0.946549
       8.150000       3.031630       3.222893       0.963013
       8.160000       3.017678       3.222861       0.979748
       8.170000       2.991236       3.216093       0.996270
       8.180000       2.954054       3.204349       1.012069
       8.190000       2.908828       3.189494       1.026646
       8.200000       2.858973       3.173607       1.039546
       8.210000       2.808281       3.158986       1.050395
       8.220000       2.760506       3.148034       1.058890
       8.230000       2.718965       3.143073       1.064765
       8.240000       2.686232       3.146129       1.067763
       8.250000       2.663964       3.158713       1.067656
       8.260000       2.652880       3.181609       1.064335
       8.270000       2.652849       3.214760       1.057937
       8.280000       2.663070       3.257293       1.048922
       8.290000       2.682251       3.307686       1.038069
       8.300000       2.708742       3.364000       1.026350
       8.310000       2.740561       3.424089       1.014754
       8.320000       2.775354       3.485773       1.004129
       8.330000       2.810376       3.547020       0.995095
       8.340000       2.842600       3.606182       0.988058
       8.350000       2.868958       3.662203       0.983273
       8.360000       2.886716       3.714693       0.980911
       8.370000       2.893854       3.763774       0.981074
       8.380000       2.889376       3.809752       0.983756
       8.390000       2.873422       3.852752       0.988782
       8.400000       2.847137       3.892432       0.995776
       8.410000       2.812346       3.927875       1.004188
       8.420000       2.771144       3.957667       1.013390
       8.430000       2.725571       3.980143       1.022787
       8.440000       2.677433       3.993743       1.031898
       8.450000       2.628277       3.997360       1.040391
       8.460000       2.579454       3.990573       1.048069
       8.470000       2.532194       3.973663       1.054844
       8.480000       2.487632       3.947422       1.060732
       8.490000       2.446773       3.912857       1.065854
       8.500000       2.410432       3.870938       1.070432
       8.510000       2.379175       3.822525       1.074782
       8.520000       2.353313       3.768469       1.079280
       8.530000       2.332910       3.709817       1.084333
       8.540000       2.317801       3.647985       1.090340
       8.550000       2.307595       3.584785       1.097662
       8.560000       2.301659       3.522256       1.106585
       8.570000       2.299107       3.462305       1.117278
       8.580000       2.298812       3.406250       1.129748
       8.590000       2.299451       3.354437       1.143801
       8.600000       2.299594       3.306121       1.159033
       8.610000       2.297847       3.259691       1.174864
       8.620000       2.293035       3.213204       1.190633
       8.630000       2.284388       3.165044       1.205726
       8.640000       2.271682       3.114456       1.219710
       8.650000       2.255281       3.061759       1.232424
       8.660000       2.236080       3.008206       1.244024
       8.670000       2.215353       2.955581       1.254945
       8.680000       2.194533       2.905716       1.265821
       8.690000       2.174959       2.860133       1.277351
       8.700000       2.157641       2.819879       1.290162
       8.710000       2.143112       2.785587       1.304680
       8.720000       2.131405       2.757655       1.321039
       8.730000       2.122146       2.736418       1.339053
       8.740000       2.114732       2.722196       1.358225
       8.750000       2.108499       2.715154       1.377800
       8.760000       2.102852       2.715001       1.396852
       8.770000       2.097307       2.720673       1.414384
       8.780000       2.091501       2.730157       1.429479
       8.790000       2.085196       2.740566       1.441465
       8.800000       2.078295       2.748524       1.450082
       8.810000       2.070893       2.750755       1.455565
       8.820000       2.063322       2.744748       1.458634
       8.830000       2.056173       2.729282       1.460357
       8.840000       2.050255       2.704659       1.461951
       8.850000       2.046491       2.672563       1.464557
       8.860000       2.045745       2.635588       1.469057
       8.870000       2.048614       2.596600       1.475954
       8.880000       2.055242       2.558116       1.485338
       8.890000       2.065219       2.521905       1.496930
       8.900000       2.077609       2.488874       1.510178
       8.910000       2.091111       2.459221       1.524385
       8.920000       2.104289       2.432714       1.538863
       8.930000       2.115803       2.408960       1.553065
       8.940000       2.124564       2.387599       1.566707
       8.950000       2.129762       2.368401       1.579820
       8.960000       2.130812       2.351300       1.592737
       8.970000       2.127270       2.336382       1.606028
       8.980000       2.118811       2.323797       1.620393
       8.990000       2.105299       2.313600       1.636559
       9.000000       2.086901       2.305574       1.655174
       9.010000       2.064159       2.299133       1.676723
       9.020000       2.037962       2.293419       1.701463
       9.030000       2.009429       2.287580       1.729386
       9.040000       1.979772       2.281103       1.760228
       9.050000       1.950165       2.274031       1.793520
       9.060000       1.921633       2.266919       1.828684
       9.070000       1.894947       2.260536       1.865151
       9.080000       1.870517       2.255459       1.902483
       9.090000       1.848336       2.251746       1.940462
       9.100000       1.828003       2.248835       1.979139
       9.110000       1.808848       2.245712       2.018803
       9.120000       1.790135       2.241288       2.059900
       9.130000       1.771274       2.234829       2.102914
       9.140000       1.752004       2.226277       2.148239
       9.150000       1.732462       2.216343       2.196083
       9.160000       1.713120       2.206356       2.246407
       9.170000       1.694612       2.197930       2.298913
       9.180000       1.677508       2.192571       2.353093
       9.190000       1.662120       2.191360       2.408345
       9.200000       1.648422       2.194776       2.464133
       9.210000       1.636089       2.202683       2.520143
       9.220000       1.624637       2.214430       2.576393
       9.230000       1.613587       2.228991       2.633267
       9.240000       1.602559       2.245093       2.691468
       9.250000       1.591284       2.261286       2.751895
       9.260000       1.579522       2.275976       2.815492
       9.270000       1.566941       2.287432       2.883100
       9.280000       1.553050       2.293839       2.955366
       9.290000       1.537211       2.293446       3.032735
       9.300000       1.518768       2.284832       3.115534
       9.310000       1.497224       2.267209       3.204107
       9.320000       1.472417       2.240642       3.298941
       9.330000       1.444615       2.206081       3.400729
       9.340000       1.414527       2.165202       3.510342
       9.350000       1.383219       2.120137       3.628743
       9.360000       1.351998       2.073183       3.756865
       9.370000       1.322249       2.026556       3.895509
       9.380000       1.295291       1.982236       4.045288
       9.390000       1.272248       1.941886       4.206619
       9.400000       1.253973       1.906852       4.379771
       9.410000       1.241035       1.878195       4.564928
       9.420000       1.233743       1.856718       4.762235
       9.430000       1.232186       1.842947       4.971756
       9.440000       1.236260       1.837075       5.193310
       9.450000       1.245674       1.838881       5.426178
       9.460000       1.259955       1.847656       5.668715
       9.470000       1.278445       1.862149       5.917943
       9.480000       1.300324       1.880544       6.169251
       9.490000       1.324634       1.900515       6.416315
       9.500000       1.350318       1.919385       6.651356
       9.510000       1.376272       1.934436       6.865798
       9.520000       1.401414       1.943315       7.051274
       9.530000       1.424768       1.944430       7.200815
       9.540000       1.445544       1.937217       7.309859
       9.550000       1.463172       1.922178       7.376796
       9.560000       1.477279       1.900712       7.402887
       9.570000       1.487611       1.874806       7.391708
       9.580000       1.493941       1.846671       7.348354
       9.590000       1.496025       1.818416       7.278600
       9.600000       1.493640       1.791791       7.188113
       9.610000       1.486685       1.768036       7.081820
       9.620000       1.475300       1.747805       6.963579
       9.630000       1.459921       1.731168       6.836253
       9.640000       1.441239       1.717639       6.702100
       9.650000       1.420075       1.706248       6.563234
       9.660000       1.397219       1.695642       6.421867
       9.670000       1.373336       1.684277       6.280211
       9.680000       1.348960       1.670684       6.140123
       9.690000       1.324582       1.653779       6.002722
       9.700000       1.300762       1.633111       5.868147
       9.710000       1.278194       1.608960       5.735536
       9.720000       1.257688       1.582249       5.603200
       9.730000       1.240074       1.554311       5.468968
       9.740000       1.226067       1.526604       5.330680
       9.750000       1.216155       1.500475       5.186809
       9.760000       1.210546       1.477002       5.037029
       9.770000       1.209170       1.456937       4.882522
       9.780000       1.211734       1.440718       4.725847
       9.790000       1.217769       1.428534       4.570374
       9.800000       1.226658       1.420408       4.419498
       9.810000       1.237647       1.416273       4.275888
       9.820000       1.249859       1.416029       4.141020
       9.830000       1.262362       1.419556       4.015050
       9.840000       1.274276       1.426688       3.897008
       9.850000       1.284891       1.437153       3.785207
       9.860000       1.293731       1.450506       3.677749
       9.870000       1.300540       1.466079       3.573023
       9.880000       1.305225       1.483009       3.470097
       9.890000       1.307809       1.500355       3.368930
       9.900000       1.308429       1.517283       3.270348
       9.910000       1.307366       1.533221       3.175799
       9.920000       1.305034       1.547922       3.086965
       9.930000       1.301895       1.561373       3.005356
       9.940000       1.298314       1.573612       2.932016
       9.950000       1.294404       1.584529       2.867421
       9.960000       1.289942       1.593745       2.811527
       9.970000       1.284377       1.600626       2.763918
       9.980000       1.276941       1.604405       2.723929
       9.990000       1.266833       1.604401       2.690681
      10.000000       1.253437       1.600241       2.663055
      10.010000       1.236530       1.592041       2.639649
      10.020000       1.216409       1.580472       2.618829
      10.030000       1.193875       1.566709       2.598911
      10.040000       1.170090       1.552252       2.578462
      10.050000       1.146341       1.538688       2.556612
      10.060000       1.123808       1.527416       2.533259
      10.070000       1.103393       1.519419       2.509051
      10.080000       1.085645       1.515101       2.485145
      10.090000       1.070781       1.514250       2.462851
      10.100000       1.058750       1.516113       2.443298
      10.110000       1.049329       1.519580       2.427228
      10.120000       1.042201       1.523383       2.414929
      10.130000       1.037026       1.526294       2.406275
      10.140000       1.033489       1.527286       2.400793
      10.150000       1.031354       1.525648       2.397711
      10.160000       1.030500       1.521085       2.395983
      10.170000       1.030925       1.513745       2.394289
      10.180000       1.032727       1.504200       2.391054
      10.190000       1.036033       1.493336       2.384529
      10.200000       1.040913       1.482171       2.372965
      10.210000       1.047281       1.471639       2.354875
      10.220000       1.054835       1.462375       2.329353
      10.230000       1.063036       1.454567       2.296335
      10.240000       1.071134       1.447895       2.256739
      10.250000       1.078229       1.441580       2.212363
      10.260000       1.083342       1.434514       2.165575
      10.270000       1.085506       1.425472       2.118862
      10.280000       1.083865       1.413349       2.074389
      10.290000       1.077778       1.397389       2.033669
      10.300000       1.066909       1.377316       1.997429
      10.310000       1.051297       1.353349       1.965633
      10.320000       1.031393       1.326107       1.937635
      10.330000       1.008044       1.296468       1.912402
      10.340000       0.982413       1.265439       1.888739
      10.350000       0.955839       1.234071       1.865509
      10.360000       0.929652       1.203403       1.841782
      10.370000       0.905005       1.174426       1.816924
      10.380000       0.882756       1.148034       1.790603
      10.390000       0.863422       1.124968       1.762716
      10.400000       0.847205       1.105757       1.733289
      10.410000       0.834056       1.090689       1.702403
      10.420000       0.823751       1.079824       1.670179
      10.430000       0.815966       1.073059       1.636845
      10.440000       0.810329       1.070214       1.602814
      10.450000       0.806469       1.071106       1.568729
      10.460000       0.804068       1.075574       1.535428
      10.470000       0.802900       1.083458       1.503843
      10.480000       0.802852       1.094532       1.474872
      10.490000       0.803906       1.108420       1.449256
      10.500000       0.806064       1.124537       1.427493
      10.510000       0.809269       1.142063       1.409784
      10.520000       0.813338       1.159989       1.396000
      10.530000       0.817954       1.177197       1.385679
      10.540000       0.822697       1.192568       1.378050
      10.550000       0.827109       1.205080       1.372094
      10.560000       0.830746       1.213876       1.366639
      10.570000       0.833228       1.218313       1.360480
      10.580000       0.834272       1.218017       1.352528
      10.590000       0.833736       1.212969       1.341948
      10.600000       0.831650       1.203581       1.328267
      10.610000       0.828240       1.190691       1.311423
      10.620000       0.823899       1.175432       1.291753
      10.630000       0.819125       1.158992       1.269926
      10.640000       0.814430       1.142354       1.246824
      10.650000       0.810243       1.126100       1.223405
      10.660000       0.806844       1.110336       1.200550
      10.670000       0.804344       1.094748       1.178939
      10.680000       0.802715       1.078769       1.158959
      10.690000       0.801862       1.061818       1.140665
      10.700000       0.801706       1.043535       1.123795
      10.710000       0.802245       1.023950       1.107843
      10.720000       0.803550       1.003533       1.092169
      10.730000       0.805723       0.983116       1.076142
      10.740000       0.808827       0.963736       1.059297
      10.750000       0.812836       0.946456       1.041456
      10.760000       0.817628       0.932215       1.022793
      10.770000       0.823033       0.921743       1.003811
      10.780000       0.828886       0.915524       0.985227
      10.790000       0.835089       0.913814       0.967808
      10.800000       0.841629       0.916689       0.952198
      10.810000       0.848579       0.924086       0.938795
      10.820000       0.856050       0.935826       0.927689
      10.830000       0.864148       0.951601       0.918666
      10.840000       0.872920       0.970913       0.911252
      10.850000       0.882314       0.993016       0.904791
      10.860000       0.892148       1.016873       0.898551
      10.870000       0.902102       1.041166       0.891843
      10.880000       0.911710       1.064394       0.884156
      10.890000       0.920384       1.085050       0.875281
      10.900000       0.927475       1.101868       0.865383
      10.910000       0.932380       1.114067       0.854990
      10.920000       0.934694       1.121522       0.844899
      10.930000       0.934313       1.124783       0.836005
      10.940000       0.931460       1.124941       0.829130
      10.950000       0.926591       1.123356       0.824882
      10.960000       0.920231       1.121369       0.823577
      10.970000       0.912814       1.120064       0.825204
      10.980000       0.904585       1.120157       0.829463
      10.990000       0.895584       1.121997       0.835826
      11.000000       0.885709       1.125651       0.843651
      11.010000       0.874813       1.130975       0.852297
      11.020000       0.862797       1.137643       0.861232
      11.030000       0.849677       1.145113       0.870094
      11.040000       0.835589       1.152593       0.878692
      11.050000       0.820757       1.159051       0.886952
      11.060000       0.805441       1.163306       0.894839
      11.070000       0.789898       1.164202       0.902288
      11.080000       0.774349       1.160791       0.909155
      11.090000       0.758984       1.152497       0.915213
      11.100000       0.743962       1.139193       0.920181
      11.110000       0.729430       1.121191       0.923780
      11.120000       0.715535       1.099153       0.925795
      11.130000       0.702434       1.073964       0.926139
      11.140000       0.690287       1.046606       0.924883
      11.150000       0.679234       1.018064       0.922250
      11.160000       0.669354       0.989267       0.918567
      11.170000       0.660633       0.961059       0.914201
      11.180000       0.652954       0.934181       0.909476
      11.190000       0.646108       0.909254       0.904620
      11.200000       0.639825       0.886745       0.899725
      11.210000       0.633821       0.866936       0.894742
      11.220000       0.627841       0.849894       0.889494
      11.230000       0.621685       0.835456       0.883693
      11.240000       0.615242       0.823246       0.876961
      11.250000       0.608492       0.812713       0.868874
      11.260000       0.601503       0.803206       0.859022
      11.270000       0.594395       0.794064       0.847108
      11.280000       0.587317       0.784726       0.833039
      11.290000       0.580418       0.774822       0.816982
      11.300000       0.573847       0.764238       0.799361
      11.310000       0.567764       0.753132       0.780801
      11.320000       0.562352       0.741897       0.762031
      11.330000       0.557816       0.731106       0.743786
      11.340000       0.554367       0.721432       0.726717
      11.350000       0.552189       0.713562       0.711326
      11.360000       0.551398       0.708114       0.697946
      11.370000       0.552021       0.705569       0.686737
      11.380000       0.553985       0.706228       0.677723
      11.390000       0.557139       0.710190       0.670841
      11.400000       0.561296       0.717368       0.665984
      11.410000       0.566260       0.727501       0.663038
      11.420000       0.571845       0.740192       0.661904
      11.430000       0.577863       0.754940       0.662491
      11.440000       0.584101       0.771179       0.664708
      11.450000       0.590300       0.788333       0.668432
      11.460000       0.596174       0.805870       0.673491
      11.470000       0.601442       0.823360       0.679653
      11.480000       0.605869       0.840495       0.686645
      11.490000       0.609299       0.857073       0.694188
      11.500000       0.611661       0.872940       0.702039
      11.510000       0.612957       0.887927       0.710036
      11.520000       0.613247       0.901820       0.718106
      11.530000       0.612641       0.914381       0.726260
      11.540000       0.611292       0.925413       0.734563
      11.550000       0.609387       0.934834       0.743108
      11.560000       0.607129       0.942716       0.751992
      11.570000       0.604709       0.949297       0.761308
      11.580000       0.602281       0.954955       0.771161
      11.590000       0.599953       0.960188       0.781690
      11.600000       0.597795       0.965569       0.793080
      11.610000       0.595841       0.971684       0.805572
      11.620000       0.594083       0.979048       0.819441
      11.630000       0.592458       0.988004       0.834950
      11.640000       0.590841       0.998648       0.852301
      11.650000       0.589069       1.010788       0.871583
      11.660000       0.586985       1.023955       0.892771
      11.670000       0.584491       1.037467       0.915741
      11.680000       0.581590       1.050532       0.940326
      11.690000       0.578384       1.062382       0.966388
      11.700000       0.575049       1.072424       0.993869
      11.710000       0.571775       1.080372       1.022825
      11.720000       0.568715       1.086305       1.053426
      11.730000       0.565943       1.090617       1.085922
      11.740000       0.563448       1.093867       1.120616
      11.750000       0.561155       1.096591       1.157826
      11.760000       0.558986       1.099124       1.197861
      11.770000       0.556919       1.101521       1.241001
      11.780000       0.555032       1.103562       1.287472
      11.790000       0.553505       1.104844       1.337420
      11.800000       0.552574       1.104913       1.390889
      11.810000       0.552455       1.103406       1.447811
      11.820000       0.553270       1.100137       1.508014
      11.830000       0.554998       1.095146       1.571236
      11.840000       0.557473       1.088676       1.637148
      11.850000       0.560438       1.081136       1.705375
      11.860000       0.563622       1.073068       1.775511
      11.870000       0.566827       1.065108       1.847129
      11.880000       0.569982       1.057948       1.919787
      11.890000       0.573139       1.052256       1.993031
      11.900000       0.576415       1.048569       2.066417
      11.910000       0.579920       1.047169       2.139525
      11.920000       0.583697       1.048002       2.211992
      11.930000       0.587710       1.050657       2.283507
      11.940000       0.591866       1.054434       2.353767
      11.950000       0.596061       1.058494       2.422380
      11.960000       0.600213       1.062030       2.488753
      11.970000       0.604270       1.064421       2.552002
      11.980000       0.608213       1.065326       2.610935
      11.990000       0.612043       1.064695       2.664145
      12.000000       0.615770       1.062707       2.710182
      12.010000       0.619397       1.059657       2.747787
      12.020000       0.622884       1.055820       2.776107
      12.030000       0.626104       1.051323       2.794833
      12.040000       0.628813       1.046085       2.804208
      12.050000       0.630640       1.039847       2.804922
      12.060000       0.631120       1.032291       2.797922
      12.070000       0.629770       1.023201       2.784221
      12.080000       0.626179       1.012620       2.764760
      12.090000       0.620100       1.000905       2.740342
      12.100000       0.611512       0.988691       2.711623
      12.110000       0.600627       0.976768       2.679148
      12.120000       0.587858       0.965925       2.643396
      12.130000       0.573748       0.956800       2.604820
      12.140000       0.558894       0.949779       2.563894
      12.150000       0.543898       0.944933       2.521152
      12.160000       0.529309       0.942023       2.477234
      12.170000       0.515597       0.940540       2.432909
      12.180000       0.503115       0.939793       2.389066
      12.190000       0.492082       0.939022       2.346650
      12.200000       0.482580       0.937534       2.306570
      12.210000       0.474575       0.934843       2.269589
      12.220000       0.467950       0.930780       2.236250
      12.230000       0.462542       0.925549       2.206817
      12.240000       0.458174       0.919688       2.181227
      12.250000       0.454666       0.913960       2.159065
      12.260000       0.451847       0.909200       2.139553
      12.270000       0.449555       0.906171       2.121582
      12.280000       0.447643       0.905469       2.103804
      12.290000       0.445987       0.907471       2.084759
      12.300000       0.444485       0.912310       2.063049
      12.310000       0.443065       0.919865       2.037520
      12.320000       0.441678       0.929750       2.007430
      12.330000       0.440300       0.941320       1.972577
      12.340000       0.438912       0.953688       1.933329
      12.350000       0.437484       0.965785       1.890548
      12.360000       0.435951       0.976449       1.845400
      12.370000       0.434217       0.984559       1.799124
      12.380000       0.432163       0.989167       1.752807
      12.390000       0.429686       0.989621       1.707241
      12.400000       0.426728       0.985644       1.662877
      12.410000       0.423300       0.977353       1.619853
      12.420000       0.419484       0.965207       1.578069
      12.430000       0.415404       0.949897       1.537277
      12.440000       0.411199       0.932215       1.497170
      12.450000       0.406984       0.912938       1.457470
      12.460000       0.402823       0.892750       1.418007
      12.470000       0.398726       0.872223       1.378785
      12.480000       0.394662       0.851817       1.340009
      12.490000       0.390593       0.831902       1.302070
      12.500000       0.386511       0.812790       1.265475
      12.510000       0.382468       0.794759       1.230750
      12.520000       0.378578       0.778083       1.198356
      12.530000       0.374999       0.763030       1.168629
      12.540000       0.371884       0.749869       1.141767
      12.550000       0.369344       0.738849       1.117846
      12.560000       0.367419       0.730183       1.096863
      12.570000       0.366071       0.724027       1.078759
      12.580000       0.365208       0.720456       1.063436
      12.590000       0.364702       0.719457       1.050757
      12.600000       0.364428       0.720938       1.040517
      12.610000       0.364268       0.724740       1.032434
      12.620000       0.364121       0.730654       1.026136
      12.630000       0.363896       0.738423       1.021182
      12.640000       0.363509       0.747744       1.017086
      12.650000       0.362899       0.758259       1.013356
      12.660000       0.362042       0.769554       1.009533
      12.670000       0.360968       0.781158       1.005239
      12.680000       0.359768       0.792576       1.000217
      12.690000       0.358584       0.803342       0.994359
      12.700000       0.357579       0.813079       0.987701
      12.710000       0.356897       0.821529       0.980391
      12.720000       0.356631       0.828538       0.972634
      12.730000       0.356798       0.834009       0.964634
      12.740000       0.357329       0.837856       0.956549
      12.750000       0.358085       0.839989       0.948478
      12.760000       0.358887       0.840343       0.940461
      12.770000       0.359560       0.838914       0.932515
      12.780000       0.359973       0.835796       0.924674
      12.790000       0.360078       0.831182       0.917033
      12.800000       0.359914       0.825332       0.909776
      12.810000       0.359580       0.818524       0.903172
      12.820000       0.359196       0.810991       0.897537
      12.830000       0.358850       0.802886       0.893179
      12.840000       0.358573       0.794275       0.890340
      12.850000       0.358325       0.785165       0.889150
      12.860000       0.358015       0.775536       0.889608
      12.870000       0.357537       0.765386       0.891571
      12.880000       0.356800       0.754746       0.894749
      12.890000       0.355761       0.743690       0.898708
      12.900000       0.354441       0.732335       0.902877
      12.910000       0.352917       0.720842       0.906565
      12.920000       0.351299       0.709416       0.909014
      12.930000       0.349696       0.698304       0.909468
      12.940000       0.348182       0.687767       0.907279
      12.950000       0.346786       0.678047       0.902016
      12.960000       0.345494       0.669330       0.893559
      12.970000       0.344280       0.661717       0.882131
      12.980000       0.343137       0.655217       0.868260
      12.990000       0.342106       0.649768       0.852659
      13.000000       0.341283       0.645260       0.836086
      13.010000       0.340798       0.641559       0.819199
      13.020000       0.340778       0.638525       0.802474
      13.030000       0.341311       0.636011       0.786176
      13.040000       0.342430       0.633870       0.770398
      13.050000       0.344106       0.631948       0.755124
      13.060000       0.346275       0.630096       0.740314
      13.070000       0.348849       0.628168       0.725962
      13.080000       0.351725       0.626037       0.712124
      13.090000       0.354783       0.623610       0.698919
      13.100000       0.357874       0.620846       0.686500
      13.110000       0.360822       0.617770       0.675023
      13.120000       0.363434       0.614468       0.664619
      13.130000       0.365513       0.611067       0.655364
      13.140000       0.366883       0.607711       0.647256
      13.150000       0.367392       0.604533       0.640210
      13.160000       0.366929       0.601647       0.634051
      13.170000       0.365411       0.599141       0.628531
      13.180000       0.362789       0.597081       0.623358
      13.190000       0.359053       0.595525       0.618229
      13.200000       0.354254       0.594539       0.612882
      13.210000       0.348526       0.594216       0.607131
      13.220000       0.342090       0.594677       0.600898
      13.230000       0.335233       0.596050       0.594229
      13.240000       0.328259       0.598434       0.587288
      13.250000       0.321437       0.601858       0.580325
      13.260000       0.314953       0.606255       0.573634
      13.270000       0.308884       0.611451       0.567510
      13.280000       0.303205       0.617177       0.562207
      13.290000       0.297810       0.623089       0.557917
      13.300000       0.292545       0.628802       0.554767
      13.310000       0.287247       0.633930       0.552812
      13.320000       0.281779       0.638130       0.552048
      13.330000       0.276059       0.641143       0.552407
      13.340000       0.270077       0.642811       0.553772
      13.350000       0.263892       0.643064       0.555979
      13.360000       0.257610       0.641890       0.558832
      13.370000       0.251357       0.639319       0.562116
      13.380000       0.245246       0.635415       0.565625
      13.390000       0.239355       0.630305       0.569183
      13.400000       0.233724       0.624195       0.572666
      13.410000       0.228357       0.617391       0.576006
      13.420000       0.223249       0.610285       0.579174
      13.430000       0.218398       0.603311       0.582143
      13.440000       0.213829       0.596893       0.584851
      13.450000       0.209592       0.591378       0.587176
      13.460000       0.205762       0.587006       0.588927
      13.470000       0.202425       0.583900       0.589875
      13.480000       0.199669       0.582080       0.589798
      13.490000       0.197568       0.581494       0.588551
      13.500000       0.196174       0.582022       0.586128
      13.510000       0.195517       0.583493       0.582703
      13.520000       0.195595       0.585672       0.578635
      13.530000       0.196381       0.588271       0.574426
      13.540000       0.197814       0.590954       0.570654
      13.550000       0.199807       0.593376       0.567892
      13.560000       0.202237       0.595212       0.566637
      13.570000       0.204957       0.596212       0.567263
      13.580000       0.207801       0.596232       0.570003
      13.590000       0.210602       0.595271       0.574953
      13.600000       0.213215       0.593471       0.582098
      13.610000       0.215537       0.591096       0.591332
      13.620000       0.217524       0.588482       0.602476
      13.630000       0.219191       0.585969       0.615288
      13.640000       0.220603       0.583832       0.629470
      13.650000       0.221847       0.582230       0.644671
      13.660000       0.223014       0.581183       0.660504
      13.670000       0.224168       0.580574       0.676563
      13.680000       0.225345       0.580190       0.692438
      13.690000       0.226550       0.579786       0.707737
      13.700000       0.227771       0.579159       0.722109
      13.710000       0.228988       0.578204       0.735261
      13.720000       0.230179       0.576922       0.746974
      13.730000       0.231314       0.575384       0.757111
      13.740000       0.232352       0.573670       0.765603
      13.750000       0.233238       0.571801       0.772430
      13.760000       0.233909       0.569694       0.777615
      13.770000       0.234303       0.567170       0.781213
      13.780000       0.234373       0.563998       0.783331
      13.790000       0.234097       0.559960       0.784130
      13.800000       0.233484       0.554925       0.783820
      13.810000       0.232563       0.548880       0.782628
      13.820000       0.231386       0.541933       0.780750
      13.830000       0.230011       0.534274       0.778307
      13.840000       0.228496       0.526135       0.775314
      13.850000       0.226893       0.517759       0.771685
      13.860000       0.225244       0.509372       0.767272
      13.870000       0.223590       0.501186       0.761921
      13.880000       0.221975       0.493387       0.755537
      13.890000       0.220456       0.486138       0.748128
      13.900000       0.219112       0.479576       0.739815
      13.910000       0.218033       0.473815       0.730818
      13.920000       0.217301       0.468945       0.721436
      13.930000       0.216968       0.465036       0.712025
      13.940000       0.217035       0.462122       0.702970
      13.950000       0.217450       0.460184       0.694663
      13.960000       0.218113       0.459138       0.687468
      13.970000       0.218899       0.458829       0.681687
      13.980000       0.219689       0.459054       0.677529
      13.990000       0.220391       0.459588       0.675084
      14.000000       0.220956       0.460218       0.674307
      14.010000       0.221380       0.460765       0.675018
      14.020000       0.221689       0.461097       0.676915
      14.030000       0.221924       0.461136       0.679595
      14.040000       0.222125       0.460852       0.682576
      14.050000       0.222321       0.460256       0.685325
      14.060000       0.222534       0.459374       0.687281
      14.070000       0.222783       0.458237       0.687876
      14.080000       0.223095       0.456878       0.686570
      14.090000       0.223510       0.455343       0.682895
      14.100000       0.224081       0.453707       0.676537
      14.110000       0.224861       0.452085       0.667406
      14.120000       0.225891       0.450610       0.655692
      14.130000       0.227178       0.449416       0.641853
      14.140000       0.228693       0.448601       0.626545
      14.150000       0.230355       0.448212       0.610502
      14.160000       0.232042       0.448242       0.594424
      14.170000       0.233601       0.448639       0.578892
      14.180000       0.234870       0.449327       0.564327
      14.190000       0.235713       0.450228       0.550990
      14.200000       0.236040       0.451281       0.539010
      14.210000       0.235827       0.452458       0.528406
      14.220000       0.235107       0.453774       0.519118
      14.230000       0.233957       0.455283       0.511030
      14.240000       0.232470       0.457073       0.503995
      14.250000       0.230730       0.459245       0.497867
      14.260000       0.228804       0.461886       0.492531
      14.270000       0.226728       0.465040       0.487922
      14.280000       0.224519       0.468678       0.484028
      14.290000       0.222179       0.472670       0.480867
      14.300000       0.219713       0.476781       0.478447
      14.310000       0.217142       0.480672       0.476726
      14.320000       0.214501       0.483933       0.475594
      14.330000       0.211844       0.486128       0.474872
      14.340000       0.209231       0.486863       0.474341
      14.350000       0.206719       0.485863       0.473786
      14.360000       0.204369       0.483045       0.473041
      14.370000       0.202241       0.478557       0.472026
      14.380000       0.200407       0.472772       0.470753
      14.390000       0.198953       0.466229       0.469310
      14.400000       0.197972       0.459530       0.467825
      14.410000       0.197560       0.453234       0.466419
      14.420000       0.197798       0.447771       0.465174
      14.430000       0.198740       0.443383       0.464120
      14.440000       0.200398       0.440110       0.463237
      14.450000       0.202738       0.437815       0.462474
      14.460000       0.205663       0.436235       0.461775
      14.470000       0.209021       0.435040       0.461098
      14.480000       0.212594       0.433896       0.460434
      14.490000       0.216111       0.432506       0.459801
      14.500000       0.219262       0.430637       0.459243
      14.510000       0.221724       0.428134       0.458807
      14.520000       0.223207       0.424923       0.458535
      14.530000       0.223499       0.421024       0.458443
      14.540000       0.222511       0.416559       0.458523
      14.550000       0.220297       0.411741       0.458734
      14.560000       0.217048       0.406850       0.459008
      14.570000       0.213046       0.402184       0.459245
      14.580000       0.208612       0.398001       0.459322
      14.590000       0.204046       0.394460       0.459106
      14.600000       0.199586       0.391592       0.458479
      14.610000       0.195391       0.389285       0.457363
      14.620000       0.191537       0.387304       0.455741
      14.630000       0.188035       0.385350       0.453673
      14.640000       0.184857       0.383127       0.451280
      14.650000       0.181962       0.380409       0.448722
      14.660000       0.179318       0.377080       0.446163
      14.670000       0.176912       0.373133       0.443724
      14.680000       0.174755       0.368646       0.441458
      14.690000       0.172875       0.363750       0.439327
      14.700000       0.171314       0.358610       0.437205
      14.710000       0.170117       0.353414       0.434892
      14.720000       0.169323       0.348376       0.432148
      14.730000       0.168953       0.343735       0.428738
      14.740000       0.169006       0.339738       0.424477
      14.750000       0.169452       0.336624       0.419270
      14.760000       0.170248       0.334592       0.413124
      14.770000       0.171336       0.333779       0.406146
      14.780000       0.172657       0.334234       0.398515
      14.790000       0.174154       0.335912       0.390449
      14.800000       0.175777       0.338677       0.382176
      14.810000       0.177478       0.342313       0.373908
      14.820000       0.179216       0.346555       0.365818
      14.830000       0.180948       0.351119       0.358038
      14.840000       0.182634       0.355747       0.350657
      14.850000       0.184224       0.360231       0.343716
      14.860000       0.185669       0.364429       0.337220
      14.870000       0.186917       0.368268       0.331142
      14.880000       0.187920       0.371727       0.325442
      14.890000       0.188639       0.374822       0.320088
      14.900000       0.189044       0.377589       0.315070
      14.910000       0.189110       0.380081       0.310404
      14.920000       0.188819       0.382367       0.306137
      14.930000       0.188159       0.384524       0.302331
      14.940000       0.187123       0.386630       0.299056
      14.950000       0.185714       0.388742       0.296379
      14.960000       0.183946       0.390864       0.294343
      14.970000       0.181844       0.392928       0.292964
      14.980000       0.179437       0.394782       0.292213
      14.990000       0.176762       0.396204       0.292021
      15.000000       0.173855       0.396933       0.292291
      15.010000       0.170754       0.396714       0.292916
      15.020000       0.167503       0.395354       0.293806
      15.030000       0.164155       0.392770       0.294908
      15.040000       0.160774       0.389012       0.296209
      15.050000       0.157439       0.384266       0.297732
      15.060000       0.154227       0.378814       0.299511
      15.070000       0.151212       0.372978       0.301573
      15.080000       0.148453       0.367065       0.303913
      15.090000       0.145990       0.361324       0.306481
      15.100000       0.143842       0.355939       0.309180
      15.110000       0.142009       0.351037       0.311861
      15.120000       0.140481       0.346705       0.314340
      15.130000       0.139238       0.343003       0.316407
      15.140000       0.138255       0.339954       0.317852
      15.150000       0.137506       0.337534       0.318494
      15.160000       0.136971       0.335670       0.318210
      15.170000       0.136632       0.334244       0.316965
      15.180000       0.136484       0.333119       0.314816
      15.190000       0.136526       0.332158       0.311900
      15.200000       0.136763       0.331251       0.308400
      15.210000       0.137202       0.330331       0.304506
      15.220000       0.137854       0.329373       0.300389
      15.230000       0.138726       0.328402       0.296186
      15.240000       0.139830       0.327478       0.292008
      15.250000       0.141172       0.326691       0.287951
      15.260000       0.142755       0.326140       0.284102
      15.270000       0.144569       0.325919       0.280542
      15.280000       0.146583       0.326086       0.277340
      15.290000       0.148743       0.326643       0.274543
      15.300000       0.150972       0.327527       0.272172
      15.310000       0.153178       0.328604       0.270218
      15.320000       0.155275       0.329691       0.268652
      15.330000       0.157198       0.330587       0.267418
      15.340000       0.158921       0.331108       0.266436
      15.350000       0.160472       0.331132       0.265596
      15.360000       0.161924       0.330616       0.264755
      15.370000       0.163387       0.329588       0.263748
      15.380000       0.164977       0.328118       0.262401
      15.390000       0.166789       0.326266       0.260570
      15.400000       0.168872       0.324048       0.258166
      15.410000       0.171214       0.321418       0.255185
      15.420000       0.173753       0.318294       0.251709
      15.430000       0.176390       0.314601       0.247891
      15.440000       0.179019       0.310325       0.243925
      15.450000       0.181549       0.305548       0.240010
      15.460000       0.183922       0.300455       0.236328
      15.470000       0.186120       0.295304       0.233026
      15.480000       0.188152       0.290384       0.230214
      15.490000       0.190043       0.285964       0.227958
      15.500000       0.191813       0.282253       0.226280
      15.510000       0.193465       0.279373       0.225158
      15.520000       0.194984       0.277350       0.224532
      15.530000       0.196329       0.276124       0.224307
      15.540000       0.197449       0.275575       0.224369
      15.550000       0.198285       0.275558       0.224595
      15.560000       0.198777       0.275934       0.224866
      15.570000       0.198875       0.276603       0.225080
      15.580000       0.198535       0.277499       0.225154
      15.590000       0.197722       0.278589       0.225034
      15.600000       0.196407       0.279839       0.224691
      15.610000       0.194571       0.281198       0.224111
      15.620000       0.192215       0.282589       0.223285
      15.630000       0.189367       0.283913       0.222200
      15.640000       0.186091       0.285063       0.220836
      15.650000       0.182486       0.285938       0.219173
      15.660000       0.178668       0.286446       0.217199
      15.670000       0.174757       0.286511       0.214927
      15.680000       0.170860       0.286066       0.212393
      15.690000       0.167059       0.285068       0.209656
      15.700000       0.163404       0.283497       0.206793
      15.710000       0.159919       0.281379       0.203879
      15.720000       0.156604       0.278795       0.200984
      15.730000       0.153449       0.275885       0.198160
      15.740000       0.150445       0.272837       0.195443
      15.750000       0.147587       0.269858       0.192852
      15.760000       0.144884       0.267135       0.190394
      15.770000       0.142347       0.264790       0.188076
      15.780000       0.139986       0.262861       0.185902
      15.790000       0.137803       0.261294       0.183882
      15.800000       0.135790       0.259960       0.182031
      15.810000       0.133931       0.258688       0.180363
      15.820000       0.132203       0.257302       0.178890
      15.830000       0.130578       0.255651       0.177614
      15.840000       0.129029       0.253638       0.176528
      15.850000       0.127532       0.251229       0.175616
      15.860000       0.126071       0.248460       0.174857
      15.870000       0.124641       0.245427       0.174228
      15.880000       0.123248       0.242270       0.173707
      15.890000       0.121901       0.239148       0.173274
      15.900000       0.120608       0.236214       0.172907
      15.910000       0.119375       0.233596       0.172582
      15.920000       0.118204       0.231385       0.172273
      15.930000       0.117094       0.229628       0.171958
      15.940000       0.116038       0.228332       0.171616
      15.950000       0.115027       0.227478       0.171233
      15.960000       0.114048       0.227027       0.170794
      15.970000       0.113079       0.226934       0.170280
      15.980000       0.112103       0.227151       0.169665
      15.990000       0.111107       0.227628       0.168925
      16.000000       0.110097       0.228313       0.168055
      16.010000       0.109095       0.229144       0.167077
      16.020000       0.108133       0.230048       0.166052
      16.030000       0.107248       0.230935       0.165071
      16.040000       0.106464       0.231706       0.164234
      16.050000       0.105795       0.232255       0.163633
      16.060000       0.105242       0.232482       0.163336
      16.070000       0.104798       0.232303       0.163383
      16.080000       0.104458       0.231662       0.163793
      16.090000       0.104220       0.230535       0.164562
      16.100000       0.104089       0.228940       0.165671
      16.110000       0.104073       0.226933       0.167085
      16.120000       0.104182       0.224605       0.168742
      16.130000       0.104422       0.222069       0.170562
      16.140000       0.104793       0.219447       0.172442
      16.150000       0.105284       0.216855       0.174274
      16.160000       0.105874       0.214385       0.175956
      16.170000       0.106530       0.212096       0.177404
      16.180000       0.107212       0.210008       0.178561
      16.190000       0.107883       0.208102       0.179397
      16.200000       0.108512       0.206321       0.179910
      16.210000       0.109077       0.204589       0.180115
      16.220000       0.109575       0.202820       0.180035
      16.230000       0.110010       0.200930       0.179694
      16.240000       0.110392       0.198856       0.179104
      16.250000       0.110732       0.196565       0.178279
      16.260000       0.111039       0.194074       0.177240
      16.270000       0.111319       0.191448       0.176030
      16.280000       0.111576       0.188797       0.174711
      16.290000       0.111812       0.186253       0.173365
      16.300000       0.112030       0.183954       0.172076
      16.310000       0.112241       0.182029       0.170921
      16.320000       0.112459       0.180587       0.169958
      16.330000       0.112711       0.179719       0.169227
      16.340000       0.113029       0.179494       0.168745
      16.350000       0.113450       0.179959       0.168514
      16.360000       0.114013       0.181129       0.168517
      16.370000       0.114749       0.182983       0.168727
      16.380000       0.115673       0.185456       0.169104
      16.390000       0.116774       0.188430       0.169600
      16.400000       0.118014       0.191737       0.170164
      16.410000       0.119327       0.195164       0.170744
      16.420000       0.120626       0.198469       0.171292
      16.430000       0.121825       0.201414       0.171766
      16.440000       0.122845       0.203802       0.172135
      16.450000       0.123640       0.205508       0.172380
      16.460000       0.124198       0.206496       0.172499
      16.470000       0.124542       0.206812       0.172508
      16.480000       0.124724       0.206563       0.172443
      16.490000       0.124809       0.205875       0.172354
      16.500000       0.124861       0.204866       0.172306
      16.510000       0.124936       0.203628       0.172361
      16.520000       0.125073       0.202230       0.172585
      16.530000       0.125293       0.200725       0.173032
      16.540000       0.125608       0.199157       0.173754
      16.550000       0.126014       0.197558       0.174789
      16.560000       0.126507       0.195935       0.176162
      16.570000       0.127077       0.194260       0.177878
      16.580000       0.127714       0.192477       0.179918
      16.590000       0.128408       0.190517       0.182244
      16.600000       0.129145       0.188323       0.184795
      16.610000       0.129904       0.185873       0.187497
      16.620000       0.130653       0.183182       0.190267
      16.630000       0.131352       0.180293       0.193037
      16.640000       0.131946       0.177268       0.195764
      16.650000       0.132371       0.174185       0.198454
      16.660000       0.132565       0.171137       0.201156
      16.670000       0.132473       0.168236       0.203952
      16.680000       0.132063       0.165601       0.206930
      16.690000       0.131323       0.163344       0.210151
      16.700000       0.130257       0.161550       0.213628
      16.710000       0.128875       0.160256       0.217313
      16.720000       0.127187       0.159454       0.221103
      16.730000       0.125195       0.159094       0.224856
      16.740000       0.122904       0.159095       0.228415
      16.750000       0.120328       0.159366       0.231633
      16.760000       0.117504       0.159819       0.234400
      16.770000       0.114497       0.160375       0.236653
      16.780000       0.111397       0.160964       0.238394
      16.790000       0.108308       0.161529       0.239680
      16.800000       0.105326       0.162022       0.240605
      16.810000       0.102529       0.162417       0.241270
      16.820000       0.099964       0.162719       0.241767
      16.830000       0.097644       0.162967       0.242161
      16.840000       0.095553       0.163232       0.242496
      16.850000       0.093661       0.163596       0.242806
      16.860000       0.091931       0.164140       0.243124
      16.870000       0.090341       0.164922       0.243490
      16.880000       0.088882       0.165972       0.243940
      16.890000       0.087567       0.167286       0.244503
      16.900000       0.086425       0.168833       0.245187
      16.910000       0.085487       0.170565       0.245978
      16.920000       0.084787       0.172427       0.246841
      16.930000       0.084347       0.174359       0.247727
      16.940000       0.084173       0.176301       0.248594
      16.950000       0.084254       0.178185       0.249417
      16.960000       0.084559       0.179927       0.250205
      16.970000       0.085034       0.181428       0.251000
      16.980000       0.085612       0.182570       0.251864
      16.990000       0.086207       0.183226       0.252867
      17.000000       0.086731       0.183276       0.254063
      17.010000       0.087100       0.182628       0.255489
      17.020000       0.087248       0.181235       0.257155
      17.030000       0.087138       0.179115       0.259045
      17.040000       0.086763       0.176354       0.261114
      17.050000       0.086151       0.173100       0.263289
      17.060000       0.085346       0.169548       0.265472
      17.070000       0.084408       0.165908       0.267554
      17.080000       0.083391       0.162381       0.269429
      17.090000       0.082346       0.159133       0.271013
      17.100000       0.081312       0.156282       0.272255
      17.110000       0.080317       0.153894       0.273142
      17.120000       0.079383       0.151990       0.273691
      17.130000       0.078525       0.150559       0.273946
      17.140000       0.077759       0.149572       0.273963
      17.150000       0.077102       0.148990       0.273810
      17.160000       0.076572       0.148771       0.273560
      17.170000       0.076190       0.148869       0.273295
      17.180000       0.075975       0.149230       0.273103
      17.190000       0.075941       0.149791       0.273074
      17.200000       0.076095       0.150484       0.273291
      17.210000       0.076429       0.151244       0.273822
      17.220000       0.076930       0.152023       0.274699
      17.230000       0.077576       0.152798       0.275918
      17.240000       0.078346       0.153573       0.277442
      17.250000       0.079222       0.154378       0.279216
      17.260000       0.080195       0.155249       0.281177
      17.270000       0.081263       0.156218       0.283267
      17.280000       0.082421       0.157296       0.285427
      17.290000       0.083663       0.158467       0.287585
      17.300000       0.084972       0.159692       0.289649
      17.310000       0.086312       0.160907       0.291498
      17.320000       0.087637       0.162045       0.292999
      17.330000       0.088882       0.163039       0.294026
      17.340000       0.089981       0.163828       0.294480
      17.350000       0.090869       0.164358       0.294313
      17.360000       0.091499       0.164575       0.293531
      17.370000       0.091844       0.164421       0.292200
      17.380000       0.091905       0.163829       0.290432
      17.390000       0.091707       0.162738       0.288372
      17.400000       0.091292       0.161103       0.286167
      17.410000       0.090708       0.158919       0.283946
      17.420000       0.090005       0.156234       0.281805
      17.430000       0.089230       0.153153       0.279800
      17.440000       0.088428       0.149824       0.277957
      17.450000       0.087639       0.146417       0.276284
      17.460000       0.086900       0.143096       0.274776
      17.470000       0.086242       0.139996       0.273428
      17.480000       0.085689       0.137215       0.272235
      17.490000       0.085261       0.134813       0.271195
      17.500000       0.084967       0.132823       0.270312
      17.510000       0.084811       0.131253       0.269596
      17.520000       0.084790       0.130094       0.269057
      17.530000       0.084896       0.129323       0.268703
      17.540000       0.085121       0.128903       0.268537
      17.550000       0.085451       0.128790       0.268552
      17.560000       0.085875       0.128940       0.268731
      17.570000       0.086380       0.129315       0.269048
      17.580000       0.086956       0.129890       0.269461
      17.590000       0.087591       0.130648       0.269916
      17.600000       0.088273       0.131584       0.270344
      17.610000       0.088991       0.132691       0.270673
      17.620000       0.089731       0.133952       0.270836
      17.630000       0.090479       0.135334       0.270795
      17.640000       0.091225       0.136780       0.270558
      17.650000       0.091961       0.138215       0.270190
      17.660000       0.092681       0.139549       0.269800
      17.670000       0.093375       0.140690       0.269524
      17.680000       0.094025       0.141558       0.269492
      17.690000       0.094602       0.142093       0.269795
      17.700000       0.095065       0.142260       0.270467
      17.710000       0.095376       0.142052       0.271462
      17.720000       0.095500       0.141483       0.272662
      17.730000       0.095414       0.140583       0.273884
      17.740000       0.095109       0.139390       0.274917
      17.750000       0.094585       0.137939       0.275560
      17.760000       0.093853       0.136261       0.275663
      17.770000       0.092931       0.134387       0.275158
      17.780000       0.091842       0.132345       0.274063
      17.790000       0.090621       0.130175       0.272473
      17.800000       0.089313       0.127929       0.270526
      17.810000       0.087972       0.125675       0.268379
      17.820000       0.086659       0.123494       0.266184
      17.830000       0.085432       0.121463       0.264065
      17.840000       0.084333       0.119653       0.262110
      17.850000       0.083390       0.118113       0.260366
      17.860000       0.082612       0.116876       0.258842
      17.870000       0.081992       0.115959       0.257519
      17.880000       0.081510       0.115363       0.256362
      17.890000       0.081144       0.115083       0.255329
      17.900000       0.080864       0.115098       0.254377
      17.910000       0.080647       0.115377       0.253473
      17.920000       0.080473       0.115875       0.252595
      17.930000       0.080334       0.116536       0.251733
      17.940000       0.080236       0.117301       0.250896
      17.950000       0.080200       0.118107       0.250101
      17.960000       0.080252       0.118891       0.249371
      17.970000       0.080420       0.119593       0.248735
      17.980000       0.080721       0.120157       0.248225
      17.990000       0.081157       0.120533       0.247882
      18.000000       0.081709       0.120684       0.247749
      18.010000       0.082348       0.120600       0.247870
      18.020000       0.083030       0.120298       0.248270
      18.030000       0.083711       0.119827       0.248935
      18.040000       0.084352       0.119261       0.249806
      18.050000       0.084924       0.118688       0.250769
      18.060000       0.085406       0.118195       0.251683
      18.070000       0.085788       0.117854       0.252402
      18.080000       0.086067       0.117714       0.252808
      18.090000       0.086243       0.117796       0.252839
      18.100000       0.086321       0.118099       0.252495
      18.110000       0.086314       0.118598       0.251831
      18.120000       0.086243       0.119256       0.250939
      18.130000       0.086136       0.120016       0.249923
      18.140000       0.086023       0.120805       0.248885
      18.150000       0.085930       0.121539       0.247911
      18.160000       0.085875       0.122127       0.247069
      18.170000       0.085867       0.122488       0.246417
      18.180000       0.085899       0.122561       0.245995
      18.190000       0.085958       0.122316       0.245824
      18.200000       0.086020       0.121753       0.245892
      18.210000       0.086057       0.120904       0.246140
      18.220000       0.086039       0.119825       0.246457
      18.230000       0.085940       0.118586       0.246688
      18.240000       0.085738       0.117269       0.246653
      18.250000       0.085418       0.115949       0.246180
      18.260000       0.084967       0.114688       0.245126
      18.270000       0.084380       0.113531       0.243404
      18.280000       0.083653       0.112499       0.240992
      18.290000       0.082794       0.111602       0.237927
      18.300000       0.081825       0.110836       0.234304
      18.310000       0.080780       0.110195       0.230260
      18.320000       0.079702       0.109666       0.225958
      18.330000       0.078638       0.109234       0.221572
      18.340000       0.077624       0.108881       0.217263
      18.350000       0.076687       0.108585       0.213162
      18.360000       0.075832       0.108327       0.209359
      18.370000       0.075051       0.108091       0.205901
      18.380000       0.074320       0.107862       0.202800
      18.390000       0.073612       0.107624       0.200047
      18.400000       0.072898       0.107359       0.197624
      18.410000       0.072155       0.107044       0.195516
      18.420000       0.071374       0.106656       0.193715
      18.430000       0.070557       0.106174       0.192225
      18.440000       0.069721       0.105576       0.191060
      18.450000       0.068887       0.104843       0.190233
      18.460000       0.068073       0.103957       0.189751
      18.470000       0.067288       0.102904       0.189604
      18.480000       0.066535       0.101680       0.189763
      18.490000       0.065806       0.100298       0.190181
      18.500000       0.065093       0.098787       0.190799
      18.510000       0.064388       0.097193       0.191558
      18.520000       0.063690       0.095569       0.192404
      18.530000       0.063002       0.093967       0.193295
      18.540000       0.062329       0.092434       0.194199
      18.550000       0.061677       0.091004       0.195087
      18.560000       0.061053       0.089702       0.195924
      18.570000       0.060467       0.088546       0.196665
      18.580000       0.059927       0.087549       0.197254
      18.590000       0.059443       0.086717       0.197632
      18.600000       0.059024       0.086048       0.197753
      18.610000       0.058680       0.085539       0.197598
      18.620000       0.058415       0.085181       0.197189
      18.630000       0.058236       0.084963       0.196584
      18.640000       0.058150       0.084872       0.195867
      18.650000       0.058158       0.084890       0.195133
      18.660000       0.058264       0.084999       0.194471
      18.670000       0.058463       0.085177       0.193960
      18.680000       0.058749       0.085401       0.193655
      18.690000       0.059111       0.085651       0.193593
      18.700000       0.059538       0.085912       0.193791
      18.710000       0.060022       0.086170       0.194253
      18.720000       0.060560       0.086418       0.194975
      18.730000       0.061150       0.086645       0.195949
      18.740000       0.061787       0.086836       0.197166
      18.750000       0.062466       0.086971       0.198617
      18.760000       0.063175       0.087032       0.200283
      18.770000       0.063896       0.087005       0.202128
      18.780000       0.064611       0.086887       0.204094
      18.790000       0.065300       0.086687       0.206090
      18.800000       0.065948       0.086427       0.207994
      18.810000       0.066536       0.086132       0.209665
      18.820000       0.067048       0.085831       0.210951
      18.830000       0.067464       0.085547       0.211714
      18.840000       0.067763       0.085295       0.211853
      18.850000       0.067926       0.085076       0.211323
      18.860000       0.067938       0.084880       0.210150
      18.870000       0.067795       0.084685       0.208426
      18.880000       0.067502       0.084457       0.206297
      18.890000       0.067078       0.084162       0.203931
      18.900000       0.066547       0.083770       0.201492
      18.910000       0.065942       0.083267       0.199108
      18.920000       0.065293       0.082653       0.196865
      18.930000       0.064631       0.081943       0.194801
      18.940000       0.063983       0.081162       0.192931
      18.950000       0.063377       0.080335       0.191269
      18.960000       0.062843       0.079493       0.189847
      18.970000       0.062412       0.078672       0.188721
      18.980000       0.062113       0.077915       0.187973
      18.990000       0.061972       0.077272       0.187688
      19.000000       0.062002       0.076792       0.187941
      19.010000       0.062205       0.076514       0.188777
      19.020000       0.062570       0.076464       0.190205
      19.030000       0.063075       0.076644       0.192196
      19.040000       0.063689       0.077036       0.194684
      19.050000       0.064371       0.077602       0.197576
      19.060000       0.065077       0.078288       0.200763
      19.070000       0.065756       0.079023       0.204124
      19.080000       0.066357       0.079733       0.207544
      19.090000       0.066834       0.080341       0.210922
      19.100000       0.067151       0.080783       0.214170
      19.110000       0.067293       0.081012       0.217220
      19.120000       0.067261       0.081000       0.220009
      19.130000       0.067074       0.080745       0.222477
      19.140000       0.066765       0.080260       0.224556
      19.150000       0.066370       0.079579       0.226179
      19.160000       0.065930       0.078742       0.227278
      19.170000       0.065479       0.077795       0.227797
      19.180000       0.065047       0.076780       0.227698
      19.190000       0.064657       0.075728       0.226966
      19.200000       0.064325       0.074660       0.225618
      19.210000       0.064063       0.073586       0.223710
      19.220000       0.063879       0.072515       0.221337
      19.230000       0.063781       0.071458       0.218632
      19.240000       0.063774       0.070431       0.215752
      19.250000       0.063862       0.069455       0.212866
      19.260000       0.064049       0.068553       0.210128
      19.270000       0.064335       0.067750       0.207652
      19.280000       0.064719       0.067062       0.205498
      19.290000       0.065199       0.066505       0.203665
      19.300000       0.065767       0.066086       0.202102
      19.310000       0.066411       0.065810       0.200734
      19.320000       0.067115       0.065672       0.199489
      19.330000       0.067858       0.065663       0.198329
      19.340000       0.068617       0.065772       0.197255
      19.350000       0.069375       0.065990       0.196304
      19.360000       0.070120       0.066312       0.195526
      19.370000       0.070850       0.066736       0.194960
      19.380000       0.071573       0.067268       0.194612
      19.390000       0.072301       0.067914       0.194439
      19.400000       0.073051       0.068675       0.194355
      19.410000       0.073836       0.069546       0.194236
      19.420000       0.074670       0.070510       0.193946
      19.430000       0.075566       0.071539       0.193360
      19.440000       0.076540       0.072590       0.192398
      19.450000       0.077611       0.073611       0.191037
      19.460000       0.078799       0.074538       0.189320
      19.470000       0.080116       0.075303       0.187344
      19.480000       0.081559       0.075842       0.185235
      19.490000       0.083104       0.076110       0.183130
      19.500000       0.084698       0.076090       0.181149
      19.510000       0.086269       0.075796       0.179383
      19.520000       0.087725       0.075267       0.177883
      19.530000       0.088976       0.074554       0.176658
      19.540000       0.089941       0.073713       0.175681
      19.550000       0.090563       0.072795       0.174899
      19.560000       0.090819       0.071846       0.174245
      19.570000       0.090714       0.070902       0.173657
      19.580000       0.090273       0.069993       0.173087
      19.590000       0.089536       0.069144       0.172510
      19.600000       0.088545       0.068375       0.171926
      19.610000       0.087345       0.067704       0.171356
      19.620000       0.085981       0.067148       0.170834
      19.630000       0.084501       0.066722       0.170396
      19.640000       0.082956       0.066439       0.170067
      19.650000       0.081398       0.066306       0.169851
      19.660000       0.079872       0.066318       0.169723
      19.670000       0.078416       0.066456       0.169638
      19.680000       0.077052       0.066687       0.169528
      19.690000       0.075786       0.066970       0.169319
      19.700000       0.074609       0.067261       0.168937
      19.710000       0.073503       0.067520       0.168307
      19.720000       0.072444       0.067720       0.167362
      19.730000       0.071407       0.067849       0.166047
      19.740000       0.070374       0.067911       0.164327
      19.750000       0.069336       0.067919       0.162195
      19.760000       0.068288       0.067891       0.159689
      19.770000       0.067232       0.067845       0.156881
      19.780000       0.066172       0.067789       0.153869
      19.790000       0.065113       0.067717       0.150753
      19.800000       0.064060       0.067614       0.147621
      19.810000       0.063019       0.067452       0.144534
      19.820000       0.061995       0.067199       0.141536
      19.830000       0.060990       0.066823       0.138658
      19.840000       0.060006       0.066298       0.135934
      19.850000       0.059041       0.065609       0.133405
      19.860000       0.058091       0.064757       0.131121
      19.870000       0.057153       0.063759       0.129132
      19.880000       0.056225       0.062647       0.127483
      19.890000       0.055312       0.061464       0.126211
      19.900000       0.054426       0.060255       0.125333
      19.910000       0.053581       0.059062       0.124855
      19.920000       0.052792       0.057916       0.124766
      19.930000       0.052075       0.056839       0.125045
      19.940000       0.051437       0.055842       0.125665
      19.950000       0.050888       0.054936       0.126588
      19.960000       0.050429       0.054131       0.127770
      19.970000       0.050064       0.053445       0.129152
      19.980000       0.049796       0.052896       0.130667
      19.990000       0.049624       0.052501       0.132235
      20.000000       0.049546       0.052271       0.133771
