  # energy grid [eV]     epsi_x  epsi_y  epsi_z
       0.000000            NaN            NaN            NaN
       0.010000       0.006618       0.003105       0.002509
       0.020000       0.013258       0.006218       0.005039
       0.030000       0.019942       0.009346       0.007612
       0.040000       0.026691       0.012496       0.010248
       0.050000       0.033530       0.015676       0.012973
       0.060000       0.040483       0.018895       0.015810
       0.070000       0.047574       0.022160       0.018786
       0.080000       0.054832       0.025482       0.021932
       0.090000       0.062284       0.028868       0.025278
       0.100000       0.069962       0.032330       0.028862
       0.110000       0.077901       0.035877       0.032722
       0.120000       0.086137       0.039523       0.036901
       0.130000       0.094712       0.043279       0.041449
       0.140000       0.103671       0.047159       0.046417
       0.150000       0.113066       0.051178       0.051862
       0.160000       0.122952       0.055351       0.057843
       0.170000       0.133395       0.059698       0.064422
       0.180000       0.144467       0.064234       0.071662
       0.190000       0.156250       0.068981       0.079626
       0.200000       0.168838       0.073957       0.088372
       0.210000       0.182337       0.079181       0.097947
       0.220000       0.196867       0.084671       0.108375
       0.230000       0.212568       0.090444       0.119635
       0.240000       0.229596       0.096512       0.131630
       0.250000       0.248130       0.102886       0.144158
       0.260000       0.268371       0.109580       0.156876
       0.270000       0.290541       0.116610       0.169289
       0.280000       0.314886       0.124003       0.180772
       0.290000       0.341668       0.131803       0.190634
       0.300000       0.371156       0.140069       0.198227
       0.310000       0.403606       0.148875       0.203064
       0.320000       0.439233       0.158303       0.204906
       0.330000       0.478159       0.168426       0.203791
       0.340000       0.520346       0.179306       0.199997
       0.350000       0.565503       0.190969       0.193981
       0.360000       0.612971       0.203399       0.186306
       0.370000       0.661617       0.216527       0.177577
       0.380000       0.709769       0.230218       0.168387
       0.390000       0.755256       0.244285       0.159270
       0.400000       0.795615       0.258514       0.150670
       0.410000       0.828497       0.272716       0.142919
       0.420000       0.852184       0.286785       0.136247
       0.430000       0.866048       0.300764       0.130792
       0.440000       0.870760       0.314864       0.126625
       0.450000       0.868146       0.329447       0.123763
       0.460000       0.860746       0.344980       0.122183
       0.470000       0.851289       0.361961       0.121828
       0.480000       0.842257       0.380862       0.122600
       0.490000       0.835629       0.402092       0.124348
       0.500000       0.832817       0.425960       0.126858
       0.510000       0.834724       0.452659       0.129833
       0.520000       0.841863       0.482238       0.132889
       0.530000       0.854498       0.514576       0.135576
       0.540000       0.872765       0.549360       0.137419
       0.550000       0.896761       0.586084       0.137994
       0.560000       0.926613       0.624091       0.137015
       0.570000       0.962512       0.662689       0.134393
       0.580000       1.004727       0.701311       0.130256
       0.590000       1.053597       0.739699       0.124908
       0.600000       1.109478       0.778030       0.118753
       0.610000       1.172648       0.816921       0.112211
       0.620000       1.243172       0.857276       0.105655
       0.630000       1.320750       0.900018       0.099375
       0.640000       1.404576       0.945777       0.093572
       0.650000       1.493196       0.994592       0.088371
       0.660000       1.584391       1.045706       0.083835
       0.670000       1.675042       1.097503       0.079985
       0.680000       1.761051       1.147637       0.076815
       0.690000       1.837433       1.193407       0.074307
       0.700000       1.898739       1.232351       0.072433
       0.710000       1.939913       1.262930       0.071164
       0.720000       1.957425       1.285051       0.070475
       0.730000       1.950285       1.300198       0.070344
       0.740000       1.920468       1.311114       0.070754
       0.750000       1.872513       1.321156       0.071695
       0.760000       1.812498       1.333574       0.073161
       0.770000       1.746820       1.350914       0.075142
       0.780000       1.681218       1.374612       0.077621
       0.790000       1.620243       1.404756       0.080555
       0.800000       1.567126       1.439985       0.083866
       0.810000       1.523927       1.477506       0.087429
       0.820000       1.491784       1.513295       0.091062
       0.830000       1.471185       1.542543       0.094529
       0.840000       1.462195       1.560369       0.097553
       0.850000       1.464617       1.562706       0.099853
       0.860000       1.478120       1.547129       0.101187
       0.870000       1.502301       1.513343       0.101403
       0.880000       1.536734       1.463183       0.100480
       0.890000       1.581009       1.400137       0.098523
       0.900000       1.634782       1.328582       0.095742
       0.910000       1.697876       1.252997       0.092391
       0.920000       1.770434       1.177346       0.088725
       0.930000       1.853080       1.104745       0.084957
       0.940000       1.947039       1.037376       0.081249
       0.950000       2.054140       0.976579       0.077717
       0.960000       2.176695       0.923033       0.074443
       0.970000       2.317275       0.876946       0.071486
       0.980000       2.478440       0.838225       0.068888
       0.990000       2.662440       0.806605       0.066681
       1.000000       2.870883       0.781733       0.064884
       1.010000       3.104319       0.763220       0.063507
       1.020000       3.361709       0.750666       0.062552
       1.030000       3.639796       0.743661       0.062014
       1.040000       3.932452       0.741769       0.061891
       1.050000       4.230243       0.744516       0.062177
       1.060000       4.520497       0.751374       0.062874
       1.070000       4.788221       0.761775       0.063987
       1.080000       5.017988       0.775152       0.065524
       1.090000       5.196460       0.791009       0.067493
       1.100000       5.314751       0.808999       0.069900
       1.110000       5.369624       0.828977       0.072744
       1.120000       5.362962       0.850988       0.076014
       1.130000       5.299822       0.875191       0.079692
       1.140000       5.186183       0.901757       0.083749
       1.150000       5.027589       0.930766       0.088149
       1.160000       4.829204       0.962146       0.092846
       1.170000       4.596823       0.995631       0.097778
       1.180000       4.337864       1.030711       0.102850
       1.190000       4.061497       1.066606       0.107920
       1.200000       3.777811       1.102268       0.112782
       1.210000       3.496477       1.136515       0.117161
       1.220000       3.225568       1.168292       0.120734
       1.230000       2.970907       1.197039       0.123177
       1.240000       2.735968       1.223003       0.124238
       1.250000       2.522173       1.247346       0.123803
       1.260000       2.329362       1.271996       0.121937
       1.270000       2.156300       1.299284       0.118877
       1.280000       2.001143       1.331512       0.114968
       1.290000       1.861834       1.370578       0.110600
       1.300000       1.736415       1.417688       0.106136
       1.310000       1.623219       1.473155       0.101871
       1.320000       1.520944       1.536226       0.098023
       1.330000       1.428628       1.604963       0.094732
       1.340000       1.345561       1.676189       0.092074
       1.350000       1.271189       1.745633       0.090080
       1.360000       1.205040       1.808388       0.088749
       1.370000       1.146681       1.859722       0.088059
       1.380000       1.095703       1.896130       0.087977
       1.390000       1.051716       1.916280       0.088465
       1.400000       1.014355       1.921460       0.089487
       1.410000       0.983281       1.915309       0.091012
       1.420000       0.958186       1.902953       0.093014
       1.430000       0.938772       1.889910       0.095471
       1.440000       0.924739       1.881138       0.098372
       1.450000       0.915745       1.880411       0.101714
       1.460000       0.911362       1.890021       0.105500
       1.470000       0.911018       1.910698       0.109738
       1.480000       0.913942       1.941651       0.114425
       1.490000       0.919138       1.980704       0.119535
       1.500000       0.925394       2.024568       0.125007
       1.510000       0.931380       2.069301       0.130744
       1.520000       0.935829       2.110983       0.136621
       1.530000       0.937773       2.146455       0.142512
       1.540000       0.936767       2.173905       0.148306
       1.550000       0.933007       2.193024       0.153922
       1.560000       0.927287       2.204681       0.159306
       1.570000       0.920797       2.210287       0.164402
       1.580000       0.914861       2.211165       0.169133
       1.590000       0.910678       2.208207       0.173376
       1.600000       0.909162       2.201827       0.176969
       1.610000       0.910866       2.192115       0.179733
       1.620000       0.916004       2.179000       0.181500
       1.630000       0.924533       2.162390       0.182144
       1.640000       0.936274       2.142333       0.181601
       1.650000       0.951053       2.119266       0.179885
       1.660000       0.968798       2.094268       0.177083
       1.670000       0.989564       2.069146       0.173361
       1.680000       1.013465       2.046225       0.168953
       1.690000       1.040539       2.027865       0.164143
       1.700000       1.070604       2.015887       0.159232
       1.710000       1.103164       2.011079       0.154502
       1.720000       1.137426       2.012944       0.150180
       1.730000       1.172430       2.019742       0.146415
       1.740000       1.207289       2.028851       0.143274
       1.750000       1.241451       2.037392       0.140756
       1.760000       1.274893       2.042970       0.138813
       1.770000       1.308142       2.044295       0.137382
       1.780000       1.342084       2.041426       0.136404
       1.790000       1.377622       2.035509       0.135838
       1.800000       1.415306       2.028112       0.135654
       1.810000       1.455079       2.020416       0.135828
       1.820000       1.496233       2.012586       0.136327
       1.830000       1.537600       2.003519       0.137105
       1.840000       1.577936       1.991058       0.138097
       1.850000       1.616347       1.972568       0.139220
       1.860000       1.652588       1.945656       0.140373
       1.870000       1.687078       1.908781       0.141453
       1.880000       1.720624       1.861563       0.142371
       1.890000       1.753986       1.804782       0.143077
       1.900000       1.787490       1.740151       0.143573
       1.910000       1.820885       1.670019       0.143915
       1.920000       1.853498       1.597062       0.144191
       1.930000       1.884607       1.524003       0.144502
       1.940000       1.913831       1.453380       0.144939
       1.950000       1.941340       1.387378       0.145566
       1.960000       1.967737       1.327722       0.146420
       1.970000       1.993686       1.275626       0.147504
       1.980000       2.019477       1.231798       0.148792
       1.990000       2.044756       1.196474       0.150234
       2.000000       2.068561       1.169456       0.151757
       2.010000       2.089612       1.150160       0.153264
       2.020000       2.106655       1.137641       0.154638
       2.030000       2.118653       1.130610       0.155746
       2.040000       2.124750       1.127480       0.156461
       2.050000       2.124104       1.126464       0.156682
       2.060000       2.115773       1.125763       0.156359
       2.070000       2.098751       1.123843       0.155508
       2.080000       2.072110       1.119731       0.154210
       2.090000       2.035156       1.113224       0.152587
       2.100000       1.987538       1.104916       0.150777
       2.110000       1.929353       1.096002       0.148897
       2.120000       1.861236       1.087919       0.147024
       2.130000       1.784433       1.081974       0.145198
       2.140000       1.700760       1.079035       0.143427
       2.150000       1.612452       1.079365       0.141706
       2.160000       1.521916       1.082600       0.140021
       2.170000       1.431462       1.087831       0.138359
       2.180000       1.343087       1.093760       0.136699
       2.190000       1.258350       1.098882       0.135020
       2.200000       1.178354       1.101665       0.133302
       2.210000       1.103796       1.100718       0.131539
       2.220000       1.035057       1.094992       0.129741
       2.230000       0.972286       1.083964       0.127930
       2.240000       0.915467       1.067778       0.126131
       2.250000       0.864471       1.047255       0.124369
       2.260000       0.819080       1.023746       0.122661
       2.270000       0.779011       0.998855       0.121028
       2.280000       0.743921       0.974130       0.119502
       2.290000       0.713404       0.950776       0.118132
       2.300000       0.686993       0.929460       0.116977
       2.310000       0.664159       0.910231       0.116094
       2.320000       0.644336       0.892552       0.115522
       2.330000       0.626964       0.875468       0.115268
       2.340000       0.611548       0.857861       0.115306
       2.350000       0.597734       0.838758       0.115583
       2.360000       0.585355       0.817608       0.116038
       2.370000       0.574439       0.794446       0.116627
       2.380000       0.565172       0.769877       0.117337
       2.390000       0.557835       0.744922       0.118187
       2.400000       0.552726       0.720781       0.119219
       2.410000       0.550115       0.698611       0.120471
       2.420000       0.550202       0.679380       0.121956
       2.430000       0.553096       0.663800       0.123649
       2.440000       0.558800       0.652319       0.125480
       2.450000       0.567197       0.645154       0.127336
       2.460000       0.578033       0.642325       0.129074
       2.470000       0.590901       0.643681       0.130542
       2.480000       0.605252       0.648925       0.131597
       2.490000       0.620408       0.657609       0.132129
       2.500000       0.635614       0.669127       0.132081
       2.510000       0.650093       0.682685       0.131461
       2.520000       0.663122       0.697276       0.130344
       2.530000       0.674111       0.711679       0.128856
       2.540000       0.682697       0.724533       0.127146
       2.550000       0.688827       0.734491       0.125358
       2.560000       0.692817       0.740453       0.123603
       2.570000       0.695340       0.741799       0.121948
       2.580000       0.697325       0.738530       0.120417
       2.590000       0.699799       0.731257       0.119002
       2.600000       0.703704       0.721018       0.117683
       2.610000       0.709753       0.708994       0.116448
       2.620000       0.718322       0.696211       0.115302
       2.630000       0.729417       0.683318       0.114264
       2.640000       0.742705       0.670498       0.113358
       2.650000       0.757594       0.657518       0.112598
       2.660000       0.773385       0.643908       0.111982
       2.670000       0.789443       0.629204       0.111487
       2.680000       0.805358       0.613178       0.111071
       2.690000       0.821028       0.595968       0.110676
       2.700000       0.836638       0.578064       0.110239
       2.710000       0.852529       0.560185       0.109708
       2.720000       0.869020       0.543093       0.109055
       2.730000       0.886257       0.527445       0.108290
       2.740000       0.904138       0.513694       0.107454
       2.750000       0.922320       0.502065       0.106609
       2.760000       0.940264       0.492569       0.105817
       2.770000       0.957280       0.485054       0.105123
       2.780000       0.972552       0.479267       0.104553
       2.790000       0.985146       0.474929       0.104116
       2.800000       0.994038       0.471801       0.103811
       2.810000       0.998168       0.469724       0.103633
       2.820000       0.996522       0.468632       0.103582
       2.830000       0.988242       0.468511       0.103662
       2.840000       0.972771       0.469342       0.103878
       2.850000       0.950011       0.471043       0.104235
       2.860000       0.920460       0.473438       0.104716
       2.870000       0.885229       0.476261       0.105282
       2.880000       0.845919       0.479192       0.105855
       2.890000       0.804369       0.481908       0.106336
       2.900000       0.762363       0.484132       0.106617
       2.910000       0.721402       0.485671       0.106608
       2.920000       0.682581       0.486447       0.106266
       2.930000       0.646578       0.486512       0.105597
       2.940000       0.613711       0.486047       0.104663
       2.950000       0.584023       0.485341       0.103559
       2.960000       0.557368       0.484738       0.102393
       2.970000       0.533486       0.484579       0.101267
       2.980000       0.512064       0.485154       0.100260
       2.990000       0.492777       0.486667       0.099427
       3.000000       0.475303       0.489214       0.098801
       3.010000       0.459330       0.492762       0.098397
       3.020000       0.444544       0.497124       0.098218
       3.030000       0.430637       0.501956       0.098255
       3.040000       0.417329       0.506775       0.098478
       3.050000       0.404416       0.511027       0.098840
       3.060000       0.391803       0.514184       0.099281
       3.070000       0.379520       0.515858       0.099745
       3.080000       0.367702       0.515897       0.100193
       3.090000       0.356544       0.514417       0.100620
       3.100000       0.346261       0.511763       0.101050
       3.110000       0.337045       0.508406       0.101524
       3.120000       0.329045       0.504807       0.102079
       3.130000       0.322356       0.501301       0.102734
       3.140000       0.317023       0.498042       0.103480
       3.150000       0.313045       0.495023       0.104281
       3.160000       0.310378       0.492163       0.105081
       3.170000       0.308935       0.489406       0.105808
       3.180000       0.308582       0.486804       0.106382
       3.190000       0.309137       0.484523       0.106722
       3.200000       0.310357       0.482804       0.106754
       3.210000       0.311955       0.481882       0.106418
       3.220000       0.313616       0.481935       0.105676
       3.230000       0.315044       0.483055       0.104526
       3.240000       0.316009       0.485264       0.102998
       3.250000       0.316392       0.488537       0.101158
       3.260000       0.316204       0.492823       0.099093
       3.270000       0.315569       0.498064       0.096907
       3.280000       0.314691       0.504217       0.094700
       3.290000       0.313810       0.511283       0.092564
       3.300000       0.313177       0.519339       0.090568
       3.310000       0.313032       0.528557       0.088758
       3.320000       0.313597       0.539178       0.087157
       3.330000       0.315071       0.551453       0.085776
       3.340000       0.317617       0.565549       0.084615
       3.350000       0.321345       0.581466       0.083673
       3.360000       0.326303       0.598962       0.082953
       3.370000       0.332461       0.617536       0.082464
       3.380000       0.339706       0.636438       0.082221
       3.390000       0.347852       0.654726       0.082250
       3.400000       0.356667       0.671371       0.082576
       3.410000       0.365916       0.685407       0.083213
       3.420000       0.375419       0.696118       0.084160
       3.430000       0.385094       0.703219       0.085383
       3.440000       0.394976       0.706949       0.086813
       3.450000       0.405180       0.708024       0.088349
       3.460000       0.415837       0.707457       0.089861
       3.470000       0.427020       0.706297       0.091215
       3.480000       0.438693       0.705409       0.092290
       3.490000       0.450690       0.705329       0.093005
       3.500000       0.462743       0.706251       0.093334
       3.510000       0.474523       0.708114       0.093306
       3.520000       0.485694       0.710732       0.092992
       3.530000       0.495932       0.713934       0.092482
       3.540000       0.504917       0.717633       0.091872
       3.550000       0.512307       0.721831       0.091245
       3.560000       0.517718       0.726552       0.090674
       3.570000       0.520757       0.731759       0.090227
       3.580000       0.521079       0.737295       0.089967
       3.590000       0.518480       0.742880       0.089954
       3.600000       0.512970       0.748170       0.090236
       3.610000       0.504796       0.752870       0.090841
       3.620000       0.494431       0.756859       0.091761
       3.630000       0.482495       0.760255       0.092944
       3.640000       0.469664       0.763407       0.094296
       3.650000       0.456577       0.766781       0.095682
       3.660000       0.443784       0.770813       0.096947
       3.670000       0.431722       0.775793       0.097939
       3.680000       0.420722       0.781823       0.098531
       3.690000       0.411028       0.788862       0.098649
       3.700000       0.402808       0.796826       0.098278
       3.710000       0.396164       0.805687       0.097455
       3.720000       0.391139       0.815541       0.096264
       3.730000       0.387723       0.826624       0.094818
       3.740000       0.385862       0.839270       0.093243
       3.750000       0.385466       0.853811       0.091664
       3.760000       0.386415       0.870453       0.090187
       3.770000       0.388569       0.889138       0.088895
       3.780000       0.391781       0.909443       0.087841
       3.790000       0.395918       0.930530       0.087046
       3.800000       0.400885       0.951173       0.086505
       3.810000       0.406645       0.969847       0.086193
       3.820000       0.413221       0.984863       0.086069
       3.830000       0.420692       0.994565       0.086086
       3.840000       0.429159       0.997570       0.086204
       3.850000       0.438721       0.993007       0.086397
       3.860000       0.449458       0.980705       0.086657
       3.870000       0.461415       0.961244       0.086997
       3.880000       0.474617       0.935853       0.087451
       3.890000       0.489074       0.906187       0.088064
       3.900000       0.504796       0.874050       0.088888
       3.910000       0.521785       0.841169       0.089973
       3.920000       0.540017       0.809044       0.091359
       3.930000       0.559418       0.778891       0.093066
       3.940000       0.579854       0.751633       0.095093
       3.950000       0.601141       0.727920       0.097410
       3.960000       0.623078       0.708148       0.099949
       3.970000       0.645485       0.692482       0.102602
       3.980000       0.668222       0.680878       0.105228
       3.990000       0.691195       0.673114       0.107661
       4.000000       0.714347       0.668814       0.109742
       4.010000       0.737662       0.667494       0.111344
       4.020000       0.761166       0.668601       0.112406
       4.030000       0.784965       0.671560       0.112944
       4.040000       0.809277       0.675805       0.113048
       4.050000       0.834473       0.680801       0.112860
       4.060000       0.861095       0.686058       0.112540
       4.070000       0.889833       0.691151       0.112241
       4.080000       0.921463       0.695759       0.112088
       4.090000       0.956772       0.699703       0.112177
       4.100000       0.996488       0.702978       0.112577
       4.110000       1.041243       0.705745       0.113335
       4.120000       1.091555       0.708285       0.114484
       4.130000       1.147818       0.710926       0.116044
       4.140000       1.210279       0.713983       0.118027
       4.150000       1.278999       0.717720       0.120439
       4.160000       1.353793       0.722356       0.123271
       4.170000       1.434174       0.728078       0.126502
       4.180000       1.519314       0.735049       0.130088
       4.190000       1.608019       0.743388       0.133956
       4.200000       1.698738       0.753136       0.138003
       4.210000       1.789592       0.764220       0.142105
       4.220000       1.878445       0.776447       0.146126
       4.230000       1.963038       0.789532       0.149936
       4.240000       2.041174       0.803142       0.153424
       4.250000       2.110926       0.816949       0.156501
       4.260000       2.170794       0.830674       0.159102
       4.270000       2.219782       0.844123       0.161181
       4.280000       2.257411       0.857214       0.162728
       4.290000       2.283755       0.869993       0.163773
       4.300000       2.299511       0.882647       0.164398
       4.310000       2.306077       0.895492       0.164734
       4.320000       2.305508       0.908944       0.164930
       4.330000       2.300260       0.923466       0.165134
       4.340000       2.292767       0.939508       0.165461
       4.350000       2.285021       0.957446       0.165981
       4.360000       2.278312       0.977526       0.166726
       4.370000       2.273187       0.999824       0.167689
       4.380000       2.269572       1.024229       0.168841
       4.390000       2.266939       1.050482       0.170138
       4.400000       2.264465       1.078246       0.171525
       4.410000       2.261215       1.107209       0.172946
       4.420000       2.256373       1.137149       0.174348
       4.430000       2.249474       1.167964       0.175684
       4.440000       2.240519       1.199619       0.176921
       4.450000       2.229864       1.232061       0.178046
       4.460000       2.217947       1.265132       0.179060
       4.470000       2.205008       1.298541       0.179982
       4.480000       2.190988       1.331914       0.180838
       4.490000       2.175690       1.364887       0.181653
       4.500000       2.159084       1.397217       0.182447
       4.510000       2.141586       1.428837       0.183227
       4.520000       2.124122       1.459882       0.183991
       4.530000       2.107918       1.490670       0.184729
       4.540000       2.094092       1.521672       0.185428
       4.550000       2.083221       1.553429       0.186078
       4.560000       2.075067       1.586423       0.186671
       4.570000       2.068599       1.620886       0.187198
       4.580000       2.062330       1.656573       0.187647
       4.590000       2.054886       1.692599       0.188006
       4.600000       2.045593       1.727396       0.188264
       4.610000       2.034854       1.758865       0.188420
       4.620000       2.024164       1.784698       0.188479
       4.630000       2.015794       1.802800       0.188449
       4.640000       2.012284       1.811701       0.188325
       4.650000       2.015952       1.810864       0.188087
       4.660000       2.028524       1.800817       0.187697
       4.670000       2.050919       1.783085       0.187109
       4.680000       2.083176       1.759954       0.186274
       4.690000       2.124471       1.734109       0.185154
       4.700000       2.173220       1.708241       0.183716
       4.710000       2.227248       1.684696       0.181943
       4.720000       2.284050       1.665234       0.179835
       4.730000       2.341103       1.650929       0.177416
       4.740000       2.396175       1.642179       0.174737
       4.750000       2.447567       1.638782       0.171883
       4.760000       2.494195       1.640047       0.168970
       4.770000       2.535463       1.644901       0.166130
       4.780000       2.570961       1.652014       0.163501
       4.790000       2.600104       1.659947       0.161206
       4.800000       2.621907       1.667317       0.159335
       4.810000       2.635048       1.672944       0.157938
       4.820000       2.638210       1.675937       0.157015
       4.830000       2.630539       1.675712       0.156519
       4.840000       2.611970       1.671941       0.156372
       4.850000       2.583269       1.664507       0.156475
       4.860000       2.545777       1.653476       0.156729
       4.870000       2.501043       1.639123       0.157052
       4.880000       2.450512       1.622001       0.157388
       4.890000       2.395407       1.602991       0.157697
       4.900000       2.336791       1.583293       0.157950
       4.910000       2.275718       1.564327       0.158113
       4.920000       2.213371       1.547536       0.158131
       4.930000       2.151092       1.534164       0.157939
       4.940000       2.090337       1.525050       0.157468
       4.950000       2.032565       1.520487       0.156670
       4.960000       1.979139       1.520192       0.155530
       4.970000       1.931249       1.523359       0.154079
       4.980000       1.889859       1.528802       0.152385
       4.990000       1.855689       1.535116       0.150540
       5.000000       1.829218       1.540843       0.148646
       5.010000       1.810693       1.544618       0.146795
       5.020000       1.800154       1.545302       0.145057
       5.030000       1.797437       1.542139       0.143471
       5.040000       1.802159       1.534893       0.142045
       5.050000       1.813652       1.523931       0.140755
       5.060000       1.830903       1.510169       0.139561
       5.070000       1.852510       1.494884       0.138427
       5.080000       1.876740       1.479416       0.137337
       5.090000       1.901678       1.464886       0.136308
       5.100000       1.925421       1.451988       0.135394
       5.110000       1.946261       1.440918       0.134673
       5.120000       1.962762       1.431421       0.134231
       5.130000       1.973733       1.422906       0.134140
       5.140000       1.978189       1.414633       0.134448
       5.150000       1.975379       1.405930       0.135168
       5.160000       1.964943       1.396388       0.136279
       5.170000       1.947114       1.385974       0.137731
       5.180000       1.922874       1.375010       0.139452
       5.190000       1.893951       1.364042       0.141362
       5.200000       1.862668       1.353662       0.143384
       5.210000       1.831673       1.344353       0.145445
       5.220000       1.803632       1.336395       0.147484
       5.230000       1.780942       1.329829       0.149444
       5.240000       1.765509       1.324462       0.151272
       5.250000       1.758624       1.319900       0.152917
       5.260000       1.760930       1.315589       0.154329
       5.270000       1.772470       1.310889       0.155460
       5.280000       1.792781       1.305184       0.156276
       5.290000       1.821025       1.298009       0.156763
       5.300000       1.856098       1.289168       0.156931
       5.310000       1.896696       1.278788       0.156818
       5.320000       1.941306       1.267269       0.156476
       5.330000       1.988184       1.255157       0.155958
       5.340000       2.035366       1.242989       0.155297
       5.350000       2.080800       1.231173       0.154495
       5.360000       2.122590       1.219949       0.153521
       5.370000       2.159299       1.209437       0.152318
       5.380000       2.190193       1.199759       0.150822
       5.390000       2.215331       1.191153       0.148980
       5.400000       2.235442       1.184030       0.146773
       5.410000       2.251627       1.178922       0.144230
       5.420000       2.264967       1.176342       0.141434
       5.430000       2.276184       1.176618       0.138514
       5.440000       2.285463       1.179775       0.135630
       5.450000       2.292505       1.185521       0.132943
       5.460000       2.296754       1.193333       0.130596
       5.470000       2.297688       1.202607       0.128701
       5.480000       2.295020       1.212807       0.127329
       5.490000       2.288730       1.223529       0.126521
       5.500000       2.278927       1.234482       0.126288
       5.510000       2.265652       1.245394       0.126616
       5.520000       2.248714       1.255940       0.127472
       5.530000       2.227650       1.265735       0.128805
       5.540000       2.201814       1.274444       0.130548
       5.550000       2.170582       1.281939       0.132626
       5.560000       2.133608       1.288452       0.134963
       5.570000       2.091022       1.294615       0.137490
       5.580000       2.043488       1.301353       0.140157
       5.590000       1.992089       1.309669       0.142934
       5.600000       1.938108       1.320395       0.145804
       5.610000       1.882811       1.334015       0.148749
       5.620000       1.827332       1.350594       0.151746
       5.630000       1.772677       1.369837       0.154751
       5.640000       1.719800       1.391201       0.157713
       5.650000       1.669676       1.414010       0.160579
       5.660000       1.623291       1.437505       0.163311
       5.670000       1.581556       1.460862       0.165892
       5.680000       1.545197       1.483202       0.168338
       5.690000       1.514665       1.503643       0.170693
       5.700000       1.490114       1.521387       0.173020
       5.710000       1.471431       1.535810       0.175385
       5.720000       1.458314       1.546501       0.177837
       5.730000       1.450358       1.553248       0.180396
       5.740000       1.447154       1.555999       0.183043
       5.750000       1.448379       1.554863       0.185724
       5.760000       1.453863       1.550139       0.188365
       5.770000       1.463636       1.542371       0.190886
       5.780000       1.477949       1.532329       0.193216
       5.790000       1.497259       1.520887       0.195306
       5.800000       1.522178       1.508819       0.197133
       5.810000       1.553381       1.496599       0.198704
       5.820000       1.591499       1.484292       0.200041
       5.830000       1.636996       1.471563       0.201175
       5.840000       1.690045       1.457791       0.202131
       5.850000       1.750377       1.442220       0.202926
       5.860000       1.817141       1.424102       0.203576
       5.870000       1.888782       1.402807       0.204099
       5.880000       1.963043       1.377922       0.204519
       5.890000       2.037098       1.349325       0.204860
       5.900000       2.107858       1.317237       0.205133
       5.910000       2.172366       1.282225       0.205322
       5.920000       2.228187       1.245150       0.205391
       5.930000       2.273715       1.207080       0.205283
       5.940000       2.308331       1.169199       0.204938
       5.950000       2.332427       1.132721       0.204304
       5.960000       2.347297       1.098809       0.203346
       5.970000       2.354903       1.068494       0.202053
       5.980000       2.357574       1.042601       0.200445
       5.990000       2.357669       1.021673       0.198570
       6.000000       2.357292       1.005930       0.196504
       6.010000       2.358080       0.995251       0.194350
       6.020000       2.361095       0.989182       0.192219
       6.030000       2.366825       0.986987       0.190216
       6.040000       2.375259       0.987735       0.188423
       6.050000       2.386023       0.990424       0.186885
       6.060000       2.398529       0.994110       0.185611
       6.070000       2.412109       0.998022       0.184584
       6.080000       2.426121       1.001599       0.183774
       6.090000       2.440009       1.004451       0.183160
       6.100000       2.453288       1.006260       0.182744
       6.110000       2.465469       1.006685       0.182552
       6.120000       2.475988       1.005340       0.182633
       6.130000       2.484225       1.001872       0.183045
       6.140000       2.489634       0.996112       0.183846
       6.150000       2.491917       0.988206       0.185084
       6.160000       2.491112       0.978646       0.186797
       6.170000       2.487546       0.968178       0.189011
       6.180000       2.481711       0.957631       0.191743
       6.190000       2.474137       0.947755       0.194997
       6.200000       2.465331       0.939143       0.198763
       6.210000       2.455763       0.932231       0.203006
       6.220000       2.445826       0.927355       0.207667
       6.230000       2.435749       0.924797       0.212651
       6.240000       2.425504       0.924805       0.217832
       6.250000       2.414761       0.927570       0.223060
       6.260000       2.402952       0.933209       0.228171
       6.270000       2.389437       0.941762       0.233017
       6.280000       2.373694       0.953198       0.237478
       6.290000       2.355474       0.967445       0.241481
       6.300000       2.334825       0.984408       0.244998
       6.310000       2.311988       1.003986       0.248041
       6.320000       2.287221       1.026082       0.250648
       6.330000       2.260622       1.050590       0.252870
       6.340000       2.232067       1.077368       0.254753
       6.350000       2.201264       1.106205       0.256328
       6.360000       2.167895       1.136777       0.257596
       6.370000       2.131769       1.168621       0.258530
       6.380000       2.092931       1.201113       0.259071
       6.390000       2.051732       1.233479       0.259146
       6.400000       2.008852       1.264823       0.258688
       6.410000       1.965266       1.294180       0.257653
       6.420000       1.922150       1.320567       0.256047
       6.430000       1.880733       1.343020       0.253931
       6.440000       1.842154       1.360628       0.251424
       6.450000       1.807375       1.372578       0.248684
       6.460000       1.777160       1.378221       0.245880
       6.470000       1.752106       1.377160       0.243167
       6.480000       1.732652       1.369331       0.240662
       6.490000       1.719052       1.355067       0.238430
       6.500000       1.711300       1.335107       0.236478
       6.510000       1.709057       1.310532       0.234770
       6.520000       1.711612       1.282623       0.233240
       6.530000       1.717926       1.252699       0.231820
       6.540000       1.726750       1.221962       0.230455
       6.550000       1.736830       1.191411       0.229127
       6.560000       1.747129       1.161822       0.227866
       6.570000       1.757005       1.133750       0.226745
       6.580000       1.766294       1.107537       0.225875
       6.590000       1.775272       1.083315       0.225383
       6.600000       1.784518       1.061039       0.225386
       6.610000       1.794708       1.040555       0.225976
       6.620000       1.806360       1.021691       0.227204
       6.630000       1.819581       1.004322       0.229079
       6.640000       1.833896       0.988392       0.231583
       6.650000       1.848225       0.973881       0.234679
       6.660000       1.861070       0.960760       0.238321
       6.670000       1.870853       0.948949       0.242461
       6.680000       1.876331       0.938315       0.247045
       6.690000       1.876954       0.928683       0.252001
       6.700000       1.873069       0.919887       0.257229
       6.710000       1.865908       0.911845       0.262594
       6.720000       1.857397       0.904630       0.267934
       6.730000       1.849864       0.898526       0.273077
       6.740000       1.845709       0.894022       0.277865
       6.750000       1.847140       0.891757       0.282177
       6.760000       1.855974       0.892417       0.285952
       6.770000       1.873520       0.896628       0.289175
       6.780000       1.900525       0.904845       0.291870
       6.790000       1.937148       0.917259       0.294076
       6.800000       1.982947       0.933738       0.295833
       6.810000       2.036853       0.953784       0.297187
       6.820000       2.097182       0.976519       0.298188
       6.830000       2.161688       1.000716       0.298910
       6.840000       2.227730       1.024873       0.299453
       6.850000       2.292522       1.047354       0.299942
       6.860000       2.353444       1.066586       0.300507
       6.870000       2.408300       1.081271       0.301264
       6.880000       2.455457       1.090571       0.302299
       6.890000       2.493837       1.094212       0.303647
       6.900000       2.522775       1.092490       0.305291
       6.910000       2.541827       1.086200       0.307168
       6.920000       2.550644       1.076506       0.309182
       6.930000       2.548985       1.064769       0.311232
       6.940000       2.536885       1.052363       0.313234
       6.950000       2.514888       1.040506       0.315140
       6.960000       2.484224       1.030156       0.316937
       6.970000       2.446808       1.021987       0.318630
       6.980000       2.405083       1.016446       0.320231
       6.990000       2.361752       1.013848       0.321738
       7.000000       2.319499       1.014451       0.323138
       7.010000       2.280719       1.018481       0.324413
       7.020000       2.247301       1.026113       0.325547
       7.030000       2.220454       1.037406       0.326543
       7.040000       2.200624       1.052247       0.327424
       7.050000       2.187528       1.070296       0.328239
       7.060000       2.180309       1.090966       0.329057
       7.070000       2.177760       1.113430       0.329958
       7.080000       2.178569       1.136680       0.331011
       7.090000       2.181513       1.159656       0.332249
       7.100000       2.185569       1.181403       0.333652
       7.110000       2.189933       1.201213       0.335143
       7.120000       2.193944       1.218678       0.336599
       7.130000       2.196986       1.233648       0.337889
       7.140000       2.198426       1.246133       0.338898
       7.150000       2.197665       1.256203       0.339557
       7.160000       2.194269       1.263935       0.339839
       7.170000       2.188105       1.269413       0.339755
       7.180000       2.179384       1.272766       0.339345
       7.190000       2.168557       1.274203       0.338663
       7.200000       2.156125       1.274050       0.337785
       7.210000       2.142457       1.272728       0.336805
       7.220000       2.127688       1.270689       0.335835
       7.230000       2.111742       1.268306       0.335002
       7.240000       2.094446       1.265753       0.334437
       7.250000       2.075676       1.262925       0.334263
       7.260000       2.055475       1.259448       0.334591
       7.270000       2.034111       1.254806       0.335507
       7.280000       2.012054       1.248568       0.337078
       7.290000       1.989901       1.240618       0.339345
       7.300000       1.968291       1.231329       0.342317
       7.310000       1.947875       1.221574       0.345972
       7.320000       1.929367       1.212605       0.350257
       7.330000       1.913625       1.205835       0.355097
       7.340000       1.901663       1.202598       0.360409
       7.350000       1.894533       1.203932       0.366120
       7.360000       1.893062       1.210423       0.372171
       7.370000       1.897538       1.222098       0.378515
       7.380000       1.907447       1.238390       0.385104
       7.390000       1.921379       1.258163       0.391882
       7.400000       1.937129       1.279818       0.398779
       7.410000       1.952010       1.301465       0.405711
       7.420000       1.963320       1.321143       0.412593
       7.430000       1.968842       1.337066       0.419344
       7.440000       1.967238       1.347824       0.425902
       7.450000       1.958211       1.352519       0.432234
       7.460000       1.942398       1.350801       0.438337
       7.470000       1.921052       1.342820       0.444247
       7.480000       1.895651       1.329114       0.450032
       7.490000       1.867551       1.310470       0.455794
       7.500000       1.837810       1.287785       0.461659
       7.510000       1.807187       1.261968       0.467772
       7.520000       1.776314       1.233931       0.474275
       7.530000       1.745918       1.204637       0.481286
       7.540000       1.716987       1.175167       0.488885
       7.550000       1.690774       1.146729       0.497107
       7.560000       1.668649       1.120570       0.505953
       7.570000       1.651870       1.097833       0.515415
       7.580000       1.641362       1.079401       0.525486
       7.590000       1.637580       1.065787       0.536164
       7.600000       1.640445       1.057085       0.547438
       7.610000       1.649359       1.052972       0.559273
       7.620000       1.663265       1.052785       0.571589
       7.630000       1.680776       1.055648       0.584272
       7.640000       1.700371       1.060648       0.597183
       7.650000       1.720649       1.067034       0.610181
       7.660000       1.740606       1.074367       0.623145
       7.670000       1.759838       1.082595       0.635986
       7.680000       1.778614       1.092034       0.648656
       7.690000       1.797791       1.103278       0.661150
       7.700000       1.818621       1.117084       0.673502
       7.710000       1.842517       1.134252       0.685780
       7.720000       1.870833       1.155541       0.698072
       7.730000       1.904686       1.181602       0.710477
       7.740000       1.944795       1.212916       0.723098
       7.750000       1.991329       1.249726       0.736026
       7.760000       2.043759       1.291945       0.749342
       7.770000       2.100761       1.339058       0.763108
       7.780000       2.160231       1.390066       0.777367
       7.790000       2.219446       1.443477       0.792135
       7.800000       2.275373       1.497381       0.807389
       7.810000       2.325043       1.549631       0.823059
       7.820000       2.365928       1.598097       0.839033
       7.830000       2.396228       1.641001       0.855185
       7.840000       2.415029       1.677240       0.871400
       7.850000       2.422314       1.706606       0.887597
       7.860000       2.418849       1.729810       0.903724
       7.870000       2.405978       1.748260       0.919736
       7.880000       2.385362       1.763646       0.935586
       7.890000       2.358735       1.777457       0.951229
       7.900000       2.327703       1.790607       0.966652
       7.910000       2.293651       1.803280       0.981895
       7.920000       2.257741       1.815046       0.997061
       7.930000       2.220995       1.825174       1.012312
       7.940000       2.184407       1.833009       1.027855
       7.950000       2.149016       1.838260       1.043916
       7.960000       2.115922       1.841119       1.060691
       7.970000       2.086239       1.842204       1.078294
       7.980000       2.060994       1.842407       1.096697
       7.990000       2.041010       1.842698       1.115715
       8.000000       2.026771       1.843956       1.135033
       8.010000       2.018315       1.846828       1.154282
       8.020000       2.015144       1.851598       1.173111
       8.030000       2.016189       1.858094       1.191227
       8.040000       2.019848       1.865650       1.208358
       8.050000       2.024137       1.873194       1.224184
       8.060000       2.026955       1.879470       1.238268
       8.070000       2.026466       1.883380       1.250061
       8.080000       2.021488       1.884317       1.259002
       8.090000       2.011749       1.882346       1.264668
       8.100000       1.997892       1.878145       1.266910
       8.110000       1.981205       1.872708       1.265930
       8.120000       1.963189       1.866955       1.262249
       8.130000       1.945120       1.861382       1.256616
       8.140000       1.927732       1.855866       1.249874
       8.150000       1.911099       1.849641       1.242853
       8.160000       1.894700       1.841453       1.236294
       8.170000       1.877651       1.829832       1.230804
       8.180000       1.859033       1.813440       1.226832
       8.190000       1.838215       1.791405       1.224654
       8.200000       1.815076       1.763570       1.224373
       8.210000       1.790036       1.730558       1.225946
       8.220000       1.763920       1.693645       1.229233
       8.230000       1.737699       1.654459       1.234090
       8.240000       1.712231       1.614622       1.240444
       8.250000       1.688069       1.575452       1.248358
       8.260000       1.665403       1.537824       1.258026
       8.270000       1.644126       1.502201       1.269717
       8.280000       1.623994       1.468801       1.283687
       8.290000       1.604820       1.437799       1.300100
       8.300000       1.586633       1.409482       1.318992
       8.310000       1.569741       1.384298       1.340279
       8.320000       1.554679       1.362804       1.363799
       8.330000       1.542065       1.345547       1.389342
       8.340000       1.532409       1.332921       1.416657
       8.350000       1.525947       1.325058       1.445441
       8.360000       1.522514       1.321758       1.475322
       8.370000       1.521501       1.322480       1.505857
       8.380000       1.521889       1.326375       1.536555
       8.390000       1.522363       1.332344       1.566909
       8.400000       1.521490       1.339101       1.596435
       8.410000       1.517906       1.345241       1.624686
       8.420000       1.510477       1.349320       1.651265
       8.430000       1.498411       1.349983       1.675825
       8.440000       1.481312       1.346124       1.698094
       8.450000       1.459189       1.337066       1.717910
       8.460000       1.432417       1.322661       1.735293
       8.470000       1.401660       1.303293       1.750488
       8.480000       1.367761       1.279759       1.763957
       8.490000       1.331636       1.253086       1.776291
       8.500000       1.294200       1.224352       1.788028
       8.510000       1.256337       1.194551       1.799485
       8.520000       1.218888       1.164534       1.810636
       8.530000       1.182645       1.134993       1.821138
       8.540000       1.148344       1.106501       1.830456
       8.550000       1.116644       1.079545       1.838055
       8.560000       1.088112       1.054556       1.843548
       8.570000       1.063212       1.031890       1.846738
       8.580000       1.042286       1.011798       1.847553
       8.590000       1.025549       0.994401       1.845928
       8.600000       1.013097       0.979691       1.841717
       8.610000       1.004924       0.967558       1.834703
       8.620000       1.000971       0.957842       1.824730
       8.630000       1.001168       0.950363       1.811879
       8.640000       1.005465       0.944956       1.796615
       8.650000       1.013816       0.941467       1.779825
       8.660000       1.026131       0.939748       1.762733
       8.670000       1.042190       0.939661       1.746729
       8.680000       1.061570       0.941082       1.733192
       8.690000       1.083590       0.943916       1.723362
       8.700000       1.107292       0.948099       1.718275
       8.710000       1.131476       0.953593       1.718770
       8.720000       1.154772       0.960367       1.725513
       8.730000       1.175741       0.968382       1.739043
       8.740000       1.193006       0.977581       1.759803
       8.750000       1.205377       0.987864       1.788190
       8.760000       1.211977       0.999065       1.824590
       8.770000       1.212341       1.010902       1.869410
       8.780000       1.206467       1.022949       1.923088
       8.790000       1.194797       1.034630       1.986090
       8.800000       1.178142       1.045267       2.058879
       8.810000       1.157555       1.054185       2.141863
       8.820000       1.134203       1.060820       2.235312
       8.830000       1.109249       1.064802       2.339253
       8.840000       1.083759       1.065957       2.453328
       8.850000       1.058637       1.064262       2.576660
       8.860000       1.034582       1.059769       2.707718
       8.870000       1.012065       1.052550       2.844260
       8.880000       0.991331       1.042673       2.983383
       8.890000       0.972409       1.030198       3.121734
       8.900000       0.955130       1.015209       3.255853
       8.910000       0.939169       0.997868       3.382537
       8.920000       0.924094       0.978474       3.499125
       8.930000       0.909450       0.957517       3.603624
       8.940000       0.894840       0.935660       3.694706
       8.950000       0.880007       0.913664       3.771627
       8.960000       0.864883       0.892271       3.834163
       8.970000       0.849600       0.872098       3.882556
       8.980000       0.834454       0.853585       3.917486
       8.990000       0.819833       0.836985       3.940026
       9.000000       0.806123       0.822405       3.951570
       9.010000       0.793624       0.809851       3.953716
       9.020000       0.782486       0.799276       3.948122
       9.030000       0.772689       0.790607       3.936343
       9.040000       0.764080       0.783765       3.919685
       9.050000       0.756447       0.778678       3.899111
       9.060000       0.749616       0.775285       3.875221
       9.070000       0.743527       0.773541       3.848309
       9.080000       0.738267       0.773417       3.818465
       9.090000       0.734053       0.774884       3.785696
       9.100000       0.731174       0.777893       3.750017
       9.110000       0.729914       0.782345       3.711512
       9.120000       0.730491       0.788059       3.670373
       9.130000       0.733005       0.794766       3.626926
       9.140000       0.737422       0.802124       3.581631
       9.150000       0.743580       0.809779       3.535050
       9.160000       0.751206       0.817438       3.487776
       9.170000       0.759948       0.824929       3.440354
       9.180000       0.769392       0.832239       3.393222
       9.190000       0.779088       0.839502       3.346689
       9.200000       0.788592       0.846969       3.300930
       9.210000       0.797534       0.854978       3.255961
       9.220000       0.805700       0.863937       3.211594
       9.230000       0.813100       0.874303       3.167412
       9.240000       0.819988       0.886561       3.122800
       9.250000       0.826807       0.901188       3.077079
       9.260000       0.834101       0.918620       3.029689
       9.270000       0.842407       0.939229       2.980358
       9.280000       0.852191       0.963300       2.929169
       9.290000       0.863815       0.991016       2.876505
       9.300000       0.877537       1.022418       2.822920
       9.310000       0.893507       1.057363       2.768998
       9.320000       0.911758       1.095475       2.715231
       9.330000       0.932186       1.136130       2.661954
       9.340000       0.954533       1.178471       2.609317
       9.350000       0.978411       1.221480       2.557332
       9.360000       1.003353       1.264081       2.505982
       9.370000       1.028895       1.305258       2.455368
       9.380000       1.054666       1.344173       2.405828
       9.390000       1.080450       1.380248       2.357979
       9.400000       1.106206       1.413192       2.312653
       9.410000       1.132060       1.442951       2.270761
       9.420000       1.158271       1.469600       2.233112
       9.430000       1.185202       1.493198       2.200271
       9.440000       1.213272       1.513619       2.172461
       9.450000       1.242900       1.530399       2.149520
       9.460000       1.274427       1.542677       2.130918
       9.470000       1.308028       1.549279       2.115805
       9.480000       1.343669       1.548989       2.103117
       9.490000       1.381120       1.540957       2.091721
       9.500000       1.420034       1.525088       2.080598
       9.510000       1.460052       1.502259       2.068987
       9.520000       1.500879       1.474246       2.056453
       9.530000       1.542286       1.443413       2.042848
       9.540000       1.584049       1.412275       2.028212
       9.550000       1.625849       1.383108       2.012684
       9.560000       1.667174       1.357695       1.996458
       9.570000       1.707261       1.337207       1.979785
       9.580000       1.745112       1.322183       1.962996
       9.590000       1.779589       1.312552       1.946477
       9.600000       1.809585       1.307703       1.930618
       9.610000       1.834212       1.306609       1.915744
       9.620000       1.852953       1.308021       1.902079
       9.630000       1.865699       1.310723       1.889769
       9.640000       1.872661       1.313786       1.878936
       9.650000       1.874197       1.316736       1.869718
       9.660000       1.870622       1.319574       1.862260
       9.670000       1.862111       1.322665       1.856662
       9.680000       1.848746       1.326566       1.852920
       9.690000       1.830664       1.331867       1.850902
       9.700000       1.808225       1.339098       1.850369
       9.710000       1.782064       1.348677       1.851028
       9.720000       1.753047       1.360891       1.852600
       9.730000       1.722162       1.375872       1.854874
       9.740000       1.690462       1.393564       1.857733
       9.750000       1.659090       1.413676       1.861138
       9.760000       1.629322       1.435663       1.865107
       9.770000       1.602581       1.458743       1.869690
       9.780000       1.580363       1.481988       1.874956
       9.790000       1.564085       1.504475       1.880994
       9.800000       1.554896       1.525465       1.887915
       9.810000       1.553500       1.544548       1.895833
       9.820000       1.560026       1.561695       1.904834
       9.830000       1.573956       1.577206       1.914926
       9.840000       1.594122       1.591553       1.925998
       9.850000       1.618763       1.605162       1.937834
       9.860000       1.645674       1.618218       1.950190
       9.870000       1.672416       1.630568       1.962910
       9.880000       1.696580       1.641747       1.976023
       9.890000       1.716053       1.651122       1.989771
       9.900000       1.729235       1.658088       2.004549
       9.910000       1.735159       1.662248       2.020803
       9.920000       1.733507       1.663515       2.038921
       9.930000       1.724535       1.662102       2.059143
       9.940000       1.708926       1.658404       2.081507
       9.950000       1.687621       1.652799       2.105838
       9.960000       1.661659       1.645466       2.131781
       9.970000       1.632060       1.636299       2.158882
       9.980000       1.599765       1.624979       2.186697
       9.990000       1.565626       1.611145       2.214867
      10.000000       1.530444       1.594598       2.243116
      10.010000       1.495025       1.575417       2.271168
      10.020000       1.460215       1.553950       2.298646
      10.030000       1.426896       1.530726       2.325014
      10.040000       1.395926       1.506344       2.349612
      10.050000       1.368057       1.481393       2.371773
      10.060000       1.343863       1.456408       2.390974
      10.070000       1.323701       1.431842       2.406961
      10.080000       1.307709       1.408020       2.419806
      10.090000       1.295829       1.385109       2.429886
      10.100000       1.287847       1.363092       2.437795
      10.110000       1.283442       1.341787       2.444204
      10.120000       1.282239       1.320884       2.449718
      10.130000       1.283843       1.300031       2.454759
      10.140000       1.287852       1.278920       2.459505
      10.150000       1.293850       1.257390       2.463903
      10.160000       1.301398       1.235515       2.467761
      10.170000       1.310009       1.213665       2.470892
      10.180000       1.319139       1.192490       2.473264
      10.190000       1.328192       1.172842       2.475101
      10.200000       1.336566       1.155618       2.476868
      10.210000       1.343741       1.141613       2.479158
      10.220000       1.349406       1.131391       2.482510
      10.230000       1.353569       1.125238       2.487245
      10.240000       1.356622       1.123168       2.493365
      10.250000       1.359296       1.124988       2.500545
      10.260000       1.362510       1.130395       2.508213
      10.270000       1.367132       1.139086       2.515675
      10.280000       1.373740       1.150873       2.522253
      10.290000       1.382435       1.165746       2.527401
      10.300000       1.392763       1.183884       2.530766
      10.310000       1.403785       1.205602       2.532219
      10.320000       1.414269       1.231266       2.531833
      10.330000       1.422945       1.261200       2.529826
      10.340000       1.428764       1.295633       2.526463
      10.350000       1.431063       1.334679       2.521948
      10.360000       1.429619       1.378336       2.516321
      10.370000       1.424605       1.426485       2.509397
      10.380000       1.416482       1.478859       2.500784
      10.390000       1.405883       1.535009       2.489997
      10.400000       1.393487       1.594266       2.476648
      10.410000       1.379911       1.655746       2.460623
      10.420000       1.365634       1.718389       2.442187
      10.430000       1.350971       1.781031       2.421969
      10.440000       1.336113       1.842478       2.400830
      10.450000       1.321204       1.901556       2.379688
      10.460000       1.306408       1.957116       2.359353
      10.470000       1.291931       2.007989       2.340423
      10.480000       1.277970       2.052933       2.323248
      10.490000       1.264616       2.090653       2.307961
      10.500000       1.251756       2.119930       2.294533
      10.510000       1.239043       2.139872       2.282813
      10.520000       1.225949       2.150163       2.272560
      10.530000       1.211922       2.151182       2.263461
      10.540000       1.196577       2.143949       2.255166
      10.550000       1.179869       2.129924       2.247330
      10.560000       1.162160       2.110762       2.239649
      10.570000       1.144185       2.088109       2.231912
      10.580000       1.126912       2.063465       2.224047
      10.590000       1.111362       2.038124       2.216183
      10.600000       1.098439       2.013160       2.208704
      10.610000       1.088808       1.989422       2.202242
      10.620000       1.082832       1.967488       2.197607
      10.630000       1.080563       1.947560       2.195660
      10.640000       1.081765       1.929307       2.197164
      10.650000       1.085974       1.911746       2.202644
      10.660000       1.092559       1.893260       2.212291
      10.670000       1.100815       1.871854       2.225939
      10.680000       1.110075       1.845606       2.243109
      10.690000       1.119828       1.813196       2.263128
      10.700000       1.129809       1.774262       2.285277
      10.710000       1.140043       1.729450       2.308884
      10.720000       1.150814       1.680151       2.333335
      10.730000       1.162578       1.628082       2.357989
      10.740000       1.175848       1.574916       2.382070
      10.750000       1.191069       1.522068       2.404610
      10.760000       1.208530       1.470649       2.424507
      10.770000       1.228329       1.421521       2.440689
      10.780000       1.250388       1.375378       2.452350
      10.790000       1.274504       1.332812       2.459154
      10.800000       1.300408       1.294332       2.461366
      10.810000       1.327784       1.260360       2.459847
      10.820000       1.356255       1.231201       2.455925
      10.830000       1.385315       1.207026       2.451180
      10.840000       1.414216       1.187852       2.447206
      10.850000       1.441859       1.173534       2.445417
      10.860000       1.466709       1.163772       2.446959
      10.870000       1.486826       1.158115       2.452723
      10.880000       1.500055       1.155964       2.463455
      10.890000       1.504379       1.156563       2.479855
      10.900000       1.498356       1.158982       2.502603
      10.910000       1.481495       1.162132       2.532269
      10.920000       1.454397       1.164806       2.569128
      10.930000       1.418622       1.165792       2.612961
      10.940000       1.376326       1.164015       2.662915
      10.950000       1.329854       1.158689       2.717460
      10.960000       1.281413       1.149453       2.774476
      10.970000       1.232898       1.136462       2.831449
      10.980000       1.185852       1.120372       2.885734
      10.990000       1.141491       1.102236       2.934825
      11.000000       1.100732       1.083301       2.976573
      11.010000       1.064215       1.064786       3.009318
      11.020000       1.032297       1.047697       3.031936
      11.030000       1.005061       1.032730       3.043819
      11.040000       0.982335       1.020262       3.044831
      11.050000       0.963736       1.010394       3.035226
      11.060000       0.948739       1.003008       3.015573
      11.070000       0.936756       0.997795       2.986673
      11.080000       0.927202       0.994255       2.949483
      11.090000       0.919542       0.991688       2.905049
      11.100000       0.913328       0.989213       2.854462
      11.110000       0.908201       0.985858       2.798840
      11.120000       0.903892       0.980730       2.739342
      11.130000       0.900210       0.973215       2.677196
      11.140000       0.897020       0.963130       2.613711
      11.150000       0.894231       0.950765       2.550244
      11.160000       0.891799       0.936789       2.488113
      11.170000       0.889721       0.922065       2.428499
      11.180000       0.888032       0.907460       2.372358
      11.190000       0.886781       0.893694       2.320385
      11.200000       0.885983       0.881269       2.273019
      11.210000       0.885565       0.870443       2.230493
      11.220000       0.885332       0.861263       2.192890
      11.230000       0.884962       0.853621       2.160195
      11.240000       0.884055       0.847328       2.132308
      11.250000       0.882205       0.842164       2.109005
      11.260000       0.879084       0.837894       2.089874
      11.270000       0.874504       0.834246       2.074280
      11.280000       0.868471       0.830879       2.061392
      11.290000       0.861185       0.827376       2.050286
      11.300000       0.852995       0.823275       2.040087
      11.310000       0.844308       0.818137       2.030106
      11.320000       0.835464       0.811610       2.019899
      11.330000       0.826653       0.803494       2.009266
      11.340000       0.817888       0.793763       1.998187
      11.350000       0.809049       0.782583       1.986757
      11.360000       0.799966       0.770295       1.975135
      11.370000       0.790490       0.757390       1.963511
      11.380000       0.780535       0.744445       1.952096
      11.390000       0.770081       0.732030       1.941098
      11.400000       0.759156       0.720605       1.930700
      11.410000       0.747839       0.710436       1.921037
      11.420000       0.736281       0.701548       1.912183
      11.430000       0.724740       0.693735       1.904153
      11.440000       0.713589       0.686620       1.896927
      11.450000       0.703280       0.679744       1.890483
      11.460000       0.694260       0.672661       1.884811
      11.470000       0.686869       0.665019       1.879914
      11.480000       0.681243       0.656620       1.875778
      11.490000       0.677269       0.647434       1.872321
      11.500000       0.674580       0.637592       1.869363
      11.510000       0.672615       0.627352       1.866597
      11.520000       0.670710       0.617059       1.863607
      11.530000       0.668205       0.607107       1.859912
      11.540000       0.664547       0.597899       1.855022
      11.550000       0.659371       0.589818       1.848498
      11.560000       0.652569       0.583205       1.839986
      11.570000       0.644319       0.578343       1.829227
      11.580000       0.635073       0.575455       1.816064
      11.590000       0.625498       0.574691       1.800448
      11.600000       0.616353       0.576123       1.782463
      11.610000       0.608369       0.579738       1.762336
      11.620000       0.602138       0.585439       1.740423
      11.630000       0.598044       0.593048       1.717157
      11.640000       0.596252       0.602322       1.693011
      11.650000       0.596731       0.612978       1.668459
      11.660000       0.599301       0.624723       1.643979
      11.670000       0.603693       0.637280       1.620047
      11.680000       0.609599       0.650418       1.597112
      11.690000       0.616710       0.663986       1.575540
      11.700000       0.624747       0.677936       1.555546
      11.710000       0.633481       0.692338       1.537138
      11.720000       0.642752       0.707377       1.520098
      11.730000       0.652491       0.723319       1.504020
      11.740000       0.662715       0.740445       1.488394
      11.750000       0.673499       0.758981       1.472709
      11.760000       0.684919       0.779035       1.456540
      11.770000       0.696964       0.800569       1.439587
      11.780000       0.709449       0.823423       1.421665
      11.790000       0.721952       0.847379       1.402669
      11.800000       0.733815       0.872241       1.382558
      11.810000       0.744221       0.897921       1.361384
      11.820000       0.752338       0.924480       1.339321
      11.830000       0.757498       0.952098       1.316684
      11.840000       0.759345       0.980989       1.293897
      11.850000       0.757892       1.011265       1.271421
      11.860000       0.753476       1.042814       1.249670
      11.870000       0.746615       1.075215       1.228959
      11.880000       0.737855       1.107741       1.209491
      11.890000       0.727651       1.139456       1.191372
      11.900000       0.716330       1.169378       1.174635
      11.910000       0.704137       1.196684       1.159250
      11.920000       0.691310       1.220891       1.145112
      11.930000       0.678148       1.241945       1.132027
      11.940000       0.665014       1.260199       1.119701
      11.950000       0.652305       1.276260       1.107748
      11.960000       0.640387       1.290764       1.095724
      11.970000       0.629561       1.304167       1.083173
      11.980000       0.620059       1.316612       1.069698
      11.990000       0.612063       1.327926       1.055023
      12.000000       0.605716       1.337726       1.039047
      12.010000       0.601128       1.345588       1.021860
      12.020000       0.598345       1.351209       1.003712
      12.030000       0.597326       1.354507       0.984953
      12.040000       0.597920       1.355610       0.965961
      12.050000       0.599875       1.354780       0.947080
      12.060000       0.602863       1.352306       0.928596
      12.070000       0.606529       1.348449       0.910734
      12.080000       0.610533       1.343430       0.893660
      12.090000       0.614599       1.337459       0.877479
      12.100000       0.618531       1.330748       0.862218
      12.110000       0.622219       1.323509       0.847817
      12.120000       0.625629       1.315930       0.834135
      12.130000       0.628766       1.308157       0.820986
      12.140000       0.631648       1.300298       0.808180
      12.150000       0.634281       1.292430       0.795571
      12.160000       0.636665       1.284592       0.783085
      12.170000       0.638811       1.276775       0.770719
      12.180000       0.640770       1.268902       0.758518
      12.190000       0.642639       1.260831       0.746539
      12.200000       0.644532       1.252393       0.734829
      12.210000       0.646538       1.243438       0.723411
      12.220000       0.648681       1.233890       0.712291
      12.230000       0.650914       1.223783       0.701486
      12.240000       0.653131       1.213272       0.691039
      12.250000       0.655203       1.202619       0.681040
      12.260000       0.656999       1.192139       0.671613
      12.270000       0.658412       1.182138       0.662892
      12.280000       0.659374       1.172841       0.654989
      12.290000       0.659887       1.164343       0.647966
      12.300000       0.660025       1.156597       0.641830
      12.310000       0.659924       1.149444       0.636531
      12.320000       0.659738       1.142678       0.631966
      12.330000       0.659600       1.136112       0.627975
      12.340000       0.659604       1.129624       0.624347
      12.350000       0.659825       1.123176       0.620820
      12.360000       0.660348       1.116802       0.617100
      12.370000       0.661296       1.110585       0.612892
      12.380000       0.662819       1.104619       0.607950
      12.390000       0.665060       1.098991       0.602133
      12.400000       0.668113       1.093750       0.595459
      12.410000       0.671987       1.088896       0.588130
      12.420000       0.676596       1.084372       0.580500
      12.430000       0.681776       1.080068       0.573015
      12.440000       0.687321       1.075841       0.566112
      12.450000       0.693027       1.071538       0.560136
      12.460000       0.698748       1.067019       0.555281
      12.470000       0.704415       1.062170       0.551566
      12.480000       0.710037       1.056896       0.548857
      12.490000       0.715647       1.051105       0.546917
      12.500000       0.721235       1.044685       0.545473
      12.510000       0.726684       1.037503       0.544280
      12.520000       0.731744       1.029420       0.543161
      12.530000       0.736056       1.020334       0.542028
      12.540000       0.739213       1.010219       0.540867
      12.550000       0.740842       0.999150       0.539733
      12.560000       0.740668       0.987312       0.538727
      12.570000       0.738567       0.974993       0.537985
      12.580000       0.734572       0.962578       0.537665
      12.590000       0.728874       0.950535       0.537921
      12.600000       0.721775       0.939399       0.538880
      12.610000       0.713636       0.929731       0.540614
      12.620000       0.704792       0.922064       0.543113
      12.630000       0.695485       0.916841       0.546272
      12.640000       0.685828       0.914365       0.549899
      12.650000       0.675814       0.914770       0.553735
      12.660000       0.665371       0.918011       0.557489
      12.670000       0.654432       0.923888       0.560871
      12.680000       0.642980       0.932091       0.563618
      12.690000       0.631073       0.942250       0.565502
      12.700000       0.618828       0.954004       0.566326
      12.710000       0.606399       0.967041       0.565930
      12.720000       0.593963       0.981124       0.564198
      12.730000       0.581713       0.996077       0.561085
      12.740000       0.569870       1.011748       0.556643
      12.750000       0.558683       1.027944       0.551020
      12.760000       0.548425       1.044380       0.544439
      12.770000       0.539374       1.060639       0.537160
      12.780000       0.531792       1.076186       0.529429
      12.790000       0.525901       1.090440       0.521444
      12.800000       0.521868       1.102864       0.513330
      12.810000       0.519798       1.113046       0.505136
      12.820000       0.519728       1.120739       0.496856
      12.830000       0.521624       1.125866       0.488457
      12.840000       0.525370       1.128518       0.479919
      12.850000       0.530764       1.128952       0.471259
      12.860000       0.537509       1.127601       0.462535
      12.870000       0.545220       1.125069       0.453837
      12.880000       0.553449       1.122098       0.445255
      12.890000       0.561714       1.119509       0.436862
      12.900000       0.569546       1.118113       0.428699
      12.910000       0.576531       1.118607       0.420788
      12.920000       0.582342       1.121464       0.413139
      12.930000       0.586748       1.126833       0.405777
      12.940000       0.589598       1.134481       0.398749
      12.950000       0.590809       1.143803       0.392138
      12.960000       0.590367       1.153924       0.386050
      12.970000       0.588345       1.163860       0.380610
      12.980000       0.584928       1.172704       0.375937
      12.990000       0.580411       1.179759       0.372127
      13.000000       0.575171       1.184578       0.369234
      13.010000       0.569613       1.186934       0.367259
      13.020000       0.564125       1.186755       0.366150
      13.030000       0.559048       1.184077       0.365814
      13.040000       0.554690       1.179014       0.366147
      13.050000       0.551335       1.171724       0.367048
      13.060000       0.549256       1.162368       0.368435
      13.070000       0.548688       1.151066       0.370235
      13.080000       0.549779       1.137891       0.372361
      13.090000       0.552544       1.122893       0.374702
      13.100000       0.556823       1.106162       0.377110
      13.110000       0.562280       1.087876       0.379426
      13.120000       0.568430       1.068342       0.381491
      13.130000       0.574705       1.047990       0.383174
      13.140000       0.580548       1.027339       0.384375
      13.150000       0.585496       1.006941       0.385023
      13.160000       0.589257       0.987311       0.385076
      13.170000       0.591734       0.968859       0.384514
      13.180000       0.593015       0.951848       0.383332
      13.190000       0.593329       0.936368       0.381533
      13.200000       0.592991       0.922336       0.379120
      13.210000       0.592357       0.909506       0.376089
      13.220000       0.591784       0.897505       0.372429
      13.230000       0.591581       0.885874       0.368131
      13.240000       0.591967       0.874133       0.363207
      13.250000       0.593023       0.861855       0.357713
      13.260000       0.594681       0.848730       0.351759
      13.270000       0.596756       0.834607       0.345516
      13.280000       0.599016       0.819524       0.339201
      13.290000       0.601268       0.803710       0.333058
      13.300000       0.603432       0.787570       0.327322
      13.310000       0.605562       0.771656       0.322199
      13.320000       0.607821       0.756596       0.317836
      13.330000       0.610401       0.743024       0.314299
      13.340000       0.613442       0.731509       0.311569
      13.350000       0.616941       0.722498       0.309545
      13.360000       0.620711       0.716287       0.308064
      13.370000       0.624377       0.713005       0.306931
      13.380000       0.627429       0.712610       0.305953
      13.390000       0.629318       0.714915       0.304974
      13.400000       0.629553       0.719608       0.303897
      13.410000       0.627788       0.726300       0.302694
      13.420000       0.623857       0.734545       0.301395
      13.430000       0.617784       0.743871       0.300063
      13.440000       0.609758       0.753792       0.298765
      13.450000       0.600100       0.763847       0.297549
      13.460000       0.589220       0.773637       0.296426
      13.470000       0.577568       0.782867       0.295371
      13.480000       0.565578       0.791364       0.294337
      13.490000       0.553606       0.799051       0.293266
      13.500000       0.541901       0.805887       0.292114
      13.510000       0.530604       0.811790       0.290870
      13.520000       0.519784       0.816569       0.289562
      13.530000       0.509503       0.819909       0.288258
      13.540000       0.499871       0.821417       0.287052
      13.550000       0.491083       0.820712       0.286036
      13.560000       0.483404       0.817535       0.285285
      13.570000       0.477140       0.811834       0.284845
      13.580000       0.472575       0.803810       0.284731
      13.590000       0.469930       0.793888       0.284940
      13.600000       0.469318       0.782641       0.285457
      13.610000       0.470720       0.770684       0.286264
      13.620000       0.473980       0.758586       0.287338
      13.630000       0.478804       0.746809       0.288641
      13.640000       0.484778       0.735698       0.290117
      13.650000       0.491400       0.725503       0.291691
      13.660000       0.498118       0.716412       0.293272
      13.670000       0.504385       0.708585       0.294768
      13.680000       0.509696       0.702143       0.296094
      13.690000       0.513631       0.697154       0.297184
      13.700000       0.515882       0.693588       0.297987
      13.710000       0.516281       0.691293       0.298463
      13.720000       0.514818       0.690000       0.298580
      13.730000       0.511637       0.689373       0.298312
      13.740000       0.507005       0.689084       0.297642
      13.750000       0.501258       0.688887       0.296568
      13.760000       0.494738       0.688644       0.295099
      13.770000       0.487757       0.688303       0.293260
      13.780000       0.480577       0.687835       0.291085
      13.790000       0.473412       0.687156       0.288615
      13.800000       0.466436       0.686079       0.285894
      13.810000       0.459789       0.684299       0.282971
      13.820000       0.453585       0.681421       0.279895
      13.830000       0.447910       0.677021       0.276719
      13.840000       0.442823       0.670734       0.273489
      13.850000       0.438351       0.662335       0.270242
      13.860000       0.434488       0.651806       0.267004
      13.870000       0.431196       0.639351       0.263791
      13.880000       0.428417       0.625369       0.260629
      13.890000       0.426081       0.610382       0.257557
      13.900000       0.424129       0.594942       0.254637
      13.910000       0.422522       0.579549       0.251952
      13.920000       0.421248       0.564598       0.249597
      13.930000       0.420312       0.550368       0.247668
      13.940000       0.419715       0.537038       0.246255
      13.950000       0.419428       0.524716       0.245432
      13.960000       0.419368       0.513463       0.245248
      13.970000       0.419393       0.503308       0.245728
      13.980000       0.419305       0.494246       0.246864
      13.990000       0.418878       0.486240       0.248620
      14.000000       0.417894       0.479215       0.250940
      14.010000       0.416196       0.473069       0.253749
      14.020000       0.413729       0.467687       0.256962
      14.030000       0.410555       0.462955       0.260487
      14.040000       0.406854       0.458765       0.264227
      14.050000       0.402878       0.455014       0.268095
      14.060000       0.398900       0.451610       0.272019
      14.070000       0.395163       0.448485       0.275943
      14.080000       0.391845       0.445613       0.279821
      14.090000       0.389054       0.443027       0.283611
      14.100000       0.386824       0.440823       0.287266
      14.110000       0.385136       0.439147       0.290740
      14.120000       0.383918       0.438158       0.294010
      14.130000       0.383055       0.437992       0.297089
      14.140000       0.382400       0.438719       0.300048
      14.150000       0.381793       0.440328       0.303018
      14.160000       0.381093       0.442715       0.306176
      14.170000       0.380210       0.445692       0.309722
      14.180000       0.379115       0.449007       0.313855
      14.190000       0.377837       0.452365       0.318735
      14.200000       0.376444       0.455466       0.324458
      14.210000       0.375030       0.458040       0.331032
      14.220000       0.373704       0.459872       0.338368
      14.230000       0.372600       0.460818       0.346287
      14.240000       0.371885       0.460804       0.354549
      14.250000       0.371758       0.459818       0.362898
      14.260000       0.372444       0.457909       0.371105
      14.270000       0.374173       0.455186       0.379007
      14.280000       0.377158       0.451817       0.386521
      14.290000       0.381576       0.448017       0.393622
      14.300000       0.387540       0.444021       0.400307
      14.310000       0.395082       0.440040       0.406548
      14.320000       0.404130       0.436225       0.412272
      14.330000       0.414492       0.432642       0.417370
      14.340000       0.425852       0.429269       0.421743
      14.350000       0.437776       0.425997       0.425360
      14.360000       0.449733       0.422667       0.428302
      14.370000       0.461135       0.419096       0.430775
      14.380000       0.471380       0.415123       0.433080
      14.390000       0.479904       0.410650       0.435555
      14.400000       0.486232       0.405660       0.438507
      14.410000       0.490019       0.400227       0.442156
      14.420000       0.491086       0.394491       0.446605
      14.430000       0.489440       0.388632       0.451841
      14.440000       0.485271       0.382842       0.457760
      14.450000       0.478919       0.377305       0.464202
      14.460000       0.470829       0.372193       0.470991
      14.470000       0.461486       0.367653       0.477966
      14.480000       0.451367       0.363804       0.484991
      14.490000       0.440891       0.360728       0.491944
      14.500000       0.430394       0.358463       0.498692
      14.510000       0.420104       0.357001       0.505062
      14.520000       0.410135       0.356288       0.510821
      14.530000       0.400501       0.356233       0.515676
      14.540000       0.391145       0.356702       0.519302
      14.550000       0.381985       0.357525       0.521382
      14.560000       0.372956       0.358490       0.521649
      14.570000       0.364029       0.359357       0.519925
      14.580000       0.355234       0.359889       0.516147
      14.590000       0.346644       0.359890       0.510372
      14.600000       0.338367       0.359259       0.502778
      14.610000       0.330520       0.358009       0.493654
      14.620000       0.323207       0.356267       0.483381
      14.630000       0.316509       0.354242       0.472396
      14.640000       0.310475       0.352170       0.461155
      14.650000       0.305139       0.350275       0.450088
      14.660000       0.300531       0.348735       0.439560
      14.670000       0.296690       0.347673       0.429843
      14.680000       0.293667       0.347157       0.421096
      14.690000       0.291511       0.347202       0.413367
      14.700000       0.290252       0.347776       0.406594
      14.710000       0.289878       0.348804       0.400629
      14.720000       0.290324       0.350172       0.395265
      14.730000       0.291466       0.351735       0.390273
      14.740000       0.293122       0.353321       0.385434
      14.750000       0.295074       0.354739       0.380575
      14.760000       0.297082       0.355797       0.375590
      14.770000       0.298912       0.356327       0.370448
      14.780000       0.300360       0.356220       0.365189
      14.790000       0.301272       0.355443       0.359903
      14.800000       0.301544       0.354035       0.354705
      14.810000       0.301126       0.352085       0.349703
      14.820000       0.300005       0.349682       0.344980
      14.830000       0.298196       0.346888       0.340585
      14.840000       0.295741       0.343727       0.336536
      14.850000       0.292712       0.340202       0.332838
      14.860000       0.289230       0.336332       0.329498
      14.870000       0.285463       0.332179       0.326540
      14.880000       0.281626       0.327859       0.324001
      14.890000       0.277958       0.323529       0.321927
      14.900000       0.274694       0.319359       0.320353
      14.910000       0.272036       0.315498       0.319290
      14.920000       0.270130       0.312048       0.318717
      14.930000       0.269046       0.309047       0.318586
      14.940000       0.268779       0.306473       0.318824
      14.950000       0.269252       0.304267       0.319343
      14.960000       0.270335       0.302354       0.320051
      14.970000       0.271867       0.300675       0.320853
      14.980000       0.273681       0.299200       0.321670
      14.990000       0.275636       0.297933       0.322457
      15.000000       0.277642       0.296913       0.323212
      15.010000       0.279685       0.296201       0.323981
      15.020000       0.281824       0.295875       0.324848
      15.030000       0.284181       0.296007       0.325910
      15.040000       0.286897       0.296651       0.327255
      15.050000       0.290087       0.297822       0.328955
      15.060000       0.293801       0.299480       0.331059
      15.070000       0.298000       0.301517       0.333604
      15.080000       0.302563       0.303763       0.336614
      15.090000       0.307315       0.306000       0.340114
      15.100000       0.312064       0.308000       0.344129
      15.110000       0.316648       0.309571       0.348689
      15.120000       0.320961       0.310594       0.353836
      15.130000       0.324966       0.311043       0.359620
      15.140000       0.328688       0.310982       0.366107
      15.150000       0.332204       0.310544       0.373368
      15.160000       0.335616       0.309910       0.381478
      15.170000       0.339037       0.309283       0.390509
      15.180000       0.342575       0.308871       0.400526
      15.190000       0.346325       0.308866       0.411569
      15.200000       0.350360       0.309428       0.423646
      15.210000       0.354722       0.310669       0.436713
      15.220000       0.359424       0.312636       0.450651
      15.230000       0.364443       0.315307       0.465260
      15.240000       0.369715       0.318577       0.480262
      15.250000       0.375128       0.322265       0.495318
      15.260000       0.380522       0.326133       0.510063
      15.270000       0.385697       0.329917       0.524159
      15.280000       0.390441       0.333364       0.537337
      15.290000       0.394566       0.336277       0.549421
      15.300000       0.397934       0.338538       0.560322
      15.310000       0.400469       0.340115       0.569994
      15.320000       0.402149       0.341068       0.578387
      15.330000       0.402991       0.341534       0.585402
      15.340000       0.403044       0.341717       0.590891
      15.350000       0.402387       0.341863       0.594695
      15.360000       0.401128       0.342226       0.596710
      15.370000       0.399390       0.343022       0.596968
      15.380000       0.397295       0.344391       0.595685
      15.390000       0.394939       0.346370       0.593266
      15.400000       0.392381       0.348891       0.590244
      15.410000       0.389643       0.351792       0.587185
      15.420000       0.386720       0.354855       0.584593
      15.430000       0.383589       0.357854       0.582836
      15.440000       0.380230       0.360605       0.582121
      15.450000       0.376631       0.363010       0.582496
      15.460000       0.372806       0.365079       0.583874
      15.470000       0.368791       0.366921       0.586054
      15.480000       0.364638       0.368720       0.588752
      15.490000       0.360414       0.370688       0.591632
      15.500000       0.356178       0.373014       0.594354
      15.510000       0.351984       0.375827       0.596625
      15.520000       0.347881       0.379164       0.598242
      15.530000       0.343917       0.382960       0.599112
      15.540000       0.340152       0.387056       0.599240
      15.550000       0.336647       0.391229       0.598699
      15.560000       0.333452       0.395240       0.597581
      15.570000       0.330582       0.398887       0.595968
      15.580000       0.328006       0.402060       0.593910
      15.590000       0.325646       0.404760       0.591411
      15.600000       0.323407       0.407100       0.588435
      15.610000       0.321207       0.409277       0.584912
      15.620000       0.319016       0.411527       0.580761
      15.630000       0.316872       0.414077       0.575922
      15.640000       0.314875       0.417107       0.570386
      15.650000       0.313169       0.420712       0.564214
      15.660000       0.311905       0.424898       0.557539
      15.670000       0.311197       0.429592       0.550548
      15.680000       0.311100       0.434688       0.543444
      15.690000       0.311586       0.440084       0.536413
      15.700000       0.312547       0.445725       0.529585
      15.710000       0.313816       0.451611       0.523015
      15.720000       0.315187       0.457780       0.516685
      15.730000       0.316455       0.464264       0.510522
      15.740000       0.317437       0.471053       0.504425
      15.750000       0.317999       0.478056       0.498299
      15.760000       0.318063       0.485099       0.492079
      15.770000       0.317619       0.491947       0.485747
      15.780000       0.316716       0.498339       0.479335
      15.790000       0.315453       0.504046       0.472923
      15.800000       0.313955       0.508905       0.466622
      15.810000       0.312355       0.512845       0.460553
      15.820000       0.310758       0.515886       0.454831
      15.830000       0.309222       0.518118       0.449541
      15.840000       0.307751       0.519667       0.444720
      15.850000       0.306303       0.520665       0.440338
      15.860000       0.304824       0.521230       0.436293
      15.870000       0.303275       0.521462       0.432413
      15.880000       0.301659       0.521447       0.428486
      15.890000       0.300023       0.521271       0.424291
      15.900000       0.298434       0.521016       0.419642
      15.910000       0.296945       0.520751       0.414427
      15.920000       0.295569       0.520527       0.408619
      15.930000       0.294270       0.520364       0.402268
      15.940000       0.292976       0.520268       0.395481
      15.950000       0.291598       0.520230       0.388387
      15.960000       0.290063       0.520243       0.381107
      15.970000       0.288325       0.520294       0.373732
      15.980000       0.286381       0.520369       0.366301
      15.990000       0.284265       0.520456       0.358796
      16.000000       0.282038       0.520553       0.351158
      16.010000       0.279773       0.520669       0.343303
      16.020000       0.277536       0.520826       0.335166
      16.030000       0.275381       0.521050       0.326729
      16.040000       0.273349       0.521357       0.318046
      16.050000       0.271469       0.521733       0.309233
      16.060000       0.269769       0.522121       0.300446
      16.070000       0.268280       0.522423       0.291844
      16.080000       0.267032       0.522512       0.283553
      16.090000       0.266047       0.522272       0.275655
      16.100000       0.265339       0.521637       0.268181
      16.110000       0.264919       0.520627       0.261123
      16.120000       0.264800       0.519359       0.254446
      16.130000       0.265019       0.518025       0.248105
      16.140000       0.265629       0.516849       0.242048
      16.150000       0.266693       0.516025       0.236226
      16.160000       0.268265       0.515664       0.230587
      16.170000       0.270369       0.515764       0.225079
      16.180000       0.272997       0.516203       0.219653
      16.190000       0.276116       0.516770       0.214270
      16.200000       0.279692       0.517204       0.208914
      16.210000       0.283707       0.517250       0.203592
      16.220000       0.288170       0.516708       0.198339
      16.230000       0.293109       0.515469       0.193207
      16.240000       0.298540       0.513520       0.188260
      16.250000       0.304430       0.510936       0.183561
      16.260000       0.310665       0.507839       0.179171
      16.270000       0.317033       0.504361       0.175140
      16.280000       0.323239       0.500602       0.171508
      16.290000       0.328944       0.496611       0.168301
      16.300000       0.333826       0.492382       0.165533
      16.310000       0.337631       0.487870       0.163206
      16.320000       0.340213       0.483023       0.161306
      16.330000       0.341547       0.477809       0.159807
      16.340000       0.341709       0.472246       0.158670
      16.350000       0.340856       0.466419       0.157845
      16.360000       0.339179       0.460468       0.157281
      16.370000       0.336884       0.454576       0.156925
      16.380000       0.334164       0.448940       0.156732
      16.390000       0.331199       0.443748       0.156666
      16.400000       0.328144       0.439151       0.156699
      16.410000       0.325137       0.435240       0.156809
      16.420000       0.322278       0.432032       0.156975
      16.430000       0.319619       0.429458       0.157175
      16.440000       0.317146       0.427371       0.157378
      16.450000       0.314782       0.425568       0.157547
      16.460000       0.312397       0.423819       0.157641
      16.470000       0.309840       0.421903       0.157616
      16.480000       0.306963       0.419633       0.157442
      16.490000       0.303646       0.416880       0.157102
      16.500000       0.299816       0.413576       0.156605
      16.510000       0.295459       0.409713       0.155983
      16.520000       0.290629       0.405334       0.155285
      16.530000       0.285441       0.400516       0.154567
      16.540000       0.280060       0.395351       0.153880
      16.550000       0.274668       0.389929       0.153268
      16.560000       0.269442       0.384335       0.152765
      16.570000       0.264534       0.378650       0.152397
      16.580000       0.260064       0.372968       0.152189
      16.590000       0.256113       0.367403       0.152158
      16.600000       0.252728       0.362091       0.152316
      16.610000       0.249926       0.357171       0.152657
      16.620000       0.247698       0.352760       0.153159
      16.630000       0.246009       0.348921       0.153780
      16.640000       0.244799       0.345651       0.154467
      16.650000       0.243980       0.342887       0.155158
      16.660000       0.243438       0.340523       0.155798
      16.670000       0.243035       0.338437       0.156340
      16.680000       0.242629       0.336509       0.156750
      16.690000       0.242085       0.334647       0.157009
      16.700000       0.241300       0.332786       0.157107
      16.710000       0.240216       0.330902       0.157042
      16.720000       0.238822       0.328994       0.156814
      16.730000       0.237144       0.327077       0.156420
      16.740000       0.235226       0.325157       0.155861
      16.750000       0.233114       0.323231       0.155136
      16.760000       0.230849       0.321280       0.154247
      16.770000       0.228467       0.319286       0.153200
      16.780000       0.226016       0.317245       0.152006
      16.790000       0.223565       0.315174       0.150684
      16.800000       0.221202       0.313100       0.149261
      16.810000       0.219025       0.311058       0.147772
      16.820000       0.217125       0.309078       0.146255
      16.830000       0.215562       0.307178       0.144748
      16.840000       0.214357       0.305372       0.143286
      16.850000       0.213494       0.303672       0.141904
      16.860000       0.212928       0.302093       0.140636
      16.870000       0.212600       0.300649       0.139514
      16.880000       0.212454       0.299341       0.138567
      16.890000       0.212444       0.298155       0.137817
      16.900000       0.212531       0.297059       0.137279
      16.910000       0.212682       0.296012       0.136958
      16.920000       0.212868       0.294973       0.136852
      16.930000       0.213060       0.293919       0.136959
      16.940000       0.213245       0.292847       0.137273
      16.950000       0.213428       0.291772       0.137795
      16.960000       0.213646       0.290714       0.138530
      16.970000       0.213964       0.289687       0.139489
      16.980000       0.214464       0.288688       0.140683
      16.990000       0.215241       0.287698       0.142121
      17.000000       0.216383       0.286690       0.143804
      17.010000       0.217965       0.285642       0.145725
      17.020000       0.220041       0.284537       0.147863
      17.030000       0.222646       0.283369       0.150190
      17.040000       0.225794       0.282142       0.152665
      17.050000       0.229484       0.280870       0.155238
      17.060000       0.233697       0.279584       0.157854
      17.070000       0.238405       0.278333       0.160447
      17.080000       0.243566       0.277193       0.162952
      17.090000       0.249142       0.276257       0.165301
      17.100000       0.255097       0.275623       0.167426
      17.110000       0.261402       0.275374       0.169261
      17.120000       0.268031       0.275554       0.170741
      17.130000       0.274946       0.276147       0.171811
      17.140000       0.282081       0.277069       0.172418
      17.150000       0.289335       0.278160       0.172527
      17.160000       0.296571       0.279202       0.172117
      17.170000       0.303610       0.279950       0.171195
      17.180000       0.310228       0.280171       0.169798
      17.190000       0.316161       0.279692       0.167988
      17.200000       0.321098       0.278429       0.165847
      17.210000       0.324713       0.276395       0.163469
      17.220000       0.326694       0.273697       0.160946
      17.230000       0.326803       0.270505       0.158361
      17.240000       0.324921       0.267027       0.155784
      17.250000       0.321092       0.263471       0.153273
      17.260000       0.315528       0.260022       0.150869
      17.270000       0.308588       0.256828       0.148601
      17.280000       0.300736       0.253999       0.146485
      17.290000       0.292470       0.251609       0.144524
      17.300000       0.284266       0.249711       0.142706
      17.310000       0.276520       0.248340       0.141008
      17.320000       0.269516       0.247516       0.139401
      17.330000       0.263413       0.247238       0.137858
      17.340000       0.258246       0.247477       0.136359
      17.350000       0.253950       0.248168       0.134896
      17.360000       0.250381       0.249214       0.133471
      17.370000       0.247357       0.250496       0.132095
      17.380000       0.244697       0.251889       0.130784
      17.390000       0.242247       0.253286       0.129554
      17.400000       0.239904       0.254618       0.128423
      17.410000       0.237621       0.255849       0.127402
      17.420000       0.235388       0.256962       0.126498
      17.430000       0.233219       0.257929       0.125705
      17.440000       0.231135       0.258693       0.125010
      17.450000       0.229147       0.259157       0.124394
      17.460000       0.227266       0.259207       0.123833
      17.470000       0.225498       0.258738       0.123302
      17.480000       0.223855       0.257691       0.122779
      17.490000       0.222353       0.256075       0.122244
      17.500000       0.221013       0.253972       0.121681
      17.510000       0.219853       0.251518       0.121077
      17.520000       0.218882       0.248881       0.120422
      17.530000       0.218083       0.246223       0.119709
      17.540000       0.217412       0.243675       0.118933
      17.550000       0.216789       0.241312       0.118096
      17.560000       0.216111       0.239150       0.117205
      17.570000       0.215269       0.237142       0.116274
      17.580000       0.214178       0.235197       0.115322
      17.590000       0.212793       0.233207       0.114370
      17.600000       0.211124       0.231074       0.113442
      17.610000       0.209230       0.228734       0.112562
      17.620000       0.207202       0.226179       0.111756
      17.630000       0.205147       0.223448       0.111042
      17.640000       0.203167       0.220625       0.110435
      17.650000       0.201354       0.217812       0.109936
      17.660000       0.199778       0.215107       0.109537
      17.670000       0.198494       0.212590       0.109219
      17.680000       0.197538       0.210315       0.108962
      17.690000       0.196939       0.208309       0.108743
      17.700000       0.196713       0.206580       0.108544
      17.710000       0.196873       0.205121       0.108354
      17.720000       0.197425       0.203913       0.108163
      17.730000       0.198369       0.202933       0.107963
      17.740000       0.199704       0.202157       0.107739
      17.750000       0.201417       0.201557       0.107469
      17.760000       0.203477       0.201110       0.107119
      17.770000       0.205826       0.200792       0.106653
      17.780000       0.208364       0.200571       0.106035
      17.790000       0.210963       0.200414       0.105244
      17.800000       0.213476       0.200279       0.104273
      17.810000       0.215770       0.200123       0.103133
      17.820000       0.217750       0.199910       0.101855
      17.830000       0.219368       0.199609       0.100482
      17.840000       0.220620       0.199197       0.099070
      17.850000       0.221531       0.198655       0.097680
      17.860000       0.222134       0.197962       0.096368
      17.870000       0.222460       0.197095       0.095181
      17.880000       0.222536       0.196030       0.094147
      17.890000       0.222385       0.194751       0.093277
      17.900000       0.222037       0.193254       0.092562
      17.910000       0.221532       0.191553       0.091979
      17.920000       0.220929       0.189675       0.091501
      17.930000       0.220297       0.187663       0.091096
      17.940000       0.219706       0.185563       0.090738
      17.950000       0.219220       0.183421       0.090410
      17.960000       0.218885       0.181277       0.090101
      17.970000       0.218726       0.179158       0.089804
      17.980000       0.218747       0.177084       0.089515
      17.990000       0.218939       0.175073       0.089228
      18.000000       0.219289       0.173146       0.088938
      18.010000       0.219787       0.171335       0.088641
      18.020000       0.220425       0.169678       0.088340
      18.030000       0.221197       0.168216       0.088038
      18.040000       0.222094       0.166981       0.087741
      18.050000       0.223106       0.165990       0.087451
      18.060000       0.224212       0.165242       0.087161
      18.070000       0.225383       0.164715       0.086859
      18.080000       0.226573       0.164372       0.086530
      18.090000       0.227709       0.164161       0.086162
      18.100000       0.228687       0.164020       0.085748
      18.110000       0.229373       0.163884       0.085292
      18.120000       0.229618       0.163691       0.084804
      18.130000       0.229279       0.163388       0.084302
      18.140000       0.228246       0.162931       0.083808
      18.150000       0.226467       0.162290       0.083344
      18.160000       0.223962       0.161452       0.082937
      18.170000       0.220815       0.160417       0.082611
      18.180000       0.217161       0.159200       0.082387
      18.190000       0.213161       0.157830       0.082280
      18.200000       0.208980       0.156338       0.082299
      18.210000       0.204763       0.154756       0.082442
      18.220000       0.200632       0.153111       0.082700
      18.230000       0.196681       0.151422       0.083054
      18.240000       0.192977       0.149708       0.083479
      18.250000       0.189567       0.147989       0.083940
      18.260000       0.186482       0.146292       0.084401
      18.270000       0.183737       0.144650       0.084827
      18.280000       0.181328       0.143095       0.085191
      18.290000       0.179237       0.141657       0.085476
      18.300000       0.177431       0.140361       0.085682
      18.310000       0.175869       0.139227       0.085823
      18.320000       0.174510       0.138269       0.085928
      18.330000       0.173309       0.137498       0.086029
      18.340000       0.172219       0.136922       0.086164
      18.350000       0.171184       0.136538       0.086366
      18.360000       0.170140       0.136332       0.086659
      18.370000       0.169021       0.136284       0.087054
      18.380000       0.167770       0.136365       0.087554
      18.390000       0.166346       0.136540       0.088153
      18.400000       0.164734       0.136779       0.088839
      18.410000       0.162947       0.137046       0.089595
      18.420000       0.161016       0.137310       0.090404
      18.430000       0.158992       0.137542       0.091244
      18.440000       0.156932       0.137720       0.092097
      18.450000       0.154896       0.137832       0.092951
      18.460000       0.152942       0.137879       0.093797
      18.470000       0.151119       0.137875       0.094640
      18.480000       0.149468       0.137843       0.095488
      18.490000       0.148017       0.137810       0.096357
      18.500000       0.146782       0.137806       0.097260
      18.510000       0.145759       0.137854       0.098209
      18.520000       0.144929       0.137968       0.099208
      18.530000       0.144256       0.138149       0.100250
      18.540000       0.143696       0.138386       0.101322
      18.550000       0.143197       0.138650       0.102403
      18.560000       0.142712       0.138902       0.103467
      18.570000       0.142196       0.139094       0.104488
      18.580000       0.141620       0.139183       0.105439
      18.590000       0.140971       0.139133       0.106295
      18.600000       0.140260       0.138930       0.107037
      18.610000       0.139516       0.138575       0.107649
      18.620000       0.138785       0.138085       0.108124
      18.630000       0.138113       0.137484       0.108467
      18.640000       0.137543       0.136791       0.108695
      18.650000       0.137101       0.136014       0.108839
      18.660000       0.136802       0.135154       0.108941
      18.670000       0.136651       0.134209       0.109043
      18.680000       0.136646       0.133179       0.109181
      18.690000       0.136787       0.132073       0.109381
      18.700000       0.137077       0.130913       0.109651
      18.710000       0.137521       0.129728       0.109990
      18.720000       0.138123       0.128550       0.110391
      18.730000       0.138881       0.127405       0.110853
      18.740000       0.139786       0.126312       0.111386
      18.750000       0.140818       0.125279       0.112011
      18.760000       0.141942       0.124307       0.112762
      18.770000       0.143105       0.123390       0.113677
      18.780000       0.144232       0.122517       0.114789
      18.790000       0.145230       0.121671       0.116118
      18.800000       0.146000       0.120835       0.117663
      18.810000       0.146447       0.119994       0.119402
      18.820000       0.146497       0.119141       0.121291
      18.830000       0.146116       0.118275       0.123275
      18.840000       0.145308       0.117408       0.125295
      18.850000       0.144116       0.116556       0.127300
      18.860000       0.142612       0.115741       0.129255
      18.870000       0.140881       0.114978       0.131143
      18.880000       0.139011       0.114280       0.132970
      18.890000       0.137083       0.113651       0.134757
      18.900000       0.135171       0.113087       0.136542
      18.910000       0.133345       0.112578       0.138368
      18.920000       0.131667       0.112110       0.140282
      18.930000       0.130194       0.111672       0.142323
      18.940000       0.128971       0.111260       0.144515
      18.950000       0.128028       0.110879       0.146858
      18.960000       0.127382       0.110545       0.149327
      18.970000       0.127034       0.110279       0.151868
      18.980000       0.126969       0.110103       0.154411
      18.990000       0.127157       0.110036       0.156876
      19.000000       0.127556       0.110090       0.159188
      19.010000       0.128109       0.110272       0.161284
      19.020000       0.128755       0.110583       0.163129
      19.030000       0.129433       0.111024       0.164719
      19.040000       0.130086       0.111594       0.166088
      19.050000       0.130671       0.112290       0.167309
      19.060000       0.131156       0.113104       0.168477
      19.070000       0.131526       0.114019       0.169702
      19.080000       0.131776       0.115010       0.171085
      19.090000       0.131909       0.116044       0.172700
      19.100000       0.131935       0.117088       0.174583
      19.110000       0.131862       0.118108       0.176724
      19.120000       0.131704       0.119078       0.179078
      19.130000       0.131471       0.119973       0.181574
      19.140000       0.131169       0.120769       0.184138
      19.150000       0.130798       0.121443       0.186701
      19.160000       0.130354       0.121969       0.189207
      19.170000       0.129824       0.122325       0.191607
      19.180000       0.129192       0.122503       0.193849
      19.190000       0.128445       0.122511       0.195882
      19.200000       0.127576       0.122376       0.197665
      19.210000       0.126587       0.122140       0.199181
      19.220000       0.125489       0.121851       0.200454
      19.230000       0.124301       0.121560       0.201543
      19.240000       0.123044       0.121314       0.202537
      19.250000       0.121737       0.121153       0.203525
      19.260000       0.120395       0.121107       0.204587
      19.270000       0.119030       0.121198       0.205781
      19.280000       0.117655       0.121441       0.207140
      19.290000       0.116281       0.121843       0.208678
      19.300000       0.114925       0.122407       0.210388
      19.310000       0.113605       0.123134       0.212249
      19.320000       0.112342       0.124023       0.214229
      19.330000       0.111155       0.125075       0.216289
      19.340000       0.110062       0.126287       0.218395
      19.350000       0.109076       0.127649       0.220518
      19.360000       0.108199       0.129142       0.222637
      19.370000       0.107428       0.130736       0.224735
      19.380000       0.106748       0.132394       0.226792
      19.390000       0.106135       0.134074       0.228787
      19.400000       0.105564       0.135737       0.230697
      19.410000       0.105010       0.137351       0.232506
      19.420000       0.104449       0.138890       0.234203
      19.430000       0.103866       0.140335       0.235786
      19.440000       0.103256       0.141669       0.237247
      19.450000       0.102621       0.142878       0.238564
      19.460000       0.101969       0.143941       0.239704
      19.470000       0.101313       0.144835       0.240621
      19.480000       0.100665       0.145534       0.241275
      19.490000       0.100033       0.146014       0.241646
      19.500000       0.099422       0.146266       0.241734
      19.510000       0.098834       0.146300       0.241563
      19.520000       0.098270       0.146158       0.241165
      19.530000       0.097736       0.145914       0.240573
      19.540000       0.097237       0.145660       0.239823
      19.550000       0.096784       0.145498       0.238954
      19.560000       0.096383       0.145511       0.238020
      19.570000       0.096043       0.145754       0.237089
      19.580000       0.095766       0.146233       0.236242
      19.590000       0.095557       0.146912       0.235563
      19.600000       0.095421       0.147715       0.235122
      19.610000       0.095363       0.148543       0.234965
      19.620000       0.095386       0.149294       0.235109
      19.630000       0.095486       0.149882       0.235545
      19.640000       0.095654       0.150246       0.236255
      19.650000       0.095871       0.150352       0.237228
      19.660000       0.096114       0.150192       0.238475
      19.670000       0.096361       0.149770       0.240028
      19.680000       0.096597       0.149100       0.241940
      19.690000       0.096811       0.148205       0.244262
      19.700000       0.097003       0.147125       0.247030
      19.710000       0.097175       0.145921       0.250246
      19.720000       0.097329       0.144678       0.253867
      19.730000       0.097463       0.143494       0.257806
      19.740000       0.097570       0.142458       0.261928
      19.750000       0.097637       0.141636       0.266058
      19.760000       0.097650       0.141055       0.269986
      19.770000       0.097593       0.140697       0.273487
      19.780000       0.097455       0.140507       0.276341
      19.790000       0.097232       0.140400       0.278367
      19.800000       0.096934       0.140275       0.279450
      19.810000       0.096579       0.140040       0.279570
      19.820000       0.096199       0.139623       0.278807
      19.830000       0.095829       0.138986       0.277330
      19.840000       0.095506       0.138124       0.275378
      19.850000       0.095260       0.137061       0.273222
      19.860000       0.095111       0.135831       0.271132
      19.870000       0.095069       0.134475       0.269334
      19.880000       0.095128       0.133027       0.267981
      19.890000       0.095270       0.131521       0.267134
      19.900000       0.095465       0.129987       0.266758
      19.910000       0.095675       0.128462       0.266733
      19.920000       0.095862       0.126985       0.266881
      19.930000       0.095997       0.125599       0.267006
      19.940000       0.096065       0.124354       0.266930
      19.950000       0.096067       0.123299       0.266527
      19.960000       0.096022       0.122477       0.265751
      19.970000       0.095961       0.121918       0.264634
      19.980000       0.095920       0.121631       0.263278
      19.990000       0.095931       0.121595       0.261828
      20.000000       0.096017       0.121757       0.260436
