  # energy grid [eV]     epsr_x  epsr_y  epsr_z
       0.000000            NaN            NaN            NaN
       0.010000 -152756.685618  -85870.584927       2.091693
       0.020000  -38185.642510  -21464.896952       2.091939
       0.030000  -16968.781379   -9537.917066       2.092348
       0.040000   -9542.878447   -5363.473359       2.092921
       0.050000   -6105.744541   -3431.301450       2.093657
       0.060000   -4238.657654   -2381.725710       2.094554
       0.070000   -3112.861259   -1748.863727       2.095611
       0.080000   -2382.174140   -1338.111011       2.096825
       0.090000   -1881.215436   -1056.499326       2.098190
       0.100000   -1522.880546    -855.063144       2.099700
       0.110000   -1257.751128    -706.022129       2.101343
       0.120000   -1056.096288    -592.663174       2.103103
       0.130000    -899.159185    -504.442192       2.104959
       0.140000    -774.632134    -434.440467       2.106882
       0.150000    -674.167756    -377.965555       2.108831
       0.160000    -591.942673    -331.743871       2.110756
       0.170000    -523.794145    -293.435351       2.112591
       0.180000    -466.682584    -261.331308       2.114252
       0.190000    -418.346606    -234.160517       2.115632
       0.200000    -377.075632    -210.961391       2.116597
       0.210000    -341.556411    -190.995693       2.116978
       0.220000    -310.767205    -173.689058       2.116560
       0.230000    -283.903461    -158.589207       2.115081
       0.240000    -260.324686    -145.336073       2.112232
       0.250000    -239.515892    -133.640128       2.107679
       0.260000    -221.059223    -123.266426       2.101104
       0.270000    -204.612794    -114.022695       2.092267
       0.280000    -189.894733    -105.750368       2.081087
       0.290000    -176.671008     -98.317731       2.067709
       0.300000    -164.746058     -91.614657       2.052539
       0.310000    -153.955508     -85.548506       2.036214
       0.320000    -144.160461     -80.040908       2.019511
       0.330000    -135.242982     -75.025222       2.003226
       0.340000    -127.102488     -70.444497       1.988074
       0.350000    -119.652835     -66.249837       1.974616
       0.360000    -112.819902     -62.399073       1.963235
       0.370000    -106.539556     -58.855671       1.954131
       0.380000    -100.755878     -55.587827       1.947328
       0.390000     -95.419588     -52.567709       1.942702
       0.400000     -90.486687     -49.770830       1.940015
       0.410000     -85.917382     -47.175521       1.938963
       0.420000     -81.675394     -44.762534       1.939212
       0.430000     -77.727694     -42.514731       1.940425
       0.440000     -74.044564     -40.416871       1.942285
       0.450000     -70.599758     -38.455437       1.944491
       0.460000     -67.370537     -36.618481       1.946760
       0.470000     -64.337449     -34.895467       1.948817
       0.480000     -61.483892     -33.277107       1.950394
       0.490000     -58.795587     -31.755206       1.951224
       0.500000     -56.260065     -30.322525       1.951055
       0.510000     -53.866252     -28.972653       1.949668
       0.520000     -51.604161     -27.699897       1.946919
       0.530000     -49.464690     -26.499176       1.942781
       0.540000     -47.439497     -25.365890       1.937390
       0.550000     -45.520932     -24.295787       1.931060
       0.560000     -43.701997     -23.284812       1.924259
       0.570000     -41.976337     -22.328984       1.917536
       0.580000     -40.338240     -21.424334       1.911421
       0.590000     -38.782663     -20.566954       1.906332
       0.600000     -37.305262     -19.753162       1.902525
       0.610000     -35.902416     -18.979734       1.900084
       0.620000     -34.571213     -18.244121       1.898956
       0.630000     -33.309391     -17.544567       1.898998
       0.640000     -32.115221     -16.880077       1.900023
       0.650000     -30.987359     -16.250235       1.901836
       0.660000     -29.924656     -15.654891       1.904256
       0.670000     -28.925891     -15.093753       1.907123
       0.680000     -27.989373     -14.565931       1.910303
       0.690000     -27.112389     -14.069537       1.913687
       0.700000     -26.290588     -13.601504       1.917186
       0.710000     -25.517562     -13.157761       1.920726
       0.720000     -24.784960     -12.733789       1.924245
       0.730000     -24.083293     -12.325417       1.927689
       0.740000     -23.403258     -11.929569       1.931006
       0.750000     -22.737090     -11.544704       1.934142
       0.760000     -22.079437     -11.170881       1.937035
       0.770000     -21.427521     -10.809513       1.939606
       0.780000     -20.780720     -10.462970       1.941759
       0.790000     -20.139862     -10.134115       1.943380
       0.800000     -19.506537      -9.825824       1.944341
       0.810000     -18.882556      -9.540454       1.944516
       0.820000     -18.269628      -9.279292       1.943799
       0.830000     -17.669194      -9.042023       1.942131
       0.840000     -17.082373      -8.826401       1.939532
       0.850000     -16.509971      -8.628274       1.936123
       0.860000     -15.952522      -8.442069       1.932132
       0.870000     -15.410330      -8.261653       1.927873
       0.880000     -14.883489      -8.081325       1.923698
       0.890000     -14.371895      -7.896636       1.919937
       0.900000     -13.875223      -7.704836       1.916840
       0.910000     -13.392912      -7.504889       1.914549
       0.920000     -12.924193      -7.297168       1.913107
       0.930000     -12.468214      -7.082983       1.912482
       0.940000     -12.024258      -6.864119       1.912603
       0.950000     -11.592035      -6.642471       1.913381
       0.960000     -11.171965      -6.419813       1.914732
       0.970000     -10.765393      -6.197674       1.916574
       0.980000     -10.374739      -5.977313       1.918833
       0.990000     -10.003578      -5.759729       1.921436
       1.000000      -9.656699      -5.545707       1.924316
       1.010000      -9.340104      -5.335866       1.927409
       1.020000      -9.060907      -5.130706       1.930660
       1.030000      -8.827007      -4.930644       1.934020
       1.040000      -8.646408      -4.736033       1.937450
       1.050000      -8.526098      -4.547164       1.940913
       1.060000      -8.470527      -4.364244       1.944379
       1.070000      -8.479981      -4.187363       1.947813
       1.080000      -8.549405      -4.016454       1.951179
       1.090000      -8.668352      -3.851294       1.954432
       1.100000      -8.822404      -3.691534       1.957519
       1.110000      -8.995769      -3.536797       1.960382
       1.120000      -9.174041      -3.386784       1.962954
       1.130000      -9.345915      -3.241366       1.965168
       1.140000      -9.503248      -3.100609       1.966952
       1.150000      -9.639825      -2.964754       1.968234
       1.160000      -9.749928      -2.834160       1.968930
       1.170000      -9.827739      -2.709240       1.968947
       1.180000      -9.867911      -2.590397       1.968177
       1.190000      -9.866796      -2.477912       1.966512
       1.200000      -9.823481      -2.371780       1.963860
       1.210000      -9.740051      -2.271515       1.960188
       1.220000      -9.621065      -2.176023       1.955561
       1.230000      -9.472588      -2.083658       1.950180
       1.240000      -9.301191      -1.992501       1.944386
       1.250000      -9.113161      -1.900807       1.938617
       1.260000      -8.913999      -1.807461       1.933336
       1.270000      -8.708172      -1.712271       1.928938
       1.280000      -8.499040      -1.616056       1.925694
       1.290000      -8.288932      -1.520538       1.923719
       1.300000      -8.079312      -1.428155       1.922993
       1.310000      -7.871016      -1.341816       1.923403
       1.320000      -7.664498      -1.264629       1.924778
       1.330000      -7.460038      -1.199564       1.926931
       1.340000      -7.257869      -1.148996       1.929680
       1.350000      -7.058241      -1.114142       1.932860
       1.360000      -6.861427      -1.094489       1.936331
       1.370000      -6.667708      -1.087422       1.939977
       1.380000      -6.477360      -1.088331       1.943705
       1.390000      -6.290638      -1.091314       1.947443
       1.400000      -6.107784      -1.090364       1.951136
       1.410000      -5.929030      -1.080628       1.954739
       1.420000      -5.754618      -1.059286       1.958218
       1.430000      -5.584818      -1.025832       1.961541
       1.440000      -5.419944      -0.981819       1.964679
       1.450000      -5.260372      -0.930317       1.967603
       1.460000      -5.106530      -0.875295       1.970271
       1.470000      -4.958882      -0.821069       1.972628
       1.480000      -4.817862      -0.771806       1.974593
       1.490000      -4.683781      -0.731059       1.976071
       1.500000      -4.556697      -0.701310       1.976961
       1.510000      -4.436274      -0.683579       1.977180
       1.520000      -4.321699      -0.677243       1.976673
       1.530000      -4.211689      -0.680212       1.975432
       1.540000      -4.104647      -0.689506       1.973479
       1.550000      -3.998933      -0.702059       1.970850
       1.560000      -3.893162      -0.715454       1.967571
       1.570000      -3.786433      -0.728267       1.963642
       1.580000      -3.678416      -0.739975       1.959043
       1.590000      -3.569292      -0.750575       1.953760
       1.600000      -3.459608      -0.760184       1.947815
       1.610000      -3.350086      -0.768791       1.941291
       1.620000      -3.241460      -0.776157       1.934340
       1.630000      -3.134339      -0.781757       1.927177
       1.640000      -3.029142      -0.784746       1.920055
       1.650000      -2.926106      -0.783989       1.913249
       1.660000      -2.825369      -0.778293       1.907029
       1.670000      -2.727097      -0.766827       1.901636
       1.680000      -2.631598      -0.749574       1.897261
       1.690000      -2.539369      -0.727605       1.894015
       1.700000      -2.451040      -0.703037       1.891914
       1.710000      -2.367220      -0.678687       1.890881
       1.720000      -2.288312      -0.657517       1.890760
       1.730000      -2.214333      -0.642000       1.891347
       1.740000      -2.144842      -0.633564       1.892432
       1.750000      -2.079014      -0.632273       1.893827
       1.760000      -2.015881      -0.636881       1.895384
       1.770000      -1.954663      -0.645312       1.897006
       1.780000      -1.895066      -0.655433       1.898631
       1.790000      -1.837423      -0.665834       1.900214
       1.800000      -1.782601      -0.676297       1.901715
       1.810000      -1.731713      -0.687785       1.903087
       1.820000      -1.685721      -0.701975       1.904275
       1.830000      -1.645080      -0.720517       1.905224
       1.840000      -1.609553      -0.744305       1.905883
       1.850000      -1.578296      -0.772993       1.906217
       1.860000      -1.550192      -0.804923       1.906216
       1.870000      -1.524310      -0.837440       1.905911
       1.880000      -1.500264      -0.867434       1.905373
       1.890000      -1.478308      -0.891886       1.904706
       1.900000      -1.459126      -0.908270       1.904025
       1.910000      -1.443431      -0.914788       1.903428
       1.920000      -1.431584      -0.910463       1.902972
       1.930000      -1.423411      -0.895128       1.902667
       1.940000      -1.418335      -0.869338       1.902479
       1.950000      -1.415740      -0.834238       1.902343
       1.960000      -1.415393      -0.791398       1.902173
       1.970000      -1.417673      -0.742652       1.901880
       1.980000      -1.423494      -0.689953       1.901378
       1.990000      -1.433951      -0.635254       1.900587
       2.000000      -1.449896      -0.580429       1.899443
       2.010000      -1.471676      -0.527203       1.897898
       2.020000      -1.499135      -0.477094       1.895932
       2.030000      -1.531832      -0.431340       1.893564
       2.040000      -1.569259      -0.390789       1.890868
       2.050000      -1.610905      -0.355765       1.887962
       2.060000      -1.656142      -0.325962       1.885005
       2.070000      -1.704068      -0.300422       1.882161
       2.080000      -1.753425      -0.277672       1.879574
       2.090000      -1.802612      -0.256032       1.877335
       2.100000      -1.849756      -0.234006       1.875472
       2.110000      -1.892791      -0.210649       1.873960
       2.120000      -1.929578      -0.185763       1.872739
       2.130000      -1.958098      -0.159885       1.871745
       2.140000      -1.976691      -0.134113       1.870922
       2.150000      -1.984264      -0.109828       1.870230
       2.160000      -1.980413      -0.088410       1.869642
       2.170000      -1.965408      -0.070996       1.869141
       2.180000      -1.940069      -0.058309       1.868716
       2.190000      -1.905575      -0.050569       1.868368
       2.200000      -1.863268      -0.047460       1.868114
       2.210000      -1.814498      -0.048136       1.867981
       2.220000      -1.760537      -0.051273       1.867997
       2.230000      -1.702537      -0.055200       1.868183
       2.240000      -1.641520      -0.058140       1.868550
       2.250000      -1.578388      -0.058513       1.869099
       2.260000      -1.513938      -0.055221       1.869835
       2.270000      -1.448872      -0.047828       1.870766
       2.280000      -1.383812      -0.036582       1.871904
       2.290000      -1.319297      -0.022304       1.873252
       2.300000      -1.255777      -0.006170       1.874795
       2.310000      -1.193591       0.010566       1.876487
       2.320000      -1.132933       0.026853       1.878261
       2.330000      -1.073833       0.042084       1.880032
       2.340000      -1.016150       0.056243       1.881727
       2.350000      -0.959603       0.069913       1.883292
       2.360000      -0.903844       0.084128       1.884712
       2.370000      -0.848544       0.100095       1.886002
       2.380000      -0.793471       0.118891       1.887190
       2.390000      -0.738542       0.141224       1.888298
       2.400000      -0.683827       0.167325       1.889313
       2.410000      -0.629534       0.196973       1.890190
       2.420000      -0.575978       0.229602       1.890846
       2.430000      -0.523558       0.264430       1.891187
       2.440000      -0.472725       0.300570       1.891118
       2.450000      -0.423968       0.337105       1.890572
       2.460000      -0.377775       0.373131       1.889523
       2.470000      -0.334597       0.407779       1.887998
       2.480000      -0.294798       0.440223       1.886079
       2.490000      -0.258594       0.469682       1.883900
       2.500000      -0.226014       0.495429       1.881629
       2.510000      -0.196862       0.516822       1.879445
       2.520000      -0.170705       0.533362       1.877511
       2.530000      -0.146877       0.544804       1.875943
       2.540000      -0.124520       0.551278       1.874795
       2.550000      -0.102657       0.553398       1.874058
       2.560000      -0.080327       0.552268       1.873677
       2.570000      -0.056744       0.549355       1.873573
       2.580000      -0.031446       0.546231       1.873668
       2.590000      -0.004377       0.544269       1.873904
       2.600000       0.024117       0.544380       1.874250
       2.610000       0.053365       0.546892       1.874698
       2.620000       0.082500       0.551594       1.875248
       2.630000       0.110620       0.557920       1.875895
       2.640000       0.136931       0.565202       1.876613
       2.650000       0.160886       0.572932       1.877364
       2.660000       0.182265       0.580948       1.878102
       2.670000       0.201178       0.589485       1.878778
       2.680000       0.217976       0.599093       1.879358
       2.690000       0.233078       0.610435       1.879825
       2.700000       0.246785       0.624061       1.880191
       2.710000       0.259140       0.640244       1.880496
       2.720000       0.269891       0.658933       1.880806
       2.730000       0.278565       0.679790       1.881190
       2.740000       0.284586       0.702298       1.881705
       2.750000       0.287400       0.725866       1.882377
       2.760000       0.286546       0.749930       1.883200
       2.770000       0.281689       0.774018       1.884145
       2.780000       0.272634       0.797798       1.885174
       2.790000       0.259366       0.821079       1.886251
       2.800000       0.242101       0.843796       1.887347
       2.810000       0.221336       0.865950       1.888442
       2.820000       0.197898       0.887546       1.889517
       2.830000       0.172964       0.908531       1.890557
       2.840000       0.148045       0.928780       1.891533
       2.850000       0.124903       0.948115       1.892406
       2.860000       0.105358       0.966355       1.893123
       2.870000       0.091021       0.983374       1.893624
       2.880000       0.083036       0.999145       1.893866
       2.890000       0.081917       1.013762       1.893837
       2.900000       0.087540       1.027427       1.893573
       2.910000       0.099274       1.040430       1.893159
       2.920000       0.116180       1.053112       1.892715
       2.930000       0.137199       1.065823       1.892367
       2.940000       0.161302       1.078867       1.892227
       2.950000       0.187573       1.092454       1.892368
       2.960000       0.215253       1.106656       1.892820
       2.970000       0.243743       1.121409       1.893568
       2.980000       0.272599       1.136524       1.894570
       2.990000       0.301502       1.151715       1.895769
       3.000000       0.330226       1.166629       1.897104
       3.010000       0.358619       1.180879       1.898516
       3.020000       0.386597       1.194078       1.899944
       3.030000       0.414162       1.205911       1.901332
       3.040000       0.441409       1.216198       1.902625
       3.050000       0.468523       1.224969       1.903781
       3.060000       0.495743       1.232489       1.904783
       3.070000       0.523306       1.239236       1.905643
       3.080000       0.551392       1.245811       1.906399
       3.090000       0.580093       1.252816       1.907096
       3.100000       0.609404       1.260719       1.907768
       3.110000       0.639238       1.269763       1.908420
       3.120000       0.669446       1.279954       1.909029
       3.130000       0.699847       1.291122       1.909544
       3.140000       0.730241       1.303031       1.909909
       3.150000       0.760423       1.315497       1.910069
       3.160000       0.790191       1.328464       1.909986
       3.170000       0.819346       1.342003       1.909639
       3.180000       0.847703       1.356252       1.909030
       3.190000       0.875095       1.371325       1.908188
       3.200000       0.901398       1.387242       1.907164
       3.210000       0.926557       1.403914       1.906038
       3.220000       0.950611       1.421169       1.904907
       3.230000       0.973713       1.438802       1.903880
       3.240000       0.996118       1.456624       1.903067
       3.250000       1.018147       1.474477       1.902559
       3.260000       1.040135       1.492248       1.902425
       3.270000       1.062373       1.509866       1.902699
       3.280000       1.085077       1.527309       1.903382
       3.290000       1.108373       1.544595       1.904447
       3.300000       1.132311       1.561753       1.905845
       3.310000       1.156871       1.578772       1.907521
       3.320000       1.181978       1.595532       1.909417
       3.330000       1.207503       1.611751       1.911487
       3.340000       1.233269       1.626980       1.913693
       3.350000       1.259053       1.640633       1.916009
       3.360000       1.284604       1.652073       1.918414
       3.370000       1.309659       1.660710       1.920891
       3.380000       1.333979       1.666112       1.923422
       3.390000       1.357374       1.668112       1.925978
       3.400000       1.379742       1.666893       1.928513
       3.410000       1.401081       1.663044       1.930964
       3.420000       1.421486       1.657531       1.933250
       3.430000       1.441100       1.651569       1.935283
       3.440000       1.460046       1.646395       1.936981
       3.450000       1.478362       1.643005       1.938281
       3.460000       1.495965       1.641964       1.939162
       3.470000       1.512661       1.643341       1.939649
       3.480000       1.528190       1.646799       1.939824
       3.490000       1.542297       1.651766       1.939807
       3.500000       1.554790       1.657635       1.939737
       3.510000       1.565569       1.663925       1.939749
       3.520000       1.574623       1.670346       1.939944
       3.530000       1.582005       1.676781       1.940386
       3.540000       1.587801       1.683199       1.941101
       3.550000       1.592138       1.689560       1.942089
       3.560000       1.595218       1.695747       1.943336
       3.570000       1.597377       1.701573       1.944816
       3.580000       1.599110       1.706845       1.946490
       3.590000       1.601065       1.711450       1.948305
       3.600000       1.603974       1.715446       1.950182
       3.610000       1.608560       1.719090       1.952022
       3.620000       1.615430       1.722791       1.953712
       3.630000       1.625001       1.726993       1.955136
       3.640000       1.637466       1.732020       1.956197
       3.650000       1.652820       1.737975       1.956833
       3.660000       1.670905       1.744724       1.957037
       3.670000       1.691477       1.751968       1.956861
       3.680000       1.714248       1.759377       1.956415
       3.690000       1.738914       1.766691       1.955845
       3.700000       1.765168       1.773782       1.955311
       3.710000       1.792709       1.780628       1.954964
       3.720000       1.821252       1.787244       1.954925
       3.730000       1.850534       1.793579       1.955279
       3.740000       1.880324       1.799418       1.956067
       3.750000       1.910426       1.804311       1.957285
       3.760000       1.940687       1.807557       1.958895
       3.770000       1.971001       1.808256       1.960833
       3.780000       2.001320       1.805423       1.963020
       3.790000       2.031651       1.798148       1.965374
       3.800000       2.062055       1.785762       1.967821
       3.810000       2.092621       1.767995       1.970300
       3.820000       2.123436       1.745092       1.972770
       3.830000       2.154554       1.717896       1.975215
       3.840000       2.185981       1.687843       1.977640
       3.850000       2.217677       1.656850       1.980068
       3.860000       2.249562       1.627079       1.982532
       3.870000       2.281543       1.600633       1.985063
       3.880000       2.313526       1.579257       1.987683
       3.890000       2.345424       1.564134       1.990399
       3.900000       2.377145       1.555827       1.993195
       3.910000       2.408582       1.554341       1.996033
       3.920000       2.439607       1.559260       1.998855
       3.930000       2.470080       1.569884       2.001585
       3.940000       2.499883       1.585347       2.004132
       3.950000       2.528956       1.604691       2.006400
       3.960000       2.557315       1.626932       2.008294
       3.970000       2.585051       1.651101       2.009736
       3.980000       2.612309       1.676286       2.010684
       3.990000       2.639266       1.701666       2.011153
       4.000000       2.666129       1.726542       2.011222
       4.010000       2.693130       1.750366       2.011032
       4.020000       2.720549       1.772745       2.010773
       4.030000       2.748707       1.793447       2.010641
       4.040000       2.777965       1.812378       2.010808
       4.050000       2.808674       1.829572       2.011393
       4.060000       2.841116       1.845179       2.012448
       4.070000       2.875422       1.859463       2.013972
       4.080000       2.911518       1.872796       2.015918
       4.090000       2.949102       1.885625       2.018222
       4.100000       2.987671       1.898414       2.020807
       4.110000       3.026546       1.911571       2.023596
       4.120000       3.064907       1.925382       2.026513
       4.130000       3.101800       1.939993       2.029485
       4.140000       3.136139       1.955423       2.032435
       4.150000       3.166703       1.971608       2.035284
       4.160000       3.192165       1.988438       2.037949
       4.170000       3.211137       2.005770       2.040340
       4.180000       3.222249       2.023417       2.042364
       4.190000       3.224240       2.041133       2.043932
       4.200000       3.216060       2.058623       2.044973
       4.210000       3.196985       2.075574       2.045444
       4.220000       3.166736       2.091713       2.045345
       4.230000       3.125590       2.106856       2.044712
       4.240000       3.074426       2.120945       2.043614
       4.250000       3.014690       2.134049       2.042142
       4.260000       2.948269       2.146352       2.040402
       4.270000       2.877333       2.158133       2.038515
       4.280000       2.804219       2.169728       2.036621
       4.290000       2.731349       2.181501       2.034864
       4.300000       2.661122       2.193791       2.033377
       4.310000       2.595710       2.206866       2.032255
       4.320000       2.536744       2.220866       2.031534
       4.330000       2.485015       2.235778       2.031192
       4.340000       2.440359       2.251424       2.031157
       4.350000       2.401796       2.267470       2.031333
       4.360000       2.367867       2.283462       2.031618
       4.370000       2.336995       2.298887       2.031921
       4.380000       2.307769       2.313254       2.032166
       4.390000       2.279097       2.326173       2.032300
       4.400000       2.250309       2.337410       2.032285
       4.410000       2.221224       2.346890       2.032107
       4.420000       2.192144       2.354630       2.031770
       4.430000       2.163720       2.360657       2.031294
       4.440000       2.136673       2.364925       2.030711
       4.450000       2.111501       2.367284       2.030062
       4.460000       2.088342       2.367531       2.029385
       4.470000       2.067092       2.365503       2.028709
       4.480000       2.047678       2.361173       2.028048
       4.490000       2.030324       2.354691       2.027401
       4.500000       2.015601       2.346350       2.026756
       4.510000       2.004235       2.336511       2.026095
       4.520000       1.996736       2.325513       2.025400
       4.530000       1.993061       2.313584       2.024657
       4.540000       1.992477       2.300757       2.023860
       4.550000       1.993712       2.286776       2.023010
       4.560000       1.995367       2.271028       2.022105
       4.570000       1.996432       2.252531       2.021144
       4.580000       1.996735       2.230034       2.020126
       4.590000       1.997115       2.202254       2.019057
       4.600000       1.999224       2.168210       2.017946
       4.610000       2.005021       2.127563       2.016805
       4.620000       2.016140       2.080867       2.015642
       4.630000       2.033384       2.029630       2.014447
       4.640000       2.056487       1.976168       2.013205
       4.650000       2.084145       1.923282       2.011895
       4.660000       2.114252       1.873842       2.010508
       4.670000       2.144204       1.830346       2.009049
       4.680000       2.171220       1.794568       2.007546
       4.690000       2.192634       1.767344       2.006043
       4.700000       2.206160       1.748536       2.004595
       4.710000       2.210123       1.737161       2.003275
       4.720000       2.203611       1.731627       2.002162
       4.730000       2.186530       1.730021       2.001345
       4.740000       2.159500       1.730354       2.000915
       4.750000       2.123625       1.730762       2.000948
       4.760000       2.080150       1.729636       2.001497
       4.770000       2.030133       1.725721       2.002574
       4.780000       1.974266       1.718195       2.004149
       4.790000       1.912936       1.706712       2.006146
       4.800000       1.846536       1.691395       2.008450
       4.810000       1.775868       1.672756       2.010924
       4.820000       1.702407       1.651568       2.013428
       4.830000       1.628263       1.628730       2.015834
       4.840000       1.555850       1.605177       2.018045
       4.850000       1.487421       1.581844       2.020000
       4.860000       1.424710       1.559675       2.021682
       4.870000       1.368827       1.539632       2.023101
       4.880000       1.320384       1.522660       2.024280
       4.890000       1.279741       1.509584       2.025245
       4.900000       1.247213       1.500954       2.026007
       4.910000       1.223148       1.496886       2.026568
       4.920000       1.207866       1.496967       2.026933
       4.930000       1.201538       1.500258       2.027127
       4.940000       1.204073       1.505409       2.027205
       4.950000       1.215071       1.510848       2.027254
       4.960000       1.233829       1.515012       2.027383
       4.970000       1.259385       1.516564       2.027698
       4.980000       1.290587       1.514546       2.028290
       4.990000       1.326151       1.508470       2.029212
       5.000000       1.364721       1.498335       2.030480
       5.010000       1.404909       1.484611       2.032074
       5.020000       1.445317       1.468204       2.033945
       5.030000       1.484537       1.450378       2.036028
       5.040000       1.521145       1.432605       2.038257
       5.050000       1.553714       1.416339       2.040583
       5.060000       1.580888       1.402733       2.042986
       5.070000       1.601515       1.392418       2.045479
       5.080000       1.614817       1.385409       2.048101
       5.090000       1.620517       1.381169       2.050903
       5.100000       1.618874       1.378810       2.053925
       5.110000       1.610600       1.377335       2.057176
       5.120000       1.596725       1.375863       2.060631
       5.130000       1.578493       1.373808       2.064225
       5.140000       1.557359       1.370985       2.067870
       5.150000       1.535061       1.367615       2.071462
       5.160000       1.513654       1.364230       2.074899
       5.170000       1.495419       1.361470       2.078096
       5.180000       1.482623       1.359868       2.080986
       5.190000       1.477205       1.359689       2.083531
       5.200000       1.480493       1.360882       2.085716
       5.210000       1.493013       1.363124       2.087542
       5.220000       1.514444       1.365917       2.089019
       5.230000       1.543691       1.368696       2.090164
       5.240000       1.579055       1.370926       2.090997
       5.250000       1.618453       1.372181       2.091547
       5.260000       1.659642       1.372213       2.091848
       5.270000       1.700419       1.371015       2.091951
       5.280000       1.738768       1.368859       2.091920
       5.290000       1.772935       1.366274       2.091828
       5.300000       1.801448       1.363957       2.091751
       5.310000       1.823089       1.362610       2.091750
       5.320000       1.836876       1.362791       2.091861
       5.330000       1.842122       1.364805       2.092087
       5.340000       1.838560       1.368699       2.092405
       5.350000       1.826499       1.374345       2.092781
       5.360000       1.806905       1.381568       2.093189
       5.370000       1.781325       1.390264       2.093631
       5.380000       1.751644       1.400450       2.094145
       5.390000       1.719723       1.412213       2.094813
       5.400000       1.687030       1.425586       2.095748
       5.410000       1.654384       1.440408       2.097080
       5.420000       1.621910       1.456247       2.098932
       5.430000       1.589207       1.472428       2.101396
       5.440000       1.555672       1.488166       2.104510
       5.450000       1.520840       1.502739       2.108259
       5.460000       1.484604       1.515636       2.112577
       5.470000       1.447234       1.526617       2.117366
       5.480000       1.409212       1.535672       2.122511
       5.490000       1.370999       1.542911       2.127890
       5.500000       1.332869       1.548454       2.133388
       5.510000       1.294885       1.552391       2.138896
       5.520000       1.257022       1.554834       2.144316
       5.530000       1.219363       1.556026       2.149565
       5.540000       1.182302       1.556430       2.154576
       5.550000       1.146650       1.556722       2.159306
       5.560000       1.113614       1.557664       2.163734
       5.570000       1.084614       1.559880       2.167864
       5.580000       1.061010       1.563641       2.171713
       5.590000       1.043855       1.568751       2.175301
       5.600000       1.033780       1.574561       2.178637
       5.610000       1.031030       1.580128       2.181720
       5.620000       1.035598       1.584416       2.184537
       5.630000       1.047357       1.586484       2.187081
       5.640000       1.066124       1.585577       2.189359
       5.650000       1.091616       1.581145       2.191400
       5.660000       1.123373       1.572815       2.193257
       5.670000       1.160700       1.560379       2.194995
       5.680000       1.202686       1.543822       2.196678
       5.690000       1.248295       1.523364       2.198357
       5.700000       1.296482       1.499463       2.200054
       5.710000       1.346305       1.472768       2.201755
       5.720000       1.397004       1.444031       2.203412
       5.730000       1.448044       1.414030       2.204956
       5.740000       1.499119       1.383536       2.206312
       5.750000       1.550120       1.353319       2.207424
       5.760000       1.601080       1.324129       2.208262
       5.770000       1.652094       1.296623       2.208830
       5.780000       1.703229       1.271223       2.209165
       5.790000       1.754424       1.247988       2.209323
       5.800000       1.805392       1.226579       2.209372
       5.810000       1.855553       1.206350       2.209374
       5.820000       1.903992       1.186546       2.209377
       5.830000       1.949455       1.166514       2.209410
       5.840000       1.990371       1.145863       2.209484
       5.850000       2.024912       1.124539       2.209608
       5.860000       2.051130       1.102826       2.209789
       5.870000       2.067173       1.081311       2.210037
       5.880000       2.071584       1.060831       2.210351
       5.890000       2.063620       1.042384       2.210718
       5.900000       2.043484       1.027024       2.211104
       5.910000       2.012407       1.015730       2.211475
       5.920000       1.972529       1.009291       2.211803
       5.930000       1.926645       1.008231       2.212083
       5.940000       1.877852       1.012769       2.212338
       5.950000       1.829184       1.022810       2.212620
       5.960000       1.783267       1.037950       2.212999
       5.970000       1.742050       1.057493       2.213562
       5.980000       1.706650       1.080491       2.214401
       5.990000       1.677326       1.105812       2.215603
       6.000000       1.653589       1.132225       2.217242
       6.010000       1.634395       1.158500       2.219361
       6.020000       1.618387       1.183514       2.221971
       6.030000       1.604125       1.206349       2.225039
       6.040000       1.590291       1.226382       2.228504
       6.050000       1.575809       1.243322       2.232287
       6.060000       1.559904       1.257199       2.236312
       6.070000       1.542097       1.268277       2.240525
       6.080000       1.522151       1.276929       2.244902
       6.090000       1.499982       1.283526       2.249447
       6.100000       1.475565       1.288381       2.254179
       6.110000       1.448895       1.291797       2.259121
       6.120000       1.420045       1.294171       2.264281
       6.130000       1.389282       1.296087       2.269643
       6.140000       1.357140       1.298332       2.275173
       6.150000       1.324362       1.301781       2.280819
       6.160000       1.291741       1.307216       2.286516
       6.170000       1.259931       1.315158       2.292193
       6.180000       1.229357       1.325798       2.297768
       6.190000       1.200225       1.339047       2.303153
       6.200000       1.172560       1.354641       2.308251
       6.210000       1.146233       1.372255       2.312958
       6.220000       1.120944       1.391562       2.317167
       6.230000       1.096231       1.412231       2.320781
       6.240000       1.071545       1.433902       2.323724
       6.250000       1.046402       1.456177       2.325959
       6.260000       1.020548       1.478630       2.327493
       6.270000       0.994059       1.500834       2.328388
       6.280000       0.967327       1.522386       2.328744
       6.290000       0.940921       1.542917       2.328686
       6.300000       0.915391       1.562090       2.328341
       6.310000       0.891101       1.579584       2.327817
       6.320000       0.868175       1.595075       2.327200
       6.330000       0.846574       1.608205       2.326540
       6.340000       0.826268       1.618567       2.325856
       6.350000       0.807398       1.625702       2.325142
       6.360000       0.790362       1.629115       2.324379
       6.370000       0.775807       1.628309       2.323547
       6.380000       0.764551       1.622840       2.322651
       6.390000       0.757472       1.612372       2.321728
       6.400000       0.755387       1.596732       2.320859
       6.410000       0.758911       1.575943       2.320166
       6.420000       0.768344       1.550234       2.319796
       6.430000       0.783621       1.520039       2.319898
       6.440000       0.804340       1.486003       2.320594
       6.450000       0.829857       1.448993       2.321959
       6.460000       0.859379       1.410102       2.324005
       6.470000       0.892012       1.370621       2.326682
       6.480000       0.926763       1.331974       2.329895
       6.490000       0.962524       1.295600       2.333527
       6.500000       0.998094       1.262807       2.337459
       6.510000       1.032252       1.234619       2.341600
       6.520000       1.063894       1.211670       2.345900
       6.530000       1.092195       1.194175       2.350355
       6.540000       1.116747       1.181986       2.355005
       6.550000       1.137631       1.174701       2.359921
       6.560000       1.155380       1.171762       2.365182
       6.570000       1.170823       1.172527       2.370856
       6.580000       1.184860       1.176320       2.376975
       6.590000       1.198234       1.182497       2.383523
       6.600000       1.211343       1.190508       2.390436
       6.610000       1.224128       1.199955       2.397609
       6.620000       1.236062       1.210596       2.404916
       6.630000       1.246278       1.222293       2.412231
       6.640000       1.253825       1.234945       2.419437
       6.650000       1.258012       1.248434       2.426436
       6.660000       1.258736       1.262616       2.433143
       6.670000       1.256676       1.277343       2.439480
       6.680000       1.253287       1.292508       2.445365
       6.690000       1.250580       1.308088       2.450715
       6.700000       1.250741       1.324181       2.455447
       6.710000       1.255727       1.341009       2.459497
       6.720000       1.266923       1.358877       2.462840
       6.730000       1.284941       1.378086       2.465506
       6.740000       1.309574       1.398826       2.467578
       6.750000       1.339869       1.421075       2.469188
       6.760000       1.374270       1.444537       2.470487
       6.770000       1.410788       1.468633       2.471622
       6.780000       1.447154       1.492524       2.472716
       6.790000       1.480958       1.515176       2.473867
       6.800000       1.509768       1.535452       2.475154
       6.810000       1.531265       1.552211       2.476650
       6.820000       1.543406       1.564434       2.478431
       6.830000       1.544628       1.571353       2.480569
       6.840000       1.534044       1.572587       2.483123
       6.850000       1.511563       1.568255       2.486118
       6.860000       1.477882       1.559029       2.489534
       6.870000       1.434325       1.546092       2.493304
       6.880000       1.382594       1.531000       2.497325
       6.890000       1.324500       1.515483       2.501469
       6.900000       1.261781       1.501229       2.505609
       6.910000       1.196068       1.489686       2.509643
       6.920000       1.128980       1.481927       2.513509
       6.930000       1.062292       1.478559       2.517197
       6.940000       0.998035       1.479718       2.520738
       6.950000       0.938433       1.485138       2.524186
       6.960000       0.885679       1.494286       2.527595
       6.970000       0.841617       1.506513       2.531001
       6.980000       0.807470       1.521174       2.534420
       6.990000       0.783676       1.537671       2.537857
       7.000000       0.769859       1.555442       2.541320
       7.010000       0.764887       1.573895       2.544828
       7.020000       0.767017       1.592367       2.548417
       7.030000       0.774100       1.610100       2.552135
       7.040000       0.783849       1.626271       2.556032
       7.050000       0.794128       1.640042       2.560151
       7.060000       0.803183       1.650647       2.564510
       7.070000       0.809778       1.657488       2.569091
       7.080000       0.813212       1.660245       2.573835
       7.090000       0.813230       1.658945       2.578647
       7.100000       0.809872       1.653964       2.583418
       7.110000       0.803325       1.645929       2.588056
       7.120000       0.793802       1.635561       2.592515
       7.130000       0.781536       1.623536       2.596813
       7.140000       0.766850       1.610410       2.601023
       7.150000       0.750254       1.596621       2.605259
       7.160000       0.732472       1.582541       2.609642
       7.170000       0.714344       1.568525       2.614291
       7.180000       0.696642       1.554938       2.619309
       7.190000       0.679894       1.542143       2.624790
       7.200000       0.664309       1.530448       2.630817
       7.210000       0.649846       1.520037       2.637459
       7.220000       0.636372       1.510906       2.644764
       7.230000       0.623827       1.502845       2.652753
       7.240000       0.612346       1.495499       2.661416
       7.250000       0.602270       1.488498       2.670707
       7.260000       0.594082       1.481637       2.680557
       7.270000       0.588295       1.475046       2.690871
       7.280000       0.585336       1.469246       2.701544
       7.290000       0.585474       1.465083       2.712456
       7.300000       0.588831       1.463507       2.723481
       7.310000       0.595425       1.465305       2.734497
       7.320000       0.605213       1.470864       2.745397
       7.330000       0.618026       1.480029       2.756102
       7.340000       0.633421       1.492080       2.766564
       7.350000       0.650492       1.505808       2.776762
       7.360000       0.667784       1.519653       2.786685
       7.370000       0.683367       1.531877       2.796324
       7.380000       0.695105       1.540769       2.805662
       7.390000       0.701039       1.544850       2.814684
       7.400000       0.699814       1.543066       2.823378
       7.410000       0.691015       1.534937       2.831752
       7.420000       0.675334       1.520629       2.839842
       7.430000       0.654467       1.500932       2.847709
       7.440000       0.630786       1.477139       2.855441
       7.450000       0.606847       1.450859       2.863147
       7.460000       0.584922       1.423805       2.870946
       7.470000       0.566669       1.397600       2.878955
       7.480000       0.553042       1.373642       2.887280
       7.490000       0.544409       1.353035       2.896008
       7.500000       0.540807       1.336592       2.905194
       7.510000       0.542216       1.324903       2.914849
       7.520000       0.548742       1.318422       2.924937
       7.530000       0.560623       1.317516       2.935376
       7.540000       0.578079       1.322422       2.946056
       7.550000       0.601080       1.333146       2.956863
       7.560000       0.629165       1.349358       2.967697
       7.570000       0.661386       1.370364       2.978479
       7.580000       0.696385       1.395147       2.989144
       7.590000       0.732556       1.422490       2.999617
       7.600000       0.768235       1.451123       3.009810
       7.610000       0.801888       1.479887       3.019620
       7.620000       0.832290       1.507879       3.028945
       7.630000       0.858682       1.534575       3.037713
       7.640000       0.880897       1.559882       3.045892
       7.650000       0.899388       1.584106       3.053504
       7.660000       0.915138       1.607827       3.060614
       7.670000       0.929431       1.631723       3.067320
       7.680000       0.943549       1.656390       3.073742
       7.690000       0.958478       1.682210       3.080002
       7.700000       0.974705       1.709281       3.086209
       7.710000       0.992127       1.737399       3.092453
       7.720000       1.010053       1.766076       3.098793
       7.730000       1.027255       1.794565       3.105257
       7.740000       1.042053       1.821881       3.111838
       7.750000       1.052415       1.846817       3.118504
       7.760000       1.056142       1.867999       3.125194
       7.770000       1.051114       1.883973       3.131830
       7.780000       1.035611       1.893355       3.138314
       7.790000       1.008624       1.895024       3.144535
       7.800000       0.970080       1.888323       3.150366
       7.810000       0.920908       1.873240       3.155695
       7.820000       0.862945       1.850523       3.160441
       7.830000       0.798691       1.821666       3.164576
       7.840000       0.730987       1.788731       3.168122
       7.850000       0.662674       1.754001       3.171129
       7.860000       0.596297       1.719540       3.173647
       7.870000       0.533893       1.686777       3.175720
       7.880000       0.476893       1.656272       3.177399
       7.890000       0.426133       1.627738       3.178762
       7.900000       0.381970       1.600323       3.179921
       7.910000       0.344451       1.573035       3.180999
       7.920000       0.313476       1.545165       3.182109
       7.930000       0.288908       1.516539       3.183318
       7.940000       0.270591       1.487543       3.184626
       7.950000       0.258295       1.458941       3.185934
       7.960000       0.251624       1.431588       3.187030
       7.970000       0.249925       1.406165       3.187598
       7.980000       0.252241       1.383011       3.187263
       7.990000       0.257296       1.362057       3.185667
       8.000000       0.263549       1.342839       3.182546
       8.010000       0.269285       1.324560       3.177769
       8.020000       0.272768       1.306189       3.171321
       8.030000       0.272426       1.286617       3.163239
       8.040000       0.267088       1.264874       3.153546
       8.050000       0.256205       1.240371       3.142244
       8.060000       0.240028       1.213098       3.129380
       8.070000       0.219646       1.183670       3.115158
       8.080000       0.196802       1.153156       3.100034
       8.090000       0.173504       1.122730       3.084737
       8.100000       0.151533       1.093259       3.070179
       8.110000       0.132034       1.065020       3.057308
       8.120000       0.115330       1.037633       3.046946
       8.130000       0.100985       1.010219       3.039673
       8.140000       0.088079       0.981709       3.035788
       8.150000       0.075563       0.951189       3.035320
       8.160000       0.062617       0.918209       3.038084
       8.170000       0.048912       0.882990       3.043737
       8.180000       0.034712       0.846464       3.051830
       8.190000       0.020781       0.810161       3.061863
       8.200000       0.008137       0.775924       3.073352
       8.210000      -0.002269       0.745537       3.085890
       8.220000      -0.009819       0.720364       3.099199
       8.230000      -0.014365       0.701116       3.113154
       8.240000      -0.016199       0.687824       3.127755
       8.250000      -0.015889       0.679993       3.143046
       8.260000      -0.014067       0.676872       3.159022
       8.270000      -0.011223       0.677725       3.175556
       8.280000      -0.007587       0.682000       3.192371
       8.290000      -0.003121       0.689360       3.209073
       8.300000       0.002373       0.699585       3.225221
       8.310000       0.009071       0.712420       3.240389
       8.320000       0.016949       0.727439       3.254196
       8.330000       0.025656       0.743959       3.266303
       8.340000       0.034492       0.761051       3.276399
       8.350000       0.042474       0.777606       3.284192
       8.360000       0.048482       0.792446       3.289427
       8.370000       0.051436       0.804444       3.291919
       8.380000       0.050481       0.812633       3.291580
       8.390000       0.045154       0.816279       3.288433
       8.400000       0.035460       0.814943       3.282608
       8.410000       0.021889       0.808526       3.274327
       8.420000       0.005332       0.797323       3.263884
       8.430000      -0.013031       0.782064       3.251656
       8.440000      -0.031865       0.763901       3.238102
       8.450000      -0.049822       0.744303       3.223771
       8.460000      -0.065663       0.724867       3.209271
       8.470000      -0.078363       0.707083       3.195179
       8.480000      -0.087160       0.692145       3.181918
       8.490000      -0.091556       0.680851       3.169636
       8.500000      -0.091275       0.673609       3.158156
       8.510000      -0.086218       0.670509       3.147048
       8.520000      -0.076429       0.671429       3.135795
       8.530000      -0.062081       0.676129       3.124001
       8.540000      -0.043469       0.684311       3.111537
       8.550000      -0.020997       0.695646       3.098576
       8.560000       0.004833       0.709752       3.085503
       8.570000       0.033444       0.726188       3.072770
       8.580000       0.064203       0.744451       3.060781
       8.590000       0.096450       0.764020       3.049869
       8.600000       0.129541       0.784401       3.040386
       8.610000       0.162875       0.805174       3.032834
       8.620000       0.195915       0.826007       3.027967
       8.630000       0.228169       0.846649       3.026774
       8.640000       0.259147       0.866909       3.030346
       8.650000       0.288301       0.886629       3.039669
       8.660000       0.314979       0.905678       3.055436
       8.670000       0.338423       0.923951       3.077943
       8.680000       0.357809       0.941371       3.107091
       8.690000       0.372325       0.957876       3.142466
       8.700000       0.381278       0.973402       3.183453
       8.710000       0.384199       0.987862       3.229330
       8.720000       0.380938       1.001135       3.279337
       8.730000       0.371723       1.013061       3.332714
       8.740000       0.357185       1.023441       3.388719
       8.750000       0.338335       1.032028       3.446637
       8.760000       0.316498       1.038531       3.505759
       8.770000       0.293202       1.042633       3.565358
       8.780000       0.270025       1.044045       3.624638
       8.790000       0.248434       1.042583       3.682683
       8.800000       0.229646       1.038256       3.738405
       8.810000       0.214539       1.031307       3.790490
       8.820000       0.203629       1.022190       3.837362
       8.830000       0.197078       1.011485       3.877168
       8.840000       0.194747       0.999788       3.907808
       8.850000       0.196252       0.987636       3.927022
       8.860000       0.201037       0.975480       3.932553
       8.870000       0.208445       0.963706       3.922394
       8.880000       0.217785       0.952671       3.895080
       8.890000       0.228393       0.942747       3.849963
       8.900000       0.239686       0.934355       3.787353
       8.910000       0.251219       0.927978       3.708475
       8.920000       0.262735       0.924140       3.615265
       8.930000       0.274185       0.923323       3.510095
       8.940000       0.285723       0.925866       3.395524
       8.950000       0.297659       0.931883       3.274146
       8.960000       0.310381       0.941237       3.148490
       8.970000       0.324259       0.953586       3.020960
       8.980000       0.339559       0.968469       2.893765
       8.990000       0.356378       0.985398       2.768825
       9.000000       0.374632       1.003920       2.647686
       9.010000       0.394082       1.023650       2.531441
       9.020000       0.414401       1.044278       2.420690
       9.030000       0.435268       1.065557       2.315565
       9.040000       0.456453       1.087292       2.215817
       9.050000       0.477874       1.109327       2.120962
       9.060000       0.499600       1.131530       2.030441
       9.070000       0.521795       1.153781       1.943771
       9.080000       0.544640       1.175951       1.860634
       9.090000       0.568246       1.197896       1.780904
       9.100000       0.592594       1.219435       1.704621
       9.110000       0.617521       1.240366       1.631946
       9.120000       0.642739       1.260486       1.563116
       9.130000       0.667880       1.279646       1.498378
       9.140000       0.692549       1.297802       1.437925
       9.150000       0.716379       1.315052       1.381824
       9.160000       0.739065       1.331645       1.329969
       9.170000       0.760395       1.347937       1.282089
       9.180000       0.780265       1.364323       1.237785
       9.190000       0.798704       1.381176       1.196576
       9.200000       0.815901       1.398806       1.157926
       9.210000       0.832215       1.417440       1.121264
       9.220000       0.848154       1.437211       1.086025
       9.230000       0.864293       1.458147       1.051745
       9.240000       0.881161       1.480150       1.018187
       9.250000       0.899136       1.502992       0.985450
       9.260000       0.918386       1.526316       0.953977
       9.270000       0.938870       1.549652       0.924444
       9.280000       0.960383       1.572427       0.897572
       9.290000       0.982609       1.593970       0.873949
       9.300000       1.005166       1.613517       0.853927
       9.310000       1.027620       1.630236       0.837602
       9.320000       1.049504       1.643285       0.824868
       9.330000       1.070350       1.651894       0.815500
       9.340000       1.089735       1.655461       0.809277
       9.350000       1.107351       1.653640       0.806087
       9.360000       1.123062       1.646389       0.806005
       9.370000       1.136925       1.633977       0.809286
       9.380000       1.149169       1.616929       0.816267
       9.390000       1.160134       1.595919       0.827202
       9.400000       1.170194       1.571639       0.842103
       9.410000       1.179687       1.544662       0.860635
       9.420000       1.188863       1.515345       0.882103
       9.430000       1.197849       1.483793       0.905522
       9.440000       1.206613       1.449898       0.929740
       9.450000       1.214940       1.413478       0.953572
       9.460000       1.222432       1.374515       0.975937
       9.470000       1.228552       1.333437       0.995986
       9.480000       1.232717       1.291342       1.013216
       9.490000       1.234409       1.250029       1.027529
       9.500000       1.233244       1.211778       1.039220
       9.510000       1.228983       1.178916       1.048875
       9.520000       1.221460       1.153327       1.057204
       9.530000       1.210494       1.136088       1.064887
       9.540000       1.195810       1.127336       1.072495
       9.550000       1.177028       1.126362       1.080484
       9.560000       1.153722       1.131840       1.089232
       9.570000       1.125525       1.142077       1.099060
       9.580000       1.092281       1.155247       1.110218
       9.590000       1.054166       1.169584       1.122839
       9.600000       1.011758       1.183567       1.136915
       9.610000       0.966002       1.196095       1.152319
       9.620000       0.918060       1.206611       1.168870
       9.630000       0.869110       1.215140       1.186396
       9.640000       0.820156       1.222191       1.204751
       9.650000       0.771939       1.228535       1.223785
       9.660000       0.724975       1.234951       1.243296
       9.670000       0.679719       1.242015       1.263003
       9.680000       0.636725       1.250008       1.282574
       9.690000       0.596732       1.258917       1.301693
       9.700000       0.560601       1.268500       1.320123
       9.710000       0.529169       1.278340       1.337750
       9.720000       0.503114       1.287893       1.354589
       9.730000       0.482917       1.296513       1.370748
       9.740000       0.468901       1.303483       1.386374
       9.750000       0.461259       1.308075       1.401615
       9.760000       0.460015       1.309634       1.416586
       9.770000       0.464927       1.307697       1.431370
       9.780000       0.475358       1.302108       1.446022
       9.790000       0.490202       1.293073       1.460570
       9.800000       0.507888       1.281128       1.475004
       9.810000       0.526465       1.267013       1.489255
       9.820000       0.543759       1.251482       1.503186
       9.830000       0.557567       1.235100       1.516606
       9.840000       0.565858       1.218103       1.529328
       9.850000       0.566997       1.200369       1.541260
       9.860000       0.559929       1.181517       1.552469
       9.870000       0.544317       1.161099       1.563182
       9.880000       0.520594       1.138813       1.573712
       9.890000       0.489888       1.114647       1.584323
       9.900000       0.453864       1.088929       1.595122
       9.910000       0.414488       1.062240       1.605997
       9.920000       0.373777       1.035261       1.616621
       9.930000       0.333593       1.008574       1.626507
       9.940000       0.295485       0.982514       1.635086
       9.950000       0.260628       0.957121       1.641800
       9.960000       0.229828       0.932232       1.646200
       9.970000       0.203587       0.907667       1.648004
       9.980000       0.182198       0.883437       1.647103
       9.990000       0.165823       0.859841       1.643480
      10.000000       0.154561       0.837433       1.637116
      10.010000       0.148455       0.816872       1.627923
      10.020000       0.147453       0.798748       1.615770
      10.030000       0.151351       0.783478       1.600591
      10.040000       0.159741       0.771274       1.582506
      10.050000       0.172013       0.762161       1.561908
      10.060000       0.187400       0.756018       1.539454
      10.070000       0.205049       0.752589       1.515976
      10.080000       0.224094       0.751519       1.492340
      10.090000       0.243721       0.752393       1.469293
      10.100000       0.263212       0.754808       1.447342
      10.110000       0.281970       0.758448       1.426697
      10.120000       0.299519       0.763154       1.407283
      10.130000       0.315481       0.768974       1.388822
      10.140000       0.329551       0.776173       1.370961
      10.150000       0.341477       0.785213       1.353414
      10.160000       0.351052       0.796678       1.336077
      10.170000       0.358123       0.811159       1.319074
      10.180000       0.362624       0.829111       1.302707
      10.190000       0.364621       0.850717       1.287318
      10.200000       0.364373       0.875830       1.273111
      10.210000       0.362361       0.903985       1.260017
      10.220000       0.359274       0.934501       1.247648
      10.230000       0.355908       0.966600       1.235372
      10.240000       0.353000       0.999543       1.222447
      10.250000       0.351028       1.032730       1.208200
      10.260000       0.350041       1.065766       1.192161
      10.270000       0.349600       1.098472       1.174141
      10.280000       0.348839       1.130840       1.154238
      10.290000       0.346651       1.162940       1.132778
      10.300000       0.341942       1.194804       1.110232
      10.310000       0.333900       1.226333       1.087111
      10.320000       0.322192       1.257249       1.063866
      10.330000       0.307038       1.287099       1.040808
      10.340000       0.289141       1.315297       1.018060
      10.350000       0.269513       1.341171       0.995560
      10.360000       0.249265       1.363993       0.973127
      10.370000       0.229424       1.382975       0.950578
      10.380000       0.210810       1.397287       0.927882
      10.390000       0.193975       1.406069       0.905288
      10.400000       0.179193       1.408497       0.883361
      10.410000       0.166496       1.403860       0.862902
      10.420000       0.155752       1.391627       0.844766
      10.430000       0.146763       1.371497       0.829655
      10.440000       0.139362       1.343390       0.817968
      10.450000       0.133438       1.307415       0.809740
      10.460000       0.128911       1.263818       0.804684
      10.470000       0.125662       1.212972       0.802298
      10.480000       0.123462       1.155431       0.801993
      10.490000       0.121968       1.092058       0.803187
      10.500000       0.120791       1.024161       0.805365
      10.510000       0.119627       0.953512       0.808092
      10.520000       0.118412       0.882198       0.811035
      10.530000       0.117416       0.812334       0.813969
      10.540000       0.117238       0.745757       0.816806
      10.550000       0.118683       0.683812       0.819594
      10.560000       0.122567       0.627284       0.822523
      10.570000       0.129512       0.576431       0.825914
      10.580000       0.139797       0.531090       0.830200
      10.590000       0.153302       0.490780       0.835885
      10.600000       0.169542       0.454774       0.843449
      10.610000       0.187762       0.422131       0.853228
      10.620000       0.207062       0.391692       0.865299
      10.630000       0.226511       0.362093       0.879398
      10.640000       0.245258       0.331868       0.894926
      10.650000       0.262610       0.299686       0.911008
      10.660000       0.278097       0.264693       0.926616
      10.670000       0.291521       0.226857       0.940720
      10.680000       0.302963       0.187139       0.952440
      10.690000       0.312751       0.147360       0.961138
      10.700000       0.321363       0.109776       0.966426
      10.710000       0.329295       0.076531       0.968090
      10.720000       0.336934       0.049210       0.965973
      10.730000       0.344449       0.028664       0.959918
      10.740000       0.351747       0.015077       0.949798
      10.750000       0.358493       0.008180       0.935652
      10.760000       0.364169       0.007469       0.917848
      10.770000       0.368178       0.012357       0.897196
      10.780000       0.369923       0.022231       0.874950
      10.790000       0.368849       0.036455       0.852688
      10.800000       0.364447       0.054348       0.832077
      10.810000       0.356214       0.075165       0.814611
      10.820000       0.343598       0.098090       0.801386
      10.830000       0.325969       0.122260       0.792964
      10.840000       0.302629       0.146784       0.789364
      10.850000       0.272904       0.170776       0.790163
      10.860000       0.236332       0.193384       0.794665
      10.870000       0.192913       0.213812       0.802058
      10.880000       0.143372       0.231336       0.811490
      10.890000       0.089312       0.245328       0.822038
      10.900000       0.033148       0.255297       0.832593
      10.910000      -0.022207       0.260970       0.841739
      10.920000      -0.073831       0.262375       0.847722
      10.930000      -0.119277       0.259910       0.848531
      10.940000      -0.156886       0.254364       0.842094
      10.950000      -0.185855       0.246872       0.826539
      10.960000      -0.206106       0.238797       0.800451
      10.970000      -0.218076       0.231552       0.763075
      10.980000      -0.222525       0.226386       0.714413
      10.990000      -0.220402       0.224177       0.655202
      11.000000      -0.212774       0.225320       0.586782
      11.010000      -0.200784       0.229713       0.510920
      11.020000      -0.185601       0.236856       0.429617
      11.030000      -0.168364       0.246005       0.344950
      11.040000      -0.150114       0.256321       0.258943
      11.050000      -0.131732       0.266968       0.173477
      11.060000      -0.113897       0.277164       0.090228
      11.070000      -0.097073       0.286198       0.010635
      11.080000      -0.081531       0.293453      -0.064106
      11.090000      -0.067378       0.298455      -0.133028
      11.100000      -0.054606       0.300979      -0.195364
      11.110000      -0.043137       0.301145      -0.250502
      11.120000      -0.032852       0.299478      -0.297961
      11.130000      -0.023627       0.296856      -0.337398
      11.140000      -0.015344       0.294347      -0.368658
      11.150000      -0.007892       0.292970      -0.391837
      11.160000      -0.001178       0.293489      -0.407318
      11.170000       0.004868       0.296290      -0.415763
      11.180000       0.010268       0.301374      -0.418046
      11.190000       0.014971       0.308441      -0.415157
      11.200000       0.018844       0.317001      -0.408114
      11.210000       0.021690       0.326490      -0.397894
      11.220000       0.023310       0.336366      -0.385402
      11.230000       0.023572       0.346172      -0.371492
      11.240000       0.022479       0.355558      -0.356999
      11.250000       0.020204       0.364259      -0.342769
      11.260000       0.017076       0.372052      -0.329633
      11.270000       0.013542       0.378741      -0.318318
      11.280000       0.010088       0.384169      -0.309334
      11.290000       0.007150       0.388270      -0.302887
      11.300000       0.005015       0.391114      -0.298862
      11.310000       0.003769       0.392939      -0.296889
      11.320000       0.003299       0.394136      -0.296465
      11.330000       0.003376       0.395206      -0.297074
      11.340000       0.003758       0.396697      -0.298273
      11.350000       0.004289       0.399144      -0.299716
      11.360000       0.004936       0.403002      -0.301155
      11.370000       0.005780       0.408580      -0.302431
      11.380000       0.006966       0.415984      -0.303462
      11.390000       0.008667       0.425084      -0.304248
      11.400000       0.011063       0.435537      -0.304865
      11.410000       0.014351       0.446850      -0.305444
      11.420000       0.018739       0.458487      -0.306148
      11.430000       0.024418       0.469980      -0.307135
      11.440000       0.031494       0.481014      -0.308541
      11.450000       0.039919       0.491481      -0.310479
      11.460000       0.049443       0.501485      -0.313060
      11.470000       0.059618       0.511309      -0.316429
      11.480000       0.069859       0.521347      -0.320786
      11.490000       0.079549       0.532034      -0.326385
      11.500000       0.088153       0.543782      -0.333509
      11.510000       0.095318       0.556928      -0.342407
      11.520000       0.100943       0.571708      -0.353243
      11.530000       0.105195       0.588245      -0.366046
      11.540000       0.108488       0.606548      -0.380693
      11.550000       0.111426       0.626523      -0.396924
      11.560000       0.114727       0.647994      -0.414377
      11.570000       0.119118       0.670714      -0.432618
      11.580000       0.125214       0.694389      -0.451167
      11.590000       0.133412       0.718684      -0.469503
      11.600000       0.143825       0.743245      -0.487095
      11.610000       0.156276       0.767710      -0.503442
      11.620000       0.170354       0.791738      -0.518132
      11.630000       0.185503       0.815032      -0.530870
      11.640000       0.201120       0.837362      -0.541487
      11.650000       0.216636       0.858582      -0.549917
      11.660000       0.231576       0.878641      -0.556195
      11.670000       0.245582       0.897582      -0.560460
      11.680000       0.258415       0.915533      -0.562987
      11.690000       0.269943       0.932691      -0.564194
      11.700000       0.280124       0.949291      -0.564620
      11.710000       0.288984       0.965563      -0.564859
      11.720000       0.296596       0.981677      -0.565463
      11.730000       0.303042       0.997692      -0.566847
      11.740000       0.308362       1.013523      -0.569220
      11.750000       0.312505       1.028949      -0.572574
      11.760000       0.315285       1.043660      -0.576733
      11.770000       0.316381       1.057334      -0.581419
      11.780000       0.315379       1.069715      -0.586325
      11.790000       0.311876       1.080665      -0.591130
      11.800000       0.305607       1.090177      -0.595499
      11.810000       0.296579       1.098328      -0.599065
      11.820000       0.285143       1.105183      -0.601461
      11.830000       0.271981       1.110692      -0.602382
      11.840000       0.257989       1.114608      -0.601650
      11.850000       0.244101       1.116474      -0.599263
      11.860000       0.231106       1.115686      -0.595379
      11.870000       0.219542       1.111625      -0.590265
      11.880000       0.209683       1.103830      -0.584243
      11.890000       0.201617       1.092143      -0.577643
      11.900000       0.195366       1.076806      -0.570795
      11.910000       0.190968       1.058447      -0.564025
      11.920000       0.188512       1.037970      -0.557663
      11.930000       0.188099       1.016344      -0.552019
      11.940000       0.189776       0.994386      -0.547359
      11.950000       0.193492       0.972572      -0.543855
      11.960000       0.199089       0.950984      -0.541550
      11.970000       0.206340       0.929375      -0.540328
      11.980000       0.214984       0.907348      -0.539910
      11.990000       0.224746       0.884555      -0.539883
      12.000000       0.235338       0.860864      -0.539761
      12.010000       0.246438       0.836420      -0.539065
      12.020000       0.257688       0.811600      -0.537406
      12.030000       0.268706       0.786887      -0.534532
      12.040000       0.279125       0.762732      -0.530345
      12.050000       0.288635       0.739456      -0.524868
      12.060000       0.297025       0.717244      -0.518210
      12.070000       0.304205       0.696190      -0.510532
      12.080000       0.310198       0.676347      -0.502033
      12.090000       0.315121       0.657752      -0.492943
      12.100000       0.319147       0.640416      -0.483509
      12.110000       0.322464       0.624306      -0.473965
      12.120000       0.325237       0.609343      -0.464495
      12.130000       0.327593       0.595415      -0.455196
      12.140000       0.329615       0.582399      -0.446073
      12.150000       0.331366       0.570162      -0.437049
      12.160000       0.332913       0.558560      -0.428010
      12.170000       0.334340       0.547441      -0.418843
      12.180000       0.335734       0.536669      -0.409473
      12.190000       0.337148       0.526165      -0.399866
      12.200000       0.338576       0.515939      -0.390022
      12.210000       0.339941       0.506108      -0.379948
      12.220000       0.341125       0.496867      -0.369640
      12.230000       0.342018       0.488457      -0.359066
      12.240000       0.342549       0.481098      -0.348183
      12.250000       0.342705       0.474930      -0.336957
      12.260000       0.342531       0.469974      -0.325393
      12.270000       0.342128       0.466105      -0.313560
      12.280000       0.341643       0.463082      -0.301584
      12.290000       0.341249       0.460597      -0.289636
      12.300000       0.341108       0.458356      -0.277905
      12.310000       0.341332       0.456141      -0.266582
      12.320000       0.341963       0.453853      -0.255846
      12.330000       0.342988       0.451504      -0.245854
      12.340000       0.344374       0.449182      -0.236723
      12.350000       0.346096       0.446998      -0.228510
      12.360000       0.348147       0.445045      -0.221182
      12.370000       0.350508       0.443367      -0.214598
      12.380000       0.353110       0.441952      -0.208496
      12.390000       0.355809       0.440734      -0.202510
      12.400000       0.358397       0.439601      -0.196223
      12.410000       0.360625       0.438419      -0.189240
      12.420000       0.362257       0.437056      -0.181283
      12.430000       0.363107       0.435404      -0.172252
      12.440000       0.363073       0.433399      -0.162242
      12.450000       0.362143       0.431034      -0.151517
      12.460000       0.360373       0.428343      -0.140442
      12.470000       0.357842       0.425388      -0.129407
      12.480000       0.354586       0.422237      -0.118742
      12.490000       0.350557       0.418953      -0.108667
      12.500000       0.345613       0.415612      -0.099269
      12.510000       0.339563       0.412324      -0.090512
      12.520000       0.332237       0.409270      -0.082278
      12.530000       0.323568       0.406707      -0.074412
      12.540000       0.313643       0.404957      -0.066758
      12.550000       0.302708       0.404374      -0.059183
      12.560000       0.291143       0.405305      -0.051594
      12.570000       0.279404       0.408060      -0.043948
      12.580000       0.267957       0.412890      -0.036261
      12.590000       0.257215       0.419950      -0.028619
      12.600000       0.247480       0.429275      -0.021176
      12.610000       0.238903       0.440747      -0.014146
      12.620000       0.231480       0.454081      -0.007781
      12.630000       0.225094       0.468839      -0.002332
      12.640000       0.219583       0.484466       0.001987
      12.650000       0.214827       0.500353       0.005032
      12.660000       0.210791       0.515895       0.006746
      12.670000       0.207540       0.530555       0.007155
      12.680000       0.205204       0.543905       0.006354
      12.690000       0.203939       0.555653       0.004489
      12.700000       0.203882       0.565634       0.001740
      12.710000       0.205142       0.573774      -0.001666
      12.720000       0.207798       0.580040      -0.005464
      12.730000       0.211907       0.584385      -0.009347
      12.740000       0.217506       0.586708      -0.013001
      12.750000       0.224594       0.586845      -0.016146
      12.760000       0.233116       0.584603      -0.018577
      12.770000       0.242951       0.579823      -0.020185
      12.780000       0.253907       0.572470      -0.020963
      12.790000       0.265729       0.562692      -0.020978
      12.800000       0.278109       0.550839      -0.020339
      12.810000       0.290703       0.537420      -0.019156
      12.820000       0.303147       0.523042      -0.017506
      12.830000       0.315060       0.508349      -0.015411
      12.840000       0.326057       0.493991      -0.012843
      12.850000       0.335771       0.480589      -0.009747
      12.860000       0.343873       0.468697      -0.006069
      12.870000       0.350105       0.458742      -0.001783
      12.880000       0.354314       0.450959       0.003098
      12.890000       0.356469       0.445338       0.008534
      12.900000       0.356670       0.441584       0.014478
      12.910000       0.355135       0.439115       0.020896
      12.920000       0.352165       0.437105       0.027776
      12.930000       0.348107       0.434573       0.035129
      12.940000       0.343324       0.430521       0.042978
      12.950000       0.338192       0.424102       0.051339
      12.960000       0.333100       0.414767       0.060204
      12.970000       0.328453       0.402356       0.069526
      12.980000       0.324643       0.387072       0.079213
      12.990000       0.321998       0.369376       0.089127
      13.000000       0.320740       0.349845       0.099101
      13.010000       0.320967       0.329063       0.108954
      13.020000       0.322665       0.307559       0.118517
      13.030000       0.325747       0.285798       0.127658
      13.040000       0.330077       0.264169       0.136283
      13.050000       0.335474       0.242976       0.144332
      13.060000       0.341698       0.222437       0.151759
      13.070000       0.348415       0.202719       0.158513
      13.080000       0.355203       0.183993       0.164528
      13.090000       0.361570       0.166476       0.169741
      13.100000       0.367017       0.150457       0.174114
      13.110000       0.371106       0.136264       0.177647
      13.120000       0.373543       0.124218       0.180390
      13.130000       0.374227       0.114564       0.182428
      13.140000       0.373278       0.107417       0.183866
      13.150000       0.371008       0.102720       0.184820
      13.160000       0.367865       0.100245       0.185405
      13.170000       0.364340       0.099613       0.185727
      13.180000       0.360891       0.100342       0.185883
      13.190000       0.357881       0.101912       0.185959
      13.200000       0.355552       0.103815       0.186029
      13.210000       0.354009       0.105618       0.186165
      13.220000       0.353230       0.107005       0.186452
      13.230000       0.353062       0.107830       0.186997
      13.240000       0.353248       0.108129       0.187936
      13.250000       0.353476       0.108129       0.189425
      13.260000       0.353447       0.108208       0.191621
      13.270000       0.352956       0.108847       0.194653
      13.280000       0.351936       0.110566       0.198595
      13.290000       0.350454       0.113867       0.203451
      13.300000       0.348657       0.119161       0.209146
      13.310000       0.346687       0.126714       0.215529
      13.320000       0.344596       0.136597       0.222394
      13.330000       0.342292       0.148672       0.229496
      13.340000       0.339536       0.162615       0.236589
      13.350000       0.335984       0.177948       0.243457
      13.360000       0.331273       0.194095       0.249946
      13.370000       0.325117       0.210428       0.255977
      13.380000       0.317402       0.226324       0.261555
      13.390000       0.308226       0.241210       0.266754
      13.400000       0.297905       0.254599       0.271690
      13.410000       0.286910       0.266105       0.276489
      13.420000       0.275801       0.275450       0.281254
      13.430000       0.265144       0.282463       0.286043
      13.440000       0.255454       0.287086       0.290865
      13.450000       0.247150       0.289378       0.295691
      13.460000       0.240524       0.289505       0.300474
      13.470000       0.235719       0.287707       0.305175
      13.480000       0.232737       0.284233       0.309775
      13.490000       0.231457       0.279281       0.314292
      13.500000       0.231701       0.272953       0.318778
      13.510000       0.233292       0.265259       0.323308
      13.520000       0.236111       0.256179       0.327962
      13.530000       0.240117       0.245747       0.332801
      13.540000       0.245322       0.234143       0.337848
      13.550000       0.251738       0.221739       0.343083
      13.560000       0.259318       0.209091       0.348452
      13.570000       0.267914       0.196864       0.353879
      13.580000       0.277258       0.185726       0.359289
      13.590000       0.286978       0.176234       0.364614
      13.600000       0.296619       0.168749       0.369794
      13.610000       0.305690       0.163409       0.374775
      13.620000       0.313702       0.160155       0.379501
      13.630000       0.320214       0.158795       0.383912
      13.640000       0.324872       0.159071       0.387951
      13.650000       0.327446       0.160711       0.391577
      13.660000       0.327855       0.163447       0.394767
      13.670000       0.326171       0.167002       0.397530
      13.680000       0.322611       0.171068       0.399897
      13.690000       0.317518       0.175295       0.401917
      13.700000       0.311329       0.179301       0.403644
      13.710000       0.304546       0.182717       0.405133
      13.720000       0.297686       0.185247       0.406443
      13.730000       0.291224       0.186727       0.407635
      13.740000       0.285534       0.187134       0.408778
      13.750000       0.280865       0.186546       0.409942
      13.760000       0.277337       0.185071       0.411198
      13.770000       0.274975       0.182772       0.412612
      13.780000       0.273738       0.179623       0.414241
      13.790000       0.273549       0.175524       0.416133
      13.800000       0.274308       0.170346       0.418325
      13.810000       0.275906       0.164011       0.420851
      13.820000       0.278221       0.156555       0.423733
      13.830000       0.281124       0.148185       0.426984
      13.840000       0.284475       0.139286       0.430605
      13.850000       0.288134       0.130394       0.434591
      13.860000       0.291966       0.122123       0.438939
      13.870000       0.295851       0.115065       0.443657
      13.880000       0.299697       0.109700       0.448770
      13.890000       0.303444       0.106326       0.454308
      13.900000       0.307063       0.105040       0.460301
      13.910000       0.310541       0.105760       0.466765
      13.920000       0.313864       0.108286       0.473689
      13.930000       0.316994       0.112362       0.481038
      13.940000       0.319862       0.117725       0.488748
      13.950000       0.322365       0.124127       0.496731
      13.960000       0.324389       0.131343       0.504882
      13.970000       0.325840       0.139161       0.513085
      13.980000       0.326675       0.147380       0.521222
      13.990000       0.326932       0.155813       0.529183
      14.000000       0.326746       0.164296       0.536876
      14.010000       0.326344       0.172699       0.544224
      14.020000       0.326010       0.180932       0.551171
      14.030000       0.326036       0.188941       0.557685
      14.040000       0.326661       0.196701       0.563757
      14.050000       0.328026       0.204212       0.569402
      14.060000       0.330161       0.211508       0.574654
      14.070000       0.332991       0.218652       0.579553
      14.080000       0.336372       0.225735       0.584141
      14.090000       0.340126       0.232858       0.588458
      14.100000       0.344070       0.240091       0.592557
      14.110000       0.348033       0.247448       0.596513
      14.120000       0.351869       0.254863       0.600431
      14.130000       0.355467       0.262184       0.604437
      14.140000       0.358767       0.269195       0.608664
      14.150000       0.361777       0.275649       0.613217
      14.160000       0.364572       0.281300       0.618152
      14.170000       0.367279       0.285938       0.623454
      14.180000       0.370046       0.289418       0.629028
      14.190000       0.373014       0.291682       0.634705
      14.200000       0.376301       0.292763       0.640257
      14.210000       0.380000       0.292785       0.645421
      14.220000       0.384188       0.291939       0.649944
      14.230000       0.388927       0.290459       0.653620
      14.240000       0.394259       0.288590       0.656322
      14.250000       0.400189       0.286580       0.658027
      14.260000       0.406662       0.284665       0.658801
      14.270000       0.413556       0.283059       0.658774
      14.280000       0.420675       0.281935       0.658090
      14.290000       0.427746       0.281398       0.656866
      14.300000       0.434436       0.281466       0.655169
      14.310000       0.440355       0.282066       0.653031
      14.320000       0.445086       0.283051       0.650486
      14.330000       0.448206       0.284238       0.647616
      14.340000       0.449329       0.285441       0.644587
      14.350000       0.448146       0.286518       0.641636
      14.360000       0.444463       0.287393       0.639027
      14.370000       0.438231       0.288081       0.636990
      14.380000       0.429567       0.288684       0.635653
      14.390000       0.418752       0.289375       0.635010
      14.400000       0.406216       0.290361       0.634914
      14.410000       0.392509       0.291837       0.635115
      14.420000       0.378258       0.293957       0.635310
      14.430000       0.364109       0.296811       0.635199
      14.440000       0.350663       0.300431       0.634528
      14.450000       0.338417       0.304793       0.633112
      14.460000       0.327725       0.309830       0.630835
      14.470000       0.318781       0.315438       0.627633
      14.480000       0.311629       0.321476       0.623461
      14.490000       0.306183       0.327781       0.618273
      14.500000       0.302263       0.334171       0.612002
      14.510000       0.299628       0.340460       0.604570
      14.520000       0.298024       0.346471       0.595920
      14.530000       0.297231       0.352041       0.586053
      14.540000       0.297094       0.357032       0.575064
      14.550000       0.297539       0.361331       0.563155
      14.560000       0.298561       0.364876       0.550634
      14.570000       0.300205       0.367674       0.537891
      14.580000       0.302529       0.369821       0.525365
      14.590000       0.305581       0.371508       0.513506
      14.600000       0.309376       0.372995       0.502741
      14.610000       0.313886       0.374562       0.493436
      14.620000       0.319045       0.376450       0.485863
      14.630000       0.324766       0.378820       0.480180
      14.640000       0.330956       0.381727       0.476412
      14.650000       0.337529       0.385136       0.474455
      14.660000       0.344412       0.388940       0.474095
      14.670000       0.351534       0.392991       0.475036
      14.680000       0.358805       0.397124       0.476939
      14.690000       0.366110       0.401165       0.479456
      14.700000       0.373295       0.404950       0.482268
      14.710000       0.380181       0.408327       0.485118
      14.720000       0.386579       0.411172       0.487834
      14.730000       0.392313       0.413389       0.490338
      14.740000       0.397240       0.414925       0.492645
      14.750000       0.401273       0.415776       0.494845
      14.760000       0.404394       0.416002       0.497078
      14.770000       0.406654       0.415728       0.499501
      14.780000       0.408166       0.415131       0.502254
      14.790000       0.409089       0.414408       0.505437
      14.800000       0.409605       0.413736       0.509091
      14.810000       0.409901       0.413236       0.513210
      14.820000       0.410153       0.412967       0.517748
      14.830000       0.410532       0.412953       0.522645
      14.840000       0.411207       0.413215       0.527847
      14.850000       0.412344       0.413802       0.533320
      14.860000       0.414106       0.414801       0.539045
      14.870000       0.416625       0.416317       0.545012
      14.880000       0.419986       0.418439       0.551199
      14.890000       0.424202       0.421215       0.557564
      14.900000       0.429212       0.424625       0.564040
      14.910000       0.434879       0.428587       0.570542
      14.920000       0.441012       0.432973       0.576980
      14.930000       0.447391       0.437640       0.583277
      14.940000       0.453793       0.442460       0.589374
      14.950000       0.460024       0.447346       0.595238
      14.960000       0.465938       0.452258       0.600866
      14.970000       0.471456       0.457203       0.606289
      14.980000       0.476565       0.462210       0.611573
      14.990000       0.481323       0.467321       0.616816
      15.000000       0.485839       0.472563       0.622128
      15.010000       0.490243       0.477943       0.627608
      15.020000       0.494649       0.483432       0.633326
      15.030000       0.499113       0.488965       0.639311
      15.040000       0.503610       0.494433       0.645552
      15.050000       0.508033       0.499698       0.652019
      15.060000       0.512218       0.504602       0.658670
      15.070000       0.515984       0.508998       0.665467
      15.080000       0.519185       0.512777       0.672376
      15.090000       0.521741       0.515901       0.679370
      15.100000       0.523657       0.518427       0.686426
      15.110000       0.525016       0.520499       0.693526
      15.120000       0.525952       0.522331       0.700648
      15.130000       0.526619       0.524161       0.707769
      15.140000       0.527161       0.526212       0.714850
      15.150000       0.527686       0.528663       0.721835
      15.160000       0.528259       0.531632       0.728642
      15.170000       0.528901       0.535173       0.735164
      15.180000       0.529591       0.539270       0.741259
      15.190000       0.530272       0.543844       0.746754
      15.200000       0.530858       0.548758       0.751437
      15.210000       0.531241       0.553829       0.755070
      15.220000       0.531297       0.558840       0.757402
      15.230000       0.530895       0.563563       0.758197
      15.240000       0.529901       0.567780       0.757270
      15.250000       0.528191       0.571316       0.754519
      15.260000       0.525671       0.574070       0.749949
      15.270000       0.522304       0.576034       0.743675
      15.280000       0.518123       0.577300       0.735896
      15.290000       0.513235       0.578044       0.726851
      15.300000       0.507797       0.578497       0.716762
      15.310000       0.501991       0.578911       0.705804
      15.320000       0.495992       0.579532       0.694097
      15.330000       0.489963       0.580568       0.681755
      15.340000       0.484051       0.582166       0.668933
      15.350000       0.478380       0.584387       0.655882
      15.360000       0.473049       0.587193       0.642970
      15.370000       0.468113       0.590449       0.630650
      15.380000       0.463578       0.593942       0.619387
      15.390000       0.459414       0.597427       0.609557
      15.400000       0.455568       0.600670       0.601362
      15.410000       0.451990       0.603495       0.594786
      15.420000       0.448645       0.605820       0.589612
      15.430000       0.445522       0.607670       0.585477
      15.440000       0.442637       0.609173       0.581947
      15.450000       0.440027       0.610524       0.578580
      15.460000       0.437742       0.611939       0.574967
      15.470000       0.435830       0.613599       0.570771
      15.480000       0.434327       0.615611       0.565749
      15.490000       0.433248       0.617980       0.559775
      15.500000       0.432592       0.620613       0.552848
      15.510000       0.432347       0.623337       0.545091
      15.520000       0.432498       0.625938       0.536704
      15.530000       0.433031       0.628202       0.527923
      15.540000       0.433921       0.629963       0.518955
      15.550000       0.435123       0.631143       0.509952
      15.560000       0.436562       0.631776       0.500996
      15.570000       0.438141       0.632006       0.492109
      15.580000       0.439763       0.632056       0.483275
      15.590000       0.441364       0.632175       0.474463
      15.600000       0.442935       0.632584       0.465654
      15.610000       0.444526       0.633429       0.456861
      15.620000       0.446231       0.634757       0.448147
      15.630000       0.448155       0.636511       0.439632
      15.640000       0.450369       0.638551       0.431474
      15.650000       0.452888       0.640683       0.423845
      15.660000       0.455645       0.642709       0.416888
      15.670000       0.458506       0.644470       0.410687
      15.680000       0.461283       0.645873       0.405247
      15.690000       0.463775       0.646896       0.400492
      15.700000       0.465800       0.647556       0.396287
      15.710000       0.467229       0.647867       0.392469
      15.720000       0.468004       0.647803       0.388888
      15.730000       0.468143       0.647275       0.385436
      15.740000       0.467733       0.646142       0.382064
      15.750000       0.466912       0.644243       0.378783
      15.760000       0.465848       0.641448       0.375651
      15.770000       0.464717       0.637697       0.372752
      15.780000       0.463679       0.633029       0.370172
      15.790000       0.462855       0.627582       0.367972
      15.800000       0.462310       0.621568       0.366177
      15.810000       0.462052       0.615233       0.364759
      15.820000       0.462033       0.608814       0.363640
      15.830000       0.462174       0.602503       0.362690
      15.840000       0.462390       0.596433       0.361746
      15.850000       0.462627       0.590679       0.360625
      15.860000       0.462878       0.585276       0.359156
      15.870000       0.463180       0.580236       0.357216
      15.880000       0.463585       0.575562       0.354753
      15.890000       0.464134       0.571247       0.351808
      15.900000       0.464823       0.567267       0.348505
      15.910000       0.465602       0.563577       0.345027
      15.920000       0.466397       0.560119       0.341575
      15.930000       0.467136       0.556831       0.338327
      15.940000       0.467777       0.553662       0.335409
      15.950000       0.468324       0.550574       0.332882
      15.960000       0.468826       0.547536       0.330747
      15.970000       0.469363       0.544528       0.328955
      15.980000       0.470027       0.541534       0.327432
      15.990000       0.470898       0.538550       0.326109
      16.000000       0.472038       0.535579       0.324948
      16.010000       0.473473       0.532623       0.323968
      16.020000       0.475208       0.529675       0.323250
      16.030000       0.477226       0.526707       0.322916
      16.040000       0.479509       0.523665       0.323100
      16.050000       0.482038       0.520480       0.323904
      16.060000       0.484800       0.517082       0.325372
      16.070000       0.487779       0.513429       0.327477
      16.080000       0.490954       0.509534       0.330138
      16.090000       0.494297       0.505483       0.333243
      16.100000       0.497783       0.501424       0.336671
      16.110000       0.501397       0.497534       0.340316
      16.120000       0.505135       0.493970       0.344096
      16.130000       0.508996       0.490816       0.347949
      16.140000       0.512966       0.488048       0.351838
      16.150000       0.517003       0.485529       0.355737
      16.160000       0.521033       0.483038       0.359635
      16.170000       0.524964       0.480318       0.363535
      16.180000       0.528702       0.477135       0.367458
      16.190000       0.532170       0.473332       0.371445
      16.200000       0.535320       0.468854       0.375552
      16.210000       0.538120       0.463763       0.379838
      16.220000       0.540528       0.458214       0.384356
      16.230000       0.542468       0.452421       0.389141
      16.240000       0.543814       0.446605       0.394208
      16.250000       0.544388       0.440949       0.399550
      16.260000       0.543993       0.435568       0.405143
      16.270000       0.542455       0.430503       0.410946
      16.280000       0.539678       0.425732       0.416908
      16.290000       0.535677       0.421207       0.422972
      16.300000       0.530597       0.416882       0.429076
      16.310000       0.524691       0.412749       0.435157
      16.320000       0.518280       0.408851       0.441150
      16.330000       0.511696       0.405280       0.446996
      16.340000       0.505241       0.402163       0.452646
      16.350000       0.499151       0.399627       0.458061
      16.360000       0.493587       0.397767       0.463217
      16.370000       0.488639       0.396625       0.468107
      16.380000       0.484340       0.396175       0.472731
      16.390000       0.480675       0.396322       0.477099
      16.400000       0.477594       0.396906       0.481222
      16.410000       0.475011       0.397719       0.485107
      16.420000       0.472802       0.398524       0.488757
      16.430000       0.470816       0.399093       0.492173
      16.440000       0.468896       0.399233       0.495354
      16.450000       0.466907       0.398817       0.498306
      16.460000       0.464762       0.397803       0.501047
      16.470000       0.462441       0.396227       0.503609
      16.480000       0.459990       0.394198       0.506040
      16.490000       0.457513       0.391868       0.508403
      16.500000       0.455157       0.389415       0.510762
      16.510000       0.453095       0.387010       0.513175
      16.520000       0.451501       0.384808       0.515682
      16.530000       0.450520       0.382927       0.518300
      16.540000       0.450251       0.381449       0.521027
      16.550000       0.450726       0.380428       0.523846
      16.560000       0.451919       0.379901       0.526736
      16.570000       0.453755       0.379898       0.529671
      16.580000       0.456130       0.380452       0.532621
      16.590000       0.458918       0.381578       0.535549
      16.600000       0.461988       0.383260       0.538408
      16.610000       0.465208       0.385434       0.541146
      16.620000       0.468452       0.387976       0.543711
      16.630000       0.471596       0.390726       0.546061
      16.640000       0.474529       0.393515       0.548168
      16.650000       0.477151       0.396193       0.550024
      16.660000       0.479387       0.398654       0.551640
      16.670000       0.481199       0.400845       0.553044
      16.680000       0.482590       0.402763       0.554273
      16.690000       0.483616       0.404442       0.555362
      16.700000       0.484371       0.405938       0.556349
      16.710000       0.484974       0.407312       0.557261
      16.720000       0.485543       0.408611       0.558125
      16.730000       0.486178       0.409861       0.558964
      16.740000       0.486949       0.411068       0.559799
      16.750000       0.487906       0.412230       0.560656
      16.760000       0.489085       0.413357       0.561561
      16.770000       0.490525       0.414472       0.562543
      16.780000       0.492268       0.415609       0.563634
      16.790000       0.494352       0.416804       0.564864
      16.800000       0.496796       0.418080       0.566263
      16.810000       0.499581       0.419444       0.567850
      16.820000       0.502653       0.420888       0.569637
      16.830000       0.505927       0.422397       0.571630
      16.840000       0.509304       0.423959       0.573824
      16.850000       0.512693       0.425561       0.576214
      16.860000       0.516025       0.427188       0.578786
      16.870000       0.519261       0.428814       0.581525
      16.880000       0.522385       0.430405       0.584404
      16.890000       0.525400       0.431923       0.587394
      16.900000       0.528318       0.433340       0.590462
      16.910000       0.531153       0.434648       0.593575
      16.920000       0.533930       0.435858       0.596705
      16.930000       0.536686       0.437000       0.599830
      16.940000       0.539471       0.438106       0.602934
      16.950000       0.542349       0.439199       0.606003
      16.960000       0.545383       0.440280       0.609025
      16.970000       0.548623       0.441338       0.611982
      16.980000       0.552095       0.442352       0.614848
      16.990000       0.555792       0.443309       0.617589
      17.000000       0.559678       0.444211       0.620164
      17.010000       0.563691       0.445072       0.622527
      17.020000       0.567754       0.445919       0.624631
      17.030000       0.571780       0.446782       0.626430
      17.040000       0.575678       0.447698       0.627884
      17.050000       0.579361       0.448702       0.628959
      17.060000       0.582744       0.449835       0.629628
      17.070000       0.585750       0.451132       0.629876
      17.080000       0.588312       0.452613       0.629701
      17.090000       0.590376       0.454266       0.629108
      17.100000       0.591890       0.456037       0.628119
      17.110000       0.592801       0.457824       0.626762
      17.120000       0.593038       0.459484       0.625083
      17.130000       0.592511       0.460846       0.623137
      17.140000       0.591114       0.461741       0.620994
      17.150000       0.588737       0.462030       0.618738
      17.160000       0.585275       0.461638       0.616467
      17.170000       0.580639       0.460583       0.614286
      17.180000       0.574767       0.458981       0.612296
      17.190000       0.567640       0.457032       0.610586
      17.200000       0.559310       0.454990       0.609219
      17.210000       0.549923       0.453118       0.608233
      17.220000       0.539745       0.451646       0.607639
      17.230000       0.529157       0.450749       0.607424
      17.240000       0.518633       0.450522       0.607559
      17.250000       0.508684       0.450987       0.608005
      17.260000       0.499795       0.452104       0.608717
      17.270000       0.492355       0.453794       0.609646
      17.280000       0.486613       0.455955       0.610740
      17.290000       0.482650       0.458480       0.611952
      17.300000       0.480386       0.461263       0.613237
      17.310000       0.479608       0.464197       0.614562
      17.320000       0.480014       0.467167       0.615908
      17.330000       0.481261       0.470056       0.617272
      17.340000       0.483009       0.472740       0.618663
      17.350000       0.484964       0.475103       0.620096
      17.360000       0.486901       0.477051       0.621582
      17.370000       0.488682       0.478527       0.623131
      17.380000       0.490255       0.479519       0.624747
      17.390000       0.491639       0.480056       0.626422
      17.400000       0.492893       0.480188       0.628146
      17.410000       0.494089       0.479958       0.629898
      17.420000       0.495287       0.479389       0.631652
      17.430000       0.496521       0.478472       0.633381
      17.440000       0.497807       0.477191       0.635061
      17.450000       0.499146       0.475547       0.636673
      17.460000       0.500535       0.473590       0.638207
      17.470000       0.501972       0.471428       0.639658
      17.480000       0.503455       0.469217       0.641029
      17.490000       0.504976       0.467135       0.642329
      17.500000       0.506519       0.465344       0.643568
      17.510000       0.508049       0.463959       0.644760
      17.520000       0.509517       0.463029       0.645919
      17.530000       0.510862       0.462532       0.647061
      17.540000       0.512020       0.462385       0.648207
      17.550000       0.512948       0.462470       0.649377
      17.560000       0.513637       0.462654       0.650591
      17.570000       0.514124       0.462824       0.651867
      17.580000       0.514497       0.462909       0.653218
      17.590000       0.514876       0.462896       0.654653
      17.600000       0.515388       0.462826       0.656174
      17.610000       0.516145       0.462787       0.657776
      17.620000       0.517224       0.462888       0.659447
      17.630000       0.518661       0.463228       0.661166
      17.640000       0.520458       0.463877       0.662906
      17.650000       0.522588       0.464864       0.664635
      17.660000       0.525003       0.466174       0.666324
      17.670000       0.527651       0.467758       0.667952
      17.680000       0.530474       0.469554       0.669503
      17.690000       0.533415       0.471491       0.670972
      17.700000       0.536417       0.473505       0.672359
      17.710000       0.539422       0.475538       0.673667
      17.720000       0.542374       0.477541       0.674896
      17.730000       0.545212       0.479476       0.676041
      17.740000       0.547873       0.481312       0.677095
      17.750000       0.550281       0.483025       0.678049
      17.760000       0.552350       0.484596       0.678905
      17.770000       0.553992       0.486004       0.679677
      17.780000       0.555128       0.487229       0.680396
      17.790000       0.555714       0.488256       0.681106
      17.800000       0.555757       0.489078       0.681861
      17.810000       0.555317       0.489699       0.682715
      17.820000       0.554494       0.490133       0.683718
      17.830000       0.553406       0.490400       0.684907
      17.840000       0.552160       0.490521       0.686303
      17.850000       0.550842       0.490516       0.687911
      17.860000       0.549512       0.490404       0.689710
      17.870000       0.548211       0.490208       0.691665
      17.880000       0.546975       0.489961       0.693729
      17.890000       0.545839       0.489707       0.695850
      17.900000       0.544845       0.489498       0.697981
      17.910000       0.544030       0.489385       0.700086
      17.920000       0.543426       0.489415       0.702140
      17.930000       0.543046       0.489623       0.704134
      17.940000       0.542878       0.490029       0.706070
      17.950000       0.542890       0.490637       0.707956
      17.960000       0.543029       0.491439       0.709800
      17.970000       0.543237       0.492421       0.711608
      17.980000       0.543460       0.493572       0.713387
      17.990000       0.543653       0.494887       0.715139
      18.000000       0.543783       0.496364       0.716871
      18.010000       0.543824       0.497999       0.718591
      18.020000       0.543749       0.499780       0.720305
      18.030000       0.543533       0.501677       0.722019
      18.040000       0.543141       0.503642       0.723732
      18.050000       0.542537       0.505618       0.725437
      18.060000       0.541677       0.507543       0.727128
      18.070000       0.540511       0.509355       0.728801
      18.080000       0.538985       0.511001       0.730462
      18.090000       0.537043       0.512441       0.732125
      18.100000       0.534645       0.513650       0.733810
      18.110000       0.531781       0.514626       0.735540
      18.120000       0.528490       0.515380       0.737335
      18.130000       0.524871       0.515942       0.739209
      18.140000       0.521075       0.516354       0.741174
      18.150000       0.517294       0.516665       0.743233
      18.160000       0.513728       0.516930       0.745383
      18.170000       0.510558       0.517201       0.747613
      18.180000       0.507919       0.517529       0.749906
      18.190000       0.505891       0.517950       0.752236
      18.200000       0.504499       0.518491       0.754576
      18.210000       0.503723       0.519165       0.756896
      18.220000       0.503509       0.519978       0.759166
      18.230000       0.503788       0.520934       0.761361
      18.240000       0.504483       0.522039       0.763460
      18.250000       0.505514       0.523302       0.765451
      18.260000       0.506799       0.524731       0.767337
      18.270000       0.508260       0.526326       0.769131
      18.280000       0.509816       0.528079       0.770861
      18.290000       0.511398       0.529974       0.772562
      18.300000       0.512944       0.531987       0.774275
      18.310000       0.514408       0.534095       0.776036
      18.320000       0.515755       0.536269       0.777871
      18.330000       0.516956       0.538479       0.779797
      18.340000       0.517989       0.540690       0.781814
      18.350000       0.518838       0.542866       0.783907
      18.360000       0.519503       0.544968       0.786055
      18.370000       0.520003       0.546966       0.788228
      18.380000       0.520381       0.548835       0.790400
      18.390000       0.520701       0.550560       0.792545
      18.400000       0.521033       0.552134       0.794645
      18.410000       0.521451       0.553557       0.796684
      18.420000       0.522013       0.554838       0.798654
      18.430000       0.522765       0.555993       0.800553
      18.440000       0.523731       0.557049       0.802387
      18.450000       0.524919       0.558036       0.804168
      18.460000       0.526317       0.558987       0.805911
      18.470000       0.527902       0.559930       0.807632
      18.480000       0.529635       0.560883       0.809343
      18.490000       0.531471       0.561854       0.811046
      18.500000       0.533356       0.562837       0.812737
      18.510000       0.535235       0.563813       0.814401
      18.520000       0.537058       0.564754       0.816022
      18.530000       0.538784       0.565627       0.817576
      18.540000       0.540387       0.566397       0.819048
      18.550000       0.541857       0.567034       0.820423
      18.560000       0.543203       0.567520       0.821696
      18.570000       0.544450       0.567856       0.822870
      18.580000       0.545637       0.568059       0.823955
      18.590000       0.546814       0.568164       0.824967
      18.600000       0.548032       0.568215       0.825931
      18.610000       0.549330       0.568255       0.826877
      18.620000       0.550732       0.568316       0.827841
      18.630000       0.552239       0.568416       0.828863
      18.640000       0.553833       0.568561       0.829983
      18.650000       0.555488       0.568749       0.831233
      18.660000       0.557171       0.568983       0.832630
      18.670000       0.558855       0.569271       0.834178
      18.680000       0.560517       0.569631       0.835862
      18.690000       0.562141       0.570085       0.837660
      18.700000       0.563710       0.570654       0.839548
      18.710000       0.565202       0.571347       0.841509
      18.720000       0.566589       0.572161       0.843538
      18.730000       0.567838       0.573083       0.845642
      18.740000       0.568908       0.574092       0.847831
      18.750000       0.569756       0.575166       0.850115
      18.760000       0.570335       0.576283       0.852495
      18.770000       0.570603       0.577424       0.854954
      18.780000       0.570527       0.578574       0.857456
      18.790000       0.570100       0.579726       0.859951
      18.800000       0.569346       0.580879       0.862384
      18.810000       0.568326       0.582044       0.864697
      18.820000       0.567133       0.583235       0.866849
      18.830000       0.565886       0.584471       0.868815
      18.840000       0.564704       0.585768       0.870598
      18.850000       0.563696       0.587137       0.872219
      18.860000       0.562948       0.588576       0.873717
      18.870000       0.562514       0.590079       0.875139
      18.880000       0.562420       0.591631       0.876532
      18.890000       0.562672       0.593215       0.877934
      18.900000       0.563263       0.594816       0.879370
      18.910000       0.564173       0.596424       0.880849
      18.920000       0.565370       0.598037       0.882358
      18.930000       0.566811       0.599662       0.883864
      18.940000       0.568441       0.601314       0.885315
      18.950000       0.570199       0.603007       0.886652
      18.960000       0.572017       0.604755       0.887813
      18.970000       0.573827       0.606560       0.888748
      18.980000       0.575564       0.608417       0.889434
      18.990000       0.577167       0.610312       0.889871
      19.000000       0.578584       0.612225       0.890095
      19.010000       0.579779       0.614137       0.890166
      19.020000       0.580732       0.616027       0.890169
      19.030000       0.581441       0.617879       0.890198
      19.040000       0.581924       0.619671       0.890348
      19.050000       0.582208       0.621384       0.890694
      19.060000       0.582329       0.622991       0.891281
      19.070000       0.582326       0.624468       0.892107
      19.080000       0.582232       0.625793       0.893132
      19.090000       0.582077       0.626951       0.894274
      19.100000       0.581880       0.627941       0.895432
      19.110000       0.581659       0.628766       0.896504
      19.120000       0.581423       0.629439       0.897402
      19.130000       0.581173       0.629974       0.898072
      19.140000       0.580910       0.630384       0.898490
      19.150000       0.580627       0.630689       0.898655
      19.160000       0.580320       0.630915       0.898582
      19.170000       0.579991       0.631101       0.898289
      19.180000       0.579645       0.631297       0.897804
      19.190000       0.579300       0.631555       0.897167
      19.200000       0.578979       0.631923       0.896446
      19.210000       0.578710       0.632440       0.895727
      19.220000       0.578516       0.633127       0.895104
      19.230000       0.578416       0.633987       0.894652
      19.240000       0.578420       0.635013       0.894416
      19.250000       0.578532       0.636184       0.894399
      19.260000       0.578752       0.637476       0.894572
      19.270000       0.579081       0.638859       0.894885
      19.280000       0.579518       0.640302       0.895278
      19.290000       0.580068       0.641776       0.895690
      19.300000       0.580732       0.643255       0.896062
      19.310000       0.581509       0.644715       0.896347
      19.320000       0.582392       0.646132       0.896507
      19.330000       0.583369       0.647482       0.896521
      19.340000       0.584421       0.648736       0.896381
      19.350000       0.585524       0.649861       0.896089
      19.360000       0.586651       0.650825       0.895647
      19.370000       0.587773       0.651599       0.895056
      19.380000       0.588864       0.652164       0.894318
      19.390000       0.589907       0.652513       0.893433
      19.400000       0.590892       0.652651       0.892412
      19.410000       0.591822       0.652590       0.891269
      19.420000       0.592708       0.652348       0.890017
      19.430000       0.593566       0.651941       0.888666
      19.440000       0.594417       0.651385       0.887212
      19.450000       0.595280       0.650694       0.885650
      19.460000       0.596169       0.649879       0.883981
      19.470000       0.597093       0.648961       0.882227
      19.480000       0.598052       0.647966       0.880431
      19.490000       0.599044       0.646938       0.878654
      19.500000       0.600066       0.645936       0.876962
      19.510000       0.601115       0.645028       0.875414
      19.520000       0.602194       0.644283       0.874055
      19.530000       0.603303       0.643752       0.872922
      19.540000       0.604445       0.643456       0.872046
      19.550000       0.605617       0.643373       0.871464
      19.560000       0.606815       0.643439       0.871208
      19.570000       0.608031       0.643560       0.871302
      19.580000       0.609258       0.643625       0.871749
      19.590000       0.610490       0.643530       0.872523
      19.600000       0.611718       0.643198       0.873574
      19.610000       0.612931       0.642589       0.874831
      19.620000       0.614113       0.641705       0.876223
      19.630000       0.615245       0.640585       0.877690
      19.640000       0.616308       0.639293       0.879198
      19.650000       0.617289       0.637898       0.880733
      19.660000       0.618181       0.636470       0.882293
      19.670000       0.618988       0.635069       0.883867
      19.680000       0.619721       0.633752       0.885421
      19.690000       0.620393       0.632576       0.886889
      19.700000       0.621015       0.631597       0.888168
      19.710000       0.621595       0.630866       0.889131
      19.720000       0.622133       0.630409       0.889639
      19.730000       0.622626       0.630220       0.889559
      19.740000       0.623071       0.630251       0.888778
      19.750000       0.623467       0.630420       0.887216
      19.760000       0.623821       0.630625       0.884846
      19.770000       0.624145       0.630763       0.881705
      19.780000       0.624462       0.630744       0.877908
      19.790000       0.624797       0.630515       0.873647
      19.800000       0.625181       0.630057       0.869173
      19.810000       0.625641       0.629396       0.864771
      19.820000       0.626193       0.628591       0.860716
      19.830000       0.626844       0.627718       0.857243
      19.840000       0.627584       0.626855       0.854506
      19.850000       0.628393       0.626068       0.852568
      19.860000       0.629239       0.625399       0.851386
      19.870000       0.630087       0.624876       0.850829
      19.880000       0.630899       0.624516       0.850696
      19.890000       0.631642       0.624328       0.850755
      19.900000       0.632292       0.624323       0.850778
      19.910000       0.632840       0.624506       0.850584
      19.920000       0.633294       0.624878       0.850063
      19.930000       0.633678       0.625434       0.849194
      19.940000       0.634024       0.626155       0.848045
      19.950000       0.634368       0.627008       0.846748
      19.960000       0.634741       0.627941       0.845474
      19.970000       0.635159       0.628884       0.844391
      19.980000       0.635622       0.629752       0.843628
      19.990000       0.636113       0.630452       0.843252
      20.000000       0.636601       0.630895       0.843261
