  # energy grid [eV]     epsi_x  epsi_y  epsi_z
       0.000000            NaN            NaN            NaN
       0.010000       0.002233       0.001426       1.321145
       0.020000       0.004467       0.002853       2.113784
       0.030000       0.006706       0.004283       2.368474
       0.040000       0.008949       0.005719       2.318553
       0.050000       0.011200       0.007160       2.145797
       0.060000       0.013461       0.008609       1.941930
       0.070000       0.015732       0.010068       1.745193
       0.080000       0.018017       0.011538       1.568900
       0.090000       0.020316       0.013021       1.415696
       0.100000       0.022633       0.014519       1.283871
       0.110000       0.024969       0.016033       1.170089
       0.120000       0.027326       0.017566       1.070650
       0.130000       0.029707       0.019120       0.982160
       0.140000       0.032113       0.020696       0.901918
       0.150000       0.034547       0.022297       0.828098
       0.160000       0.037011       0.023925       0.759718
       0.170000       0.039509       0.025583       0.696450
       0.180000       0.042042       0.027273       0.638343
       0.190000       0.044613       0.028998       0.585575
       0.200000       0.047225       0.030761       0.538277
       0.210000       0.049881       0.032565       0.496458
       0.220000       0.052584       0.034413       0.459987
       0.230000       0.055338       0.036309       0.428616
       0.240000       0.058146       0.038257       0.402006
       0.250000       0.061011       0.040261       0.379757
       0.260000       0.063938       0.042326       0.361416
       0.270000       0.066931       0.044457       0.346495
       0.280000       0.069994       0.046658       0.334475
       0.290000       0.073132       0.048937       0.324825
       0.300000       0.076351       0.051299       0.317030
       0.310000       0.079656       0.053751       0.310628
       0.320000       0.083052       0.056302       0.305234
       0.330000       0.086547       0.058960       0.300544
       0.340000       0.090147       0.061735       0.296306
       0.350000       0.093859       0.064638       0.292267
       0.360000       0.097693       0.067680       0.288131
       0.370000       0.101656       0.070875       0.283533
       0.380000       0.105758       0.074237       0.278083
       0.390000       0.110009       0.077784       0.271437
       0.400000       0.114418       0.081533       0.263396
       0.410000       0.118995       0.085506       0.253967
       0.420000       0.123750       0.089724       0.243372
       0.430000       0.128691       0.094212       0.231996
       0.440000       0.133824       0.098997       0.220305
       0.450000       0.139156       0.104107       0.208763
       0.460000       0.144690       0.109571       0.197773
       0.470000       0.150428       0.115417       0.187641
       0.480000       0.156376       0.121672       0.178571
       0.490000       0.162545       0.128358       0.170664
       0.500000       0.168952       0.135493       0.163935
       0.510000       0.175626       0.143092       0.158327
       0.520000       0.182605       0.151166       0.153724
       0.530000       0.189935       0.159732       0.149966
       0.540000       0.197668       0.168820       0.146875
       0.550000       0.205855       0.178483       0.144275
       0.560000       0.214553       0.188798       0.142020
       0.570000       0.223815       0.199863       0.140012
       0.580000       0.233697       0.211781       0.138204
       0.590000       0.244253       0.224642       0.136585
       0.600000       0.255539       0.238499       0.135150
       0.610000       0.267608       0.253351       0.133880
       0.620000       0.280509       0.269124       0.132727
       0.630000       0.294283       0.285672       0.131615
       0.640000       0.308959       0.302786       0.130450
       0.650000       0.324553       0.320225       0.129139
       0.660000       0.341069       0.337762       0.127603
       0.670000       0.358501       0.355241       0.125797
       0.680000       0.376834       0.372624       0.123721
       0.690000       0.396043       0.390023       0.121432
       0.700000       0.416069       0.407682       0.119039
       0.710000       0.436789       0.425918       0.116690
       0.720000       0.457986       0.445035       0.114541
       0.730000       0.479332       0.465227       0.112737
       0.740000       0.500410       0.486526       0.111379
       0.750000       0.520789       0.508794       0.110518
       0.760000       0.540130       0.531771       0.110141
       0.770000       0.558297       0.555163       0.110182
       0.780000       0.575425       0.578738       0.110527
       0.790000       0.591902       0.602384       0.111044
       0.800000       0.608287       0.626121       0.111609
       0.810000       0.625188       0.650054       0.112138
       0.820000       0.643170       0.674310       0.112610
       0.830000       0.662694       0.698983       0.113064
       0.840000       0.684121       0.724115       0.113576
       0.850000       0.707753       0.749715       0.114228
       0.860000       0.733879       0.775786       0.115070
       0.870000       0.762825       0.802314       0.116099
       0.880000       0.794965       0.829210       0.117253
       0.890000       0.830721       0.856233       0.118424
       0.900000       0.870550       0.882963       0.119474
       0.910000       0.914925       0.908875       0.120256
       0.920000       0.964333       0.933519       0.120636
       0.930000       1.019265       0.956734       0.120496
       0.940000       1.080202       0.978788       0.119756
       0.950000       1.147597       1.000358       0.118386
       0.960000       1.221842       1.022350       0.116414
       0.970000       1.303236       1.045590       0.113931
       0.980000       1.391973       1.070506       0.111069
       0.990000       1.488171       1.096865       0.107981
       1.000000       1.591958       1.123661       0.104817
       1.010000       1.703637       1.149165       0.101711
       1.020000       1.823874       1.171143       0.098771
       1.030000       1.953870       1.187191       0.096074
       1.040000       2.095411       1.195143       0.093656
       1.050000       2.250770       1.193481       0.091509
       1.060000       2.422466       1.181688       0.089579
       1.070000       2.612933       1.160427       0.087780
       1.080000       2.824158       1.131478       0.086009
       1.090000       3.057300       1.097408       0.084180
       1.100000       3.312300       1.061096       0.082241
       1.110000       3.587475       1.025250       0.080193
       1.120000       3.879116       0.992073       0.078091
       1.130000       4.181165       0.963099       0.076023
       1.140000       4.485158       0.939192       0.074096
       1.150000       4.780636       0.920644       0.072410
       1.160000       5.056218       0.907328       0.071051
       1.170000       5.301242       0.898872       0.070086
       1.180000       5.507504       0.894821       0.069558
       1.190000       5.670408       0.894758       0.069493
       1.200000       5.789087       0.898373       0.069904
       1.210000       5.865666       0.905471       0.070785
       1.220000       5.904329       0.915956       0.072114
       1.230000       5.910704       0.929791       0.073850
       1.240000       5.891544       0.946947       0.075927
       1.250000       5.854218       0.967321       0.078248
       1.260000       5.805673       0.990607       0.080695
       1.270000       5.751057       1.016168       0.083128
       1.280000       5.692668       1.042958       0.085409
       1.290000       5.629847       1.069573       0.087416
       1.300000       5.560001       1.094472       0.089069
       1.310000       5.480323       1.116351       0.090343
       1.320000       5.389327       1.134545       0.091271
       1.330000       5.287384       1.149307       0.091938
       1.340000       5.175979       1.161830       0.092464
       1.350000       5.056185       1.174000       0.092975
       1.360000       4.927265       1.187986       0.093571
       1.370000       4.786231       1.205834       0.094306
       1.380000       4.628702       1.229150       0.095167
       1.390000       4.450726       1.258913       0.096081
       1.400000       4.250736       1.295374       0.096928
       1.410000       4.030720       1.337991       0.097575
       1.420000       3.796104       1.385409       0.097921
       1.430000       3.554516       1.435500       0.097926
       1.440000       3.314112       1.485516       0.097627
       1.450000       3.082129       1.532399       0.097126
       1.460000       2.864052       1.573200       0.096559
       1.470000       2.663370       1.605494       0.096048
       1.480000       2.481738       1.627678       0.095671
       1.490000       2.319309       1.639134       0.095438
       1.500000       2.175097       1.640274       0.095294
       1.510000       2.047283       1.632546       0.095126
       1.520000       1.933484       1.618352       0.094795
       1.530000       1.831016       1.600807       0.094170
       1.540000       1.737188       1.583347       0.093157
       1.550000       1.649619       1.569252       0.091715
       1.560000       1.566532       1.561232       0.089861
       1.570000       1.486912       1.561126       0.087656
       1.580000       1.410490       1.569743       0.085190
       1.590000       1.337543       1.586788       0.082568
       1.600000       1.268625       1.610882       0.079897
       1.610000       1.204316       1.639682       0.077278
       1.620000       1.145060       1.670178       0.074802
       1.630000       1.091101       1.699199       0.072549
       1.640000       1.042501       1.724089       0.070586
       1.650000       0.999183       1.743362       0.068966
       1.660000       0.960992       1.757085       0.067731
       1.670000       0.927740       1.766792       0.066908
       1.680000       0.899232       1.774960       0.066516
       1.690000       0.875286       1.784252       0.066565
       1.700000       0.855730       1.796821       0.067056
       1.710000       0.840399       1.813868       0.067985
       1.720000       0.829123       1.835532       0.069337
       1.730000       0.821708       1.861057       0.071083
       1.740000       0.817911       1.889132       0.073177
       1.750000       0.817416       1.918217       0.075547
       1.760000       0.819811       1.946735       0.078097
       1.770000       0.824583       1.973088       0.080709
       1.780000       0.831144       1.995619       0.083252
       1.790000       0.838902       2.012683       0.085603
       1.800000       0.847367       2.022945       0.087675
       1.810000       0.856257       2.025812       0.089432
       1.820000       0.865566       2.021797       0.090904
       1.830000       0.875568       2.012584       0.092175
       1.840000       0.886732       2.000741       0.093367
       1.850000       0.899597       1.989160       0.094607
       1.860000       0.914639       1.980423       0.096002
       1.870000       0.932152       1.976255       0.097621
       1.880000       0.952184       1.977203       0.099483
       1.890000       0.974532       1.982615       0.101567
       1.900000       0.998833       1.990913       0.103821
       1.910000       1.024707       2.000094       0.106182
       1.920000       1.051950       2.008288       0.108597
       1.930000       1.080673       2.014119       0.111038
       1.940000       1.111320       2.016719       0.113516
       1.950000       1.144549       2.015381       0.116080
       1.960000       1.180984       2.009075       0.118806
       1.970000       1.220959       1.996154       0.121774
       1.980000       1.264301       1.974464       0.125047
       1.990000       1.310239       1.941884       0.128650
       2.000000       1.357483       1.897064       0.132570
       2.010000       1.404468       1.840039       0.136763
       2.020000       1.449726       1.772437       0.141166
       2.030000       1.492276       1.697206       0.145708
       2.040000       1.531867       1.618022       0.150307
       2.050000       1.568964       1.538609       0.154856
       2.060000       1.604485       1.462201       0.159219
       2.070000       1.639393       1.391231       0.163223
       2.080000       1.674330       1.327254       0.166675
       2.090000       1.709436       1.271038       0.169379
       2.100000       1.744424       1.222752       0.171160
       2.110000       1.778865       1.182194       0.171886
       2.120000       1.812536       1.148997       0.171494
       2.130000       1.845646       1.122782       0.170007
       2.140000       1.878806       1.103207       0.167544
       2.150000       1.912788       1.089934       0.164299
       2.160000       1.948224       1.082523       0.160514
       2.170000       1.985417       1.080311       0.156430
       2.180000       2.024339       1.082319       0.152263
       2.190000       2.064749       1.087240       0.148182
       2.200000       2.106272       1.093526       0.144317
       2.210000       2.148387       1.099608       0.140772
       2.220000       2.190322       1.104192       0.137644
       2.230000       2.230959       1.106559       0.135031
       2.240000       2.268793       1.106733       0.133022
       2.250000       2.301940       1.105419       0.131692
       2.260000       2.328127       1.103738       0.131086
       2.270000       2.344713       1.102854       0.131208
       2.280000       2.348782       1.103628       0.132017
       2.290000       2.337390       1.106399       0.133436
       2.300000       2.307984       1.110898       0.135356
       2.310000       2.258905       1.116290       0.137657
       2.320000       2.189895       1.121288       0.140213
       2.330000       2.102409       1.124350       0.142905
       2.340000       1.999593       1.123938       0.145626
       2.350000       1.885872       1.118823       0.148284
       2.360000       1.766263       1.108378       0.150811
       2.370000       1.645630       1.092740       0.153173
       2.380000       1.528111       1.072772       0.155375
       2.390000       1.416814       1.049821       0.157462
       2.400000       1.313774       1.025350       0.159512
       2.410000       1.220087       1.000621       0.161619
       2.420000       1.136113       0.976507       0.163874
       2.430000       1.061684       0.953483       0.166339
       2.440000       0.996276       0.931744       0.169026
       2.450000       0.939127       0.911344       0.171886
       2.460000       0.889315       0.892281       0.174805
       2.470000       0.845791       0.874481       0.177611
       2.480000       0.807420       0.857743       0.180091
       2.490000       0.773018       0.841695       0.182011
       2.500000       0.741427       0.825838       0.183143
       2.510000       0.711618       0.809691       0.183298
       2.520000       0.682805       0.792976       0.182355
       2.530000       0.654529       0.775770       0.180296
       2.540000       0.626674       0.758540       0.177216
       2.550000       0.599413       0.742063       0.173317
       2.560000       0.573096       0.727261       0.168870
       2.570000       0.548133       0.715048       0.164168
       2.580000       0.524891       0.706203       0.159476
       2.590000       0.503650       0.701321       0.154994
       2.600000       0.484582       0.700792       0.150844
       2.610000       0.467764       0.704806       0.147073
       2.620000       0.453192       0.713354       0.143679
       2.630000       0.440805       0.726205       0.140625
       2.640000       0.430497       0.742878       0.137858
       2.650000       0.422124       0.762597       0.135318
       2.660000       0.415512       0.784282       0.132942
       2.670000       0.410461       0.806591       0.130673
       2.680000       0.406755       0.828067       0.128470
       2.690000       0.404183       0.847365       0.126319
       2.700000       0.402554       0.863528       0.124227
       2.710000       0.401705       0.876187       0.122230
       2.720000       0.401497       0.885580       0.120384
       2.730000       0.401784       0.892377       0.118759
       2.740000       0.402385       0.897365       0.117433
       2.750000       0.403054       0.901141       0.116489
       2.760000       0.403505       0.903937       0.115998
       2.770000       0.403458       0.905620       0.116013
       2.780000       0.402723       0.905875       0.116558
       2.790000       0.401278       0.904460       0.117628
       2.800000       0.399297       0.901450       0.119184
       2.810000       0.397135       0.897352       0.121153
       2.820000       0.395255       0.893074       0.123425
       2.830000       0.394153       0.889785       0.125862
       2.840000       0.394283       0.888748       0.128305
       2.850000       0.396019       0.891184       0.130606
       2.860000       0.399635       0.898199       0.132651
       2.870000       0.405300       0.910746       0.134389
       2.880000       0.413080       0.929619       0.135839
       2.890000       0.422936       0.955452       0.137087
       2.900000       0.434724       0.988712       0.138261
       2.910000       0.448202       1.029708       0.139494
       2.920000       0.463061       1.078596       0.140898
       2.930000       0.478975       1.135390       0.142532
       2.940000       0.495675       1.199961       0.144393
       2.950000       0.513009       1.272010       0.146417
       2.960000       0.530975       1.350952       0.148492
       2.970000       0.549678       1.435718       0.150483
       2.980000       0.569246       1.524452       0.152256
       2.990000       0.589710       1.614227       0.153699
       3.000000       0.610929       1.700874       0.154723
       3.010000       0.632554       1.779114       0.155252
       3.020000       0.654071       1.843071       0.155208
       3.030000       0.674894       1.887148       0.154510
       3.040000       0.694464       1.907088       0.153098
       3.050000       0.712328       1.900893       0.150953
       3.060000       0.728135       1.869271       0.148124
       3.070000       0.741572       1.815462       0.144729
       3.080000       0.752281       1.744494       0.140944
       3.090000       0.759807       1.662185       0.136971
       3.100000       0.763609       1.574193       0.133012
       3.110000       0.763111       1.485338       0.129240
       3.120000       0.757789       1.399267       0.125785
       3.130000       0.747262       1.318396       0.122718
       3.140000       0.731389       1.244050       0.120052
       3.150000       0.710369       1.176700       0.117753
       3.160000       0.684797       1.116220       0.115757
       3.170000       0.655645       1.062113       0.113995
       3.180000       0.624140       1.013683       0.112413
       3.190000       0.591574       0.970154       0.110992
       3.200000       0.559119       0.930768       0.109744
       3.210000       0.527683       0.894850       0.108711
       3.220000       0.497859       0.861846       0.107944
       3.230000       0.469953       0.831307       0.107492
       3.240000       0.444057       0.802851       0.107391
       3.250000       0.420141       0.776129       0.107659
       3.260000       0.398128       0.750830       0.108302
       3.270000       0.377943       0.726736       0.109307
       3.280000       0.359517       0.703790       0.110645
       3.290000       0.342786       0.682137       0.112264
       3.300000       0.327675       0.662102       0.114082
       3.310000       0.314096       0.644128       0.115987
       3.320000       0.301954       0.628670       0.117842
       3.330000       0.291153       0.616118       0.119508
       3.340000       0.281603       0.606734       0.120874
       3.350000       0.273223       0.600632       0.121878
       3.360000       0.265934       0.597767       0.122526
       3.370000       0.259660       0.597944       0.122876
       3.380000       0.254328       0.600824       0.123022
       3.390000       0.249869       0.605942       0.123061
       3.400000       0.246221       0.612721       0.123078
       3.410000       0.243317       0.620501       0.123137
       3.420000       0.241077       0.628569       0.123295
       3.430000       0.239396       0.636199       0.123600
       3.440000       0.238143       0.642708       0.124097
       3.450000       0.237168       0.647525       0.124822
       3.460000       0.236318       0.650273       0.125782
       3.470000       0.235473       0.650838       0.126952
       3.480000       0.234556       0.649403       0.128269
       3.490000       0.233550       0.646408       0.129643
       3.500000       0.232485       0.642472       0.130977
       3.510000       0.231416       0.638265       0.132193
       3.520000       0.230385       0.634386       0.133239
       3.530000       0.229396       0.631269       0.134099
       3.540000       0.228396       0.629134       0.134767
       3.550000       0.227286       0.628007       0.135234
       3.560000       0.225951       0.627794       0.135462
       3.570000       0.224301       0.628372       0.135389
       3.580000       0.222309       0.629662       0.134941
       3.590000       0.220027       0.631652       0.134062
       3.600000       0.217571       0.634368       0.132745
       3.610000       0.215097       0.637819       0.131047
       3.620000       0.212766       0.641969       0.129086
       3.630000       0.210723       0.646738       0.127023
       3.640000       0.209081       0.652049       0.125033
       3.650000       0.207926       0.657893       0.123277
       3.660000       0.207320       0.664371       0.121879
       3.670000       0.207298       0.671683       0.120906
       3.680000       0.207874       0.680065       0.120366
       3.690000       0.209030       0.689687       0.120207
       3.700000       0.210713       0.700568       0.120323
       3.710000       0.212835       0.712559       0.120570
       3.720000       0.215279       0.725403       0.120781
       3.730000       0.217920       0.738842       0.120793
       3.740000       0.220648       0.752749       0.120473
       3.750000       0.223406       0.767193       0.119748
       3.760000       0.226207       0.782430       0.118617
       3.770000       0.229134       0.798836       0.117157
       3.780000       0.232324       0.816799       0.115495
       3.790000       0.235935       0.836626       0.113786
       3.800000       0.240114       0.858457       0.112185
       3.810000       0.244971       0.882205       0.110821
       3.820000       0.250570       0.907542       0.109788
       3.830000       0.256926       0.933940       0.109141
       3.840000       0.264013       0.960785       0.108893
       3.850000       0.271778       0.987524       0.109032
       3.860000       0.280148       1.013783       0.109527
       3.870000       0.289041       1.039396       0.110344
       3.880000       0.298368       1.064326       0.111454
       3.890000       0.308037       1.088510       0.112841
       3.900000       0.317962       1.111696       0.114499
       3.910000       0.328061       1.133345       0.116426
       3.920000       0.338261       1.152615       0.118621
       3.930000       0.348476       1.168399       0.121074
       3.940000       0.358579       1.179436       0.123759
       3.950000       0.368385       1.184437       0.126635
       3.960000       0.377641       1.182270       0.129640
       3.970000       0.386055       1.172153       0.132701
       3.980000       0.393340       1.153862       0.135739
       3.990000       0.399258       1.127868       0.138682
       4.000000       0.403662       1.095357       0.141479
       4.010000       0.406508       1.058078       0.144108
       4.020000       0.407875       1.018043       0.146583
       4.030000       0.407965       0.977177       0.148941
       4.040000       0.407087       0.937021       0.151232
       4.050000       0.405625       0.898586       0.153504
       4.060000       0.403987       0.862365       0.155788
       4.070000       0.402552       0.828462       0.158099
       4.080000       0.401653       0.796791       0.160436
       4.090000       0.401577       0.767257       0.162789
       4.100000       0.402583       0.739866       0.165143
       4.110000       0.404918       0.714740       0.167474
       4.120000       0.408812       0.692053       0.169744
       4.130000       0.414470       0.671933       0.171896
       4.140000       0.422045       0.654386       0.173853
       4.150000       0.431628       0.639263       0.175531
       4.160000       0.443242       0.626290       0.176847
       4.170000       0.456837       0.615142       0.177737
       4.180000       0.472299       0.605521       0.178175
       4.190000       0.489450       0.597225       0.178187
       4.200000       0.508045       0.590172       0.177857
       4.210000       0.527790       0.584382       0.177319
       4.220000       0.548371       0.579932       0.176733
       4.230000       0.569520       0.576891       0.176249
       4.240000       0.591107       0.575251       0.175978
       4.250000       0.613216       0.574880       0.175976
       4.260000       0.636159       0.575493       0.176254
       4.270000       0.660417       0.576660       0.176797
       4.280000       0.686496       0.577829       0.177587
       4.290000       0.714765       0.578389       0.178612
       4.300000       0.745296       0.577735       0.179863
       4.310000       0.777760       0.575378       0.181336
       4.320000       0.811394       0.571042       0.183021
       4.330000       0.845055       0.564737       0.184911
       4.340000       0.877370       0.556767       0.187021
       4.350000       0.906973       0.547650       0.189386
       4.360000       0.932772       0.538003       0.192068
       4.370000       0.954187       0.528401       0.195136
       4.380000       0.971282       0.519297       0.198636
       4.390000       0.984758       0.510989       0.202567
       4.400000       0.995800       0.503651       0.206861
       4.410000       1.005809       0.497390       0.211378
       4.420000       1.016057       0.492295       0.215913
       4.430000       1.027355       0.488457       0.220231
       4.440000       1.039797       0.485963       0.224102
       4.450000       1.052639       0.484872       0.227347
       4.460000       1.064347       0.485196       0.229865
       4.470000       1.072858       0.486900       0.231647
       4.480000       1.076007       0.489913       0.232762
       4.490000       1.072066       0.494146       0.233334
       4.500000       1.060228       0.499504       0.233514
       4.510000       1.040862       0.505881       0.233442
       4.520000       1.015442       0.513160       0.233231
       4.530000       0.986195       0.521224       0.232941
       4.540000       0.955620       0.529973       0.232586
       4.550000       0.926052       0.539353       0.232142
       4.560000       0.899389       0.549364       0.231580
       4.570000       0.876972       0.560055       0.230892
       4.580000       0.859590       0.571506       0.230107
       4.590000       0.847537       0.583806       0.229285
       4.600000       0.840670       0.597053       0.228493
       4.610000       0.838474       0.611377       0.227784
       4.620000       0.840127       0.626966       0.227180
       4.630000       0.844593       0.644075       0.226678
       4.640000       0.850783       0.663009       0.226260
       4.650000       0.857757       0.684075       0.225912
       4.660000       0.864942       0.707517       0.225630
       4.670000       0.872278       0.733477       0.225412
       4.680000       0.880226       0.761973       0.225251
       4.690000       0.889624       0.792906       0.225124
       4.700000       0.901445       0.826084       0.224987
       4.710000       0.916526       0.861253       0.224782
       4.720000       0.935344       0.898114       0.224450
       4.730000       0.957845       0.936332       0.223939
       4.740000       0.983347       0.975541       0.223225
       4.750000       1.010509       1.015333       0.222315
       4.760000       1.037423       1.055250       0.221246
       4.770000       1.061842       1.094766       0.220068
       4.780000       1.081563       1.133277       0.218826
       4.790000       1.094908       1.170127       0.217542
       4.800000       1.101128       1.204674       0.216225
       4.810000       1.100564       1.236408       0.214889
       4.820000       1.094482       1.265070       0.213573
       4.830000       1.084619       1.290737       0.212355
       4.840000       1.072656       1.313823       0.211338
       4.850000       1.059785       1.334988       0.210639
       4.860000       1.046512       1.354978       0.210356
       4.870000       1.032709       1.374458       0.210560
       4.880000       1.017870       1.393887       0.211278
       4.890000       1.001474       1.413497       0.212493
       4.900000       0.983311       1.433354       0.214139
       4.910000       0.963669       1.453443       0.216092
       4.920000       0.943315       1.473717       0.218179
       4.930000       0.923334       1.494056       0.220188
       4.940000       0.904910       1.514172       0.221896
       4.950000       0.889140       1.533543       0.223099
       4.960000       0.876938       1.551403       0.223642
       4.970000       0.869002       1.566804       0.223432
       4.980000       0.865831       1.578694       0.222447
       4.990000       0.867753       1.585980       0.220722
       5.000000       0.874945       1.587616       0.218339
       5.010000       0.887436       1.582753       0.215410
       5.020000       0.905102       1.570968       0.212061
       5.030000       0.927646       1.552520       0.208422
       5.040000       0.954588       1.528466       0.204612
       5.050000       0.985275       1.500560       0.200736
       5.060000       1.018947       1.470914       0.196872
       5.070000       1.054844       1.441590       0.193071
       5.080000       1.092361       1.414276       0.189363
       5.090000       1.131159       1.390162       0.185765
       5.100000       1.171178       1.370011       0.182287
       5.110000       1.212501       1.354305       0.178939
       5.120000       1.255087       1.343366       0.175732
       5.130000       1.298452       1.337380       0.172684
       5.140000       1.341411       1.336316       0.169816
       5.150000       1.381986       1.339817       0.167158
       5.160000       1.417559       1.347136       0.164741
       5.170000       1.445277       1.357156       0.162595
       5.180000       1.462595       1.368526       0.160745
       5.190000       1.467822       1.379860       0.159203
       5.200000       1.460493       1.389973       0.157968
       5.210000       1.441475       1.398105       0.157024
       5.220000       1.412819       1.404083       0.156337
       5.230000       1.377413       1.408396       0.155861
       5.240000       1.338531       1.412111       0.155538
       5.250000       1.299389       1.416648       0.155310
       5.260000       1.262793       1.423463       0.155126
       5.270000       1.230951       1.433723       0.154950
       5.280000       1.205428       1.448071       0.154769
       5.290000       1.187207       1.466481       0.154595
       5.300000       1.176816       1.488233       0.154466
       5.310000       1.174438       1.511986       0.154443
       5.320000       1.180027       1.535963       0.154596
       5.330000       1.193378       1.558242       0.155005
       5.340000       1.214199       1.577092       0.155743
       5.350000       1.242144       1.591289       0.156866
       5.360000       1.276834       1.600302       0.158401
       5.370000       1.317834       1.604328       0.160333
       5.380000       1.364611       1.604187       0.162606
       5.390000       1.416472       1.601119       0.165124
       5.400000       1.472520       1.596535       0.167762
       5.410000       1.531639       1.591747       0.170380
       5.420000       1.592519       1.587723       0.172844
       5.430000       1.653745       1.584945       0.175028
       5.440000       1.713937       1.583419       0.176821
       5.450000       1.771918       1.582844       0.178130
       5.460000       1.826833       1.582880       0.178888
       5.470000       1.878176       1.583380       0.179062
       5.480000       1.925703       1.584496       0.178674
       5.490000       1.969269       1.586607       0.177798
       5.500000       2.008702       1.590132       0.176555
       5.510000       2.043718       1.595317       0.175086
       5.520000       2.073895       1.602086       0.173527
       5.530000       2.098637       1.609992       0.171986
       5.540000       2.117135       1.618260       0.170530
       5.550000       2.128336       1.625890       0.169180
       5.560000       2.131014       1.631797       0.167921
       5.570000       2.123946       1.634943       0.166714
       5.580000       2.106204       1.634466       0.165517
       5.590000       2.077462       1.629808       0.164295
       5.600000       2.038206       1.620834       0.163035
       5.610000       1.989764       1.607891       0.161747
       5.620000       1.934115       1.591774       0.160457
       5.630000       1.873546       1.573582       0.159197
       5.640000       1.810228       1.554499       0.157997
       5.650000       1.745870       1.535568       0.156871
       5.660000       1.681529       1.517532       0.155809
       5.670000       1.617661       1.500763       0.154785
       5.680000       1.554370       1.485300       0.153765
       5.690000       1.491739       1.470948       0.152722
       5.700000       1.430102       1.457432       0.151649
       5.710000       1.370157       1.444547       0.150564
       5.720000       1.312906       1.432286       0.149506
       5.730000       1.259488       1.420903       0.148531
       5.740000       1.210984       1.410909       0.147703
       5.750000       1.168273       1.403029       0.147095
       5.760000       1.131965       1.398131       0.146783
       5.770000       1.102390       1.397177       0.146839
       5.780000       1.079650       1.401175       0.147327
       5.790000       1.063676       1.411120       0.148288
       5.800000       1.054304       1.427892       0.149738
       5.810000       1.051331       1.452108       0.151664
       5.820000       1.054552       1.483939       0.154023
       5.830000       1.063764       1.522951       0.156747
       5.840000       1.078736       1.567983       0.159744
       5.850000       1.099143       1.617105       0.162913
       5.860000       1.124509       1.667704       0.166156
       5.870000       1.154154       1.716696       0.169391
       5.880000       1.187190       1.760882       0.172565
       5.890000       1.222581       1.797379       0.175660
       5.900000       1.259279       1.824022       0.178686
       5.910000       1.296410       1.839638       0.181666
       5.920000       1.333438       1.844107       0.184623
       5.930000       1.370243       1.838210       0.187560
       5.940000       1.407063       1.823347       0.190460
       5.950000       1.444325       1.801208       0.193287
       5.960000       1.482422       1.773513       0.195987
       5.970000       1.521539       1.741846       0.198497
       5.980000       1.561536       1.707551       0.200747
       5.990000       1.601944       1.671702       0.202662
       6.000000       1.642049       1.635110       0.204168
       6.010000       1.681050       1.598382       0.205193
       6.020000       1.718252       1.562011       0.205681
       6.030000       1.753173       1.526451       0.205603
       6.040000       1.785518       1.492159       0.204968
       6.050000       1.814991       1.459606       0.203831
       6.060000       1.841059       1.429244       0.202286
       6.070000       1.862826       1.401455       0.200456
       6.080000       1.879123       1.376478       0.198479
       6.090000       1.888848       1.354373       0.196494
       6.100000       1.891391       1.335016       0.194627
       6.110000       1.886983       1.318148       0.192981
       6.120000       1.876809       1.303445       0.191629
       6.130000       1.862867       1.290599       0.190611
       6.140000       1.847628       1.279355       0.189941
       6.150000       1.833626       1.269511       0.189615
       6.160000       1.823055       1.260863       0.189628
       6.170000       1.817458       1.253130       0.189984
       6.180000       1.817550       1.245905       0.190699
       6.190000       1.823187       1.238657       0.191796
       6.200000       1.833451       1.230808       0.193286
       6.210000       1.846834       1.221881       0.195163
       6.220000       1.861462       1.211659       0.197393
       6.230000       1.875350       1.200292       0.199917
       6.240000       1.886668       1.188279       0.202657
       6.250000       1.893985       1.176323       0.205528
       6.260000       1.896467       1.165095       0.208449
       6.270000       1.893961       1.154997       0.211358
       6.280000       1.886922       1.146002       0.214216
       6.290000       1.876184       1.137622       0.217023
       6.300000       1.862677       1.129045       0.219808
       6.310000       1.847186       1.119384       0.222632
       6.320000       1.830259       1.107986       0.225573
       6.330000       1.812247       1.094663       0.228713
       6.340000       1.793425       1.079776       0.232114
       6.350000       1.774087       1.064108       0.235798
       6.360000       1.754570       1.048627       0.239732
       6.370000       1.735201       1.034208       0.243827
       6.380000       1.716182       1.021454       0.247948
       6.390000       1.697495       1.010664       0.251941
       6.400000       1.678903       1.001930       0.255664
       6.410000       1.660073       0.995321       0.259003
       6.420000       1.640775       0.991053       0.261878
       6.430000       1.621051       0.989570       0.264238
       6.440000       1.601241       0.991520       0.266044
       6.450000       1.581823       0.997636       0.267255
       6.460000       1.563160       1.008593       0.267833
       6.470000       1.545274       1.024888       0.267748
       6.480000       1.527761       1.046757       0.266999
       6.490000       1.509867       1.074123       0.265623
       6.500000       1.490666       1.106572       0.263694
       6.510000       1.469273       1.143330       0.261310
       6.520000       1.445006       1.183249       0.258573
       6.530000       1.417523       1.224826       0.255578
       6.540000       1.386909       1.266266       0.252403
       6.550000       1.353728       1.305620       0.249106
       6.560000       1.318992       1.341013       0.245734
       6.570000       1.284053       1.370925       0.242325
       6.580000       1.250414       1.394440       0.238922
       6.590000       1.219510       1.411356       0.235573
       6.600000       1.192521       1.422113       0.232338
       6.610000       1.170243       1.427566       0.229293
       6.620000       1.153037       1.428709       0.226521
       6.630000       1.140848       1.426455       0.224108
       6.640000       1.133284       1.421533       0.222131
       6.650000       1.129737       1.414516       0.220656
       6.660000       1.129544       1.405922       0.219730
       6.670000       1.132147       1.396344       0.219383
       6.680000       1.137213       1.386505       0.219625
       6.690000       1.144667       1.377218       0.220448
       6.700000       1.154609       1.369226       0.221826
       6.710000       1.167143       1.363012       0.223719
       6.720000       1.182208       1.358650       0.226079
       6.730000       1.199454       1.355756       0.228863
       6.740000       1.218221       1.353570       0.232037
       6.750000       1.237596       1.351113       0.235582
       6.760000       1.256517       1.347367       0.239491
       6.770000       1.273866       1.341428       0.243761
       6.780000       1.288553       1.332599       0.248390
       6.790000       1.299618       1.320450       0.253369
       6.800000       1.306364       1.304863       0.258684
       6.810000       1.308506       1.286075       0.264315
       6.820000       1.306265       1.264682       0.270244
       6.830000       1.300344       1.241578       0.276449
       6.840000       1.291796       1.217841       0.282904
       6.850000       1.281854       1.194581       0.289553
       6.860000       1.271787       1.172804       0.296294
       6.870000       1.262812       1.153302       0.302963
       6.880000       1.256026       1.136574       0.309336
       6.890000       1.252355       1.122814       0.315148
       6.900000       1.252521       1.111958       0.320130
       6.910000       1.257048       1.103801       0.324049
       6.920000       1.266283       1.098136       0.326744
       6.930000       1.280415       1.094840       0.328152
       6.940000       1.299434       1.093888       0.328306
       6.950000       1.323043       1.095253       0.327324
       6.960000       1.350531       1.098783       0.325374
       6.970000       1.380690       1.104076       0.322647
       6.980000       1.411798       1.110422       0.319325
       6.990000       1.441726       1.116826       0.315563
       7.000000       1.468136       1.122103       0.311484
       7.010000       1.488762       1.125038       0.307173
       7.020000       1.501694       1.124577       0.302691
       7.030000       1.505632       1.120001       0.298080
       7.040000       1.500058       1.111061       0.293379
       7.050000       1.485312       1.098042       0.288635
       7.060000       1.462564       1.081752       0.283905
       7.070000       1.433667       1.063434       0.279266
       7.080000       1.400884       1.044594       0.274813
       7.090000       1.366559       1.026771       0.270655
       7.100000       1.332781       1.011321       0.266920
       7.110000       1.301147       0.999244       0.263747
       7.120000       1.272642       0.991110       0.261279
       7.130000       1.247654       0.987060       0.259641
       7.140000       1.226071       0.986880       0.258932
       7.150000       1.207432       0.990105       0.259206
       7.160000       1.191092       0.996152       0.260473
       7.170000       1.176382       1.004458       0.262697
       7.180000       1.162769       1.014613       0.265802
       7.190000       1.149989       1.026469       0.269678
       7.200000       1.138108       1.040168       0.274183
       7.210000       1.127490       1.056093       0.279145
       7.220000       1.118684       1.074742       0.284362
       7.230000       1.112285       1.096585       0.289615
       7.240000       1.108826       1.121935       0.294683
       7.250000       1.108726       1.150869       0.299367
       7.260000       1.112280       1.183191       0.303522
       7.270000       1.119646       1.218428       0.307075
       7.280000       1.130814       1.255864       0.310031
       7.290000       1.145560       1.294613       0.312471
       7.300000       1.163402       1.333730       0.314531
       7.310000       1.183600       1.372316       0.316370
       7.320000       1.205183       1.409574       0.318142
       7.330000       1.227034       1.444787       0.319966
       7.340000       1.247975       1.477239       0.321912
       7.350000       1.266850       1.506125       0.323993
       7.360000       1.282569       1.530505       0.326169
       7.370000       1.294149       1.549310       0.328362
       7.380000       1.300751       1.561418       0.330473
       7.390000       1.301744       1.565776       0.332409
       7.400000       1.296787       1.561564       0.334110
       7.410000       1.285915       1.548368       0.335566
       7.420000       1.269598       1.526346       0.336826
       7.430000       1.248757       1.496324       0.337980
       7.440000       1.224709       1.459768       0.339141
       7.450000       1.199038       1.418641       0.340423
       7.460000       1.173428       1.375145       0.341917
       7.470000       1.149470       1.331459       0.343682
       7.480000       1.128506       1.289517       0.345738
       7.490000       1.111524       1.250879       0.348059
       7.500000       1.099102       1.216664       0.350585
       7.510000       1.091413       1.187526       0.353236
       7.520000       1.088270       1.163662       0.355930
       7.530000       1.089193       1.144841       0.358612
       7.540000       1.093499       1.130502       0.361263
       7.550000       1.100378       1.119874       0.363907
       7.560000       1.108989       1.112123       0.366601
       7.570000       1.118548       1.106466       0.369420
       7.580000       1.128422       1.102219       0.372424
       7.590000       1.138195       1.098781       0.375635
       7.600000       1.147682       1.095591       0.379017
       7.610000       1.156887       1.092104       0.382489
       7.620000       1.165950       1.087826       0.385950
       7.630000       1.175106       1.082427       0.389320
       7.640000       1.184695       1.075877       0.392574
       7.650000       1.195185       1.068534       0.395758
       7.660000       1.207170       1.061122       0.398990
       7.670000       1.221323       1.054612       0.402446
       7.680000       1.238300       1.050038       0.406335
       7.690000       1.258627       1.048321       0.410881
       7.700000       1.282583       1.050158       0.416292
       7.710000       1.310121       1.055980       0.422740
       7.720000       1.340808       1.065960       0.430342
       7.730000       1.373822       1.080036       0.439148
       7.740000       1.407993       1.097938       0.449140
       7.750000       1.441925       1.119193       0.460242
       7.760000       1.474161       1.143152       0.472344
       7.770000       1.503392       1.169035       0.485333
       7.780000       1.528640       1.196023       0.499126
       7.790000       1.549365       1.223360       0.513706
       7.800000       1.565457       1.250451       0.529140
       7.810000       1.577132       1.276889       0.545577
       7.820000       1.584776       1.302428       0.563237
       7.830000       1.588803       1.326910       0.582382
       7.840000       1.589551       1.350174       0.603273
       7.850000       1.587259       1.372017       0.626130
       7.860000       1.582082       1.392203       0.651079
       7.870000       1.574148       1.410504       0.678103
       7.880000       1.563626       1.426720       0.707001
       7.890000       1.550761       1.440640       0.737362
       7.900000       1.535899       1.451983       0.768580
       7.910000       1.519453       1.460358       0.799903
       7.920000       1.501868       1.465312       0.830529
       7.930000       1.483589       1.466490       0.859717
       7.940000       1.465064       1.463821       0.886900
       7.950000       1.446769       1.457645       0.911760
       7.960000       1.429218       1.448674       0.934238
       7.970000       1.412962       1.437819       0.954492
       7.980000       1.398569       1.425977       0.972824
       7.990000       1.386625       1.413885       0.989596
       8.000000       1.377729       1.402092       1.005167
       8.010000       1.372478       1.391004       1.019858
       8.020000       1.371427       1.380928       1.033927
       8.030000       1.375009       1.372085       1.047562
       8.040000       1.383450       1.364601       1.060859
       8.050000       1.396718       1.358496       1.073807
       8.060000       1.414529       1.353711       1.086266
       8.070000       1.436410       1.350138       1.097962
       8.080000       1.461779       1.347627       1.108504
       8.090000       1.489993       1.345969       1.117422
       8.100000       1.520330       1.344855       1.124239
       8.110000       1.551921       1.343861       1.128551
       8.120000       1.583709       1.342462       1.130115
       8.130000       1.614495       1.340139       1.128926
       8.140000       1.643118       1.336531       1.125242
       8.150000       1.668705       1.331602       1.119562
       8.160000       1.690904       1.325738       1.112545
       8.170000       1.709970       1.319716       1.104894
       8.180000       1.726676       1.314548       1.097228
       8.190000       1.742087       1.311242       1.089991
       8.200000       1.757309       1.310576       1.083416
       8.210000       1.773308       1.312959       1.077552
       8.220000       1.790833       1.318394       1.072353
       8.230000       1.810432       1.326543       1.067788
       8.240000       1.832513       1.336867       1.063940
       8.250000       1.857396       1.348785       1.061054
       8.260000       1.885329       1.361819       1.059520
       8.270000       1.916418       1.375638       1.059795
       8.280000       1.950504       1.389991       1.062292
       8.290000       1.987010       1.404551       1.067296
       8.300000       2.024839       1.418788       1.074892
       8.310000       2.062407       1.431964       1.084949
       8.320000       2.097841       1.443314       1.097134
       8.330000       2.129320       1.452352       1.110959
       8.340000       2.155452       1.459152       1.125841
       8.350000       2.175544       1.464465       1.141170
       8.360000       2.189681       1.469611       1.156368
       8.370000       2.198624       1.476180       1.170934
       8.380000       2.203614       1.485693       1.184475
       8.390000       2.206149       1.499314       1.196727
       8.400000       2.207789       1.517683       1.207575
       8.410000       2.209985       1.540853       1.217062
       8.420000       2.213964       1.568313       1.225375
       8.430000       2.220644       1.599091       1.232817
       8.440000       2.230615       1.631914       1.239748
       8.450000       2.244154       1.665421       1.246547
       8.460000       2.261265       1.698375       1.253581
       8.470000       2.281724       1.729807       1.261196
       8.480000       2.305103       1.759032       1.269707
       8.490000       2.330768       1.785544       1.279381
       8.500000       2.357877       1.808843       1.290427
       8.510000       2.385384       1.828295       1.302990
       8.520000       2.412098       1.843135       1.317167
       8.530000       2.436782       1.852637       1.333023
       8.540000       2.458304       1.856386       1.350583
       8.550000       2.475752       1.854495       1.369794
       8.560000       2.488486       1.847633       1.390487
       8.570000       2.496093       1.836843       1.412346
       8.580000       2.498323       1.823252       1.434929
       8.590000       2.495070       1.807866       1.457726
       8.600000       2.486454       1.791542       1.480238
       8.610000       2.472929       1.775108       1.502049
       8.620000       2.455337       1.759510       1.522864
       8.630000       2.434808       1.745855       1.542522
       8.640000       2.412537       1.735293       1.560973
       8.650000       2.389506       1.728805       1.578239
       8.660000       2.366272       1.726991       1.594360
       8.670000       2.342886       1.729961       1.609352
       8.680000       2.318944       1.737359       1.623193
       8.690000       2.293744       1.748491       1.635832
       8.700000       2.266487       1.762493       1.647224
       8.710000       2.236471       1.778476       1.657368
       8.720000       2.203253       1.795586       1.666336
       8.730000       2.166725       1.812980       1.674280
       8.740000       2.127116       1.829733       1.681402
       8.750000       2.084905       1.844745       1.687894
       8.760000       2.040693       1.856708       1.693864
       8.770000       1.995096       1.864175       1.699296
       8.780000       1.948683       1.865723       1.704042
       8.790000       1.901978       1.860173       1.707869
       8.800000       1.855506       1.846803       1.710517
       8.810000       1.809841       1.825517       1.711772
       8.820000       1.765646       1.796894       1.711531
       8.830000       1.723653       1.762132       1.709864
       8.840000       1.684611       1.722878       1.707035
       8.850000       1.649212       1.681010       1.703494
       8.860000       1.618009       1.638426       1.699822
       8.870000       1.591379       1.596863       1.696652
       8.880000       1.569501       1.557775       1.694583
       8.890000       1.552350       1.522242       1.694101
       8.900000       1.539675       1.490908       1.695510
       8.910000       1.530985       1.463944       1.698900
       8.920000       1.525534       1.441059       1.704155
       8.930000       1.522371       1.421593       1.711004
       8.940000       1.520422       1.404668       1.719119
       8.950000       1.518602       1.389368       1.728198
       8.960000       1.515929       1.374877       1.738031
       8.970000       1.511631       1.360557       1.748521
       8.980000       1.505251       1.345963       1.759661
       8.990000       1.496732       1.330849       1.771482
       9.000000       1.486433       1.315170       1.783998
       9.010000       1.475038       1.299082       1.797163
       9.020000       1.463384       1.282914       1.810875
       9.030000       1.452253       1.267093       1.825029
       9.040000       1.442198       1.252052       1.839601
       9.050000       1.433459       1.238154       1.854746
       9.060000       1.425971       1.225635       1.870874
       9.070000       1.419432       1.214580       1.888679
       9.080000       1.413401       1.204904       1.909098
       9.090000       1.407362       1.196352       1.933213
       9.100000       1.400772       1.188513       1.962115
       9.110000       1.393083       1.180892       1.996789
       9.120000       1.383783       1.173023       2.038032
       9.130000       1.372459       1.164609       2.086432
       9.140000       1.358885       1.155619       2.142413
       9.150000       1.343084       1.146323       2.206307
       9.160000       1.325353       1.137225       2.278456
       9.170000       1.306221       1.128927       2.359301
       9.180000       1.286347       1.121970       2.449427
       9.190000       1.266398       1.116686       2.549567
       9.200000       1.246937       1.113120       2.660552
       9.210000       1.228335       1.111022       2.783220
       9.220000       1.210742       1.109898       2.918257
       9.230000       1.194099       1.109097       3.065974
       9.240000       1.178189       1.107912       3.225970
       9.250000       1.162733       1.105675       3.396743
       9.260000       1.147486       1.101834       3.575323
       9.270000       1.132319       1.096016       3.757079
       9.280000       1.117246       1.088059       3.935854
       9.290000       1.102392       1.078013       4.104516
       9.300000       1.087914       1.066098       4.255861
       9.310000       1.073923       1.052638       4.383666
       9.320000       1.060419       1.037982       4.483578
       9.330000       1.047273       1.022442       4.553579
       9.340000       1.034268       1.006293       4.593949
       9.350000       1.021186       0.989824       4.606797
       9.360000       1.007921       0.973407       4.595391
       9.370000       0.994576       0.957557       4.563466
       9.380000       0.981490       0.942921       4.514705
       9.390000       0.969187       0.930196       4.452438
       9.400000       0.958249       0.920022       4.379567
       9.410000       0.949163       0.912858       4.298633
       9.420000       0.942198       0.908914       4.211922
       9.430000       0.937359       0.908123       4.121518
       9.440000       0.934405       0.910156       4.029300
       9.450000       0.932946       0.914476       3.936943
       9.460000       0.932542       0.920394       3.845965
       9.470000       0.932806       0.927150       3.757797
       9.480000       0.933448       0.933989       3.673782
       9.490000       0.934292       0.940249       3.595021
       9.500000       0.935265       0.945431       3.522084
       9.510000       0.936378       0.949259       3.454728
       9.520000       0.937729       0.951704       3.391806
       9.530000       0.939481       0.952969       3.331474
       9.540000       0.941843       0.953442       3.271671
       9.550000       0.944999       0.953616       3.210709
       9.560000       0.949019       0.954005       3.147737
       9.570000       0.953766       0.955060       3.082897
       9.580000       0.958827       0.957106       3.017157
       9.590000       0.963500       0.960304       2.951914
       9.600000       0.966868       0.964645       2.888568
       9.610000       0.967946       0.969987       2.828173
       9.620000       0.965885       0.976094       2.771213
       9.630000       0.960146       0.982691       2.717527
       9.640000       0.950593       0.989474       2.666355
       9.650000       0.937455       0.996097       2.616545
       9.660000       0.921200       1.002167       2.566883
       9.670000       0.902391       1.007260       2.516484
       9.680000       0.881565       1.011000       2.465142
       9.690000       0.859178       1.013157       2.413495
       9.700000       0.835604       1.013759       2.362946
       9.710000       0.811174       1.013148       2.315380
       9.720000       0.786235       1.011982       2.272766
       9.730000       0.761191       1.011161       2.236786
       9.740000       0.736505       1.011698       2.208553
       9.750000       0.712662       1.014565       2.188481
       9.760000       0.690109       1.020563       2.176262
       9.770000       0.669206       1.030241       2.170963
       9.780000       0.650208       1.043880       2.171175
       9.790000       0.633280       1.061514       2.175192
       9.800000       0.618524       1.082971       2.181195
       9.810000       0.606013       1.107916       2.187415
       9.820000       0.595802       1.135891       2.192275
       9.830000       0.587929       1.166380       2.194525
       9.840000       0.582408       1.198887       2.193337
       9.850000       0.579216       1.233014       2.188364
       9.860000       0.578295       1.268495       2.179709
       9.870000       0.579545       1.305164       2.167836
       9.880000       0.582832       1.342854       2.153428
       9.890000       0.587987       1.381250       2.137233
       9.900000       0.594797       1.419761       2.119919
       9.910000       0.602968       1.457405       2.101979
       9.920000       0.612092       1.492756       2.083679
       9.930000       0.621609       1.523983       2.065075
       9.940000       0.630817       1.549024       2.046094
       9.950000       0.638932       1.565901       2.026637
       9.960000       0.645216       1.573117       2.006688
       9.970000       0.649131       1.570010       1.986385
       9.980000       0.650478       1.556955       1.966041
       9.990000       0.649448       1.535349       1.946112
      10.000000       0.646576       1.507420       1.927147
      10.010000       0.642614       1.475890       1.909736
      10.020000       0.638365       1.443613       1.894473
      10.030000       0.634539       1.413223       1.881927
      10.040000       0.631666       1.386879       1.872615
      10.050000       0.630057       1.366128       1.866945
      10.060000       0.629822       1.351875       1.865142
      10.070000       0.630914       1.344439       1.867166
      10.080000       0.633190       1.343645       1.872676
      10.090000       0.636454       1.348916       1.881069
      10.100000       0.640492       1.359369       1.891587
      10.110000       0.645087       1.373890       1.903483
      10.120000       0.650020       1.391208       1.916159
      10.130000       0.655085       1.409965       1.929241
      10.140000       0.660089       1.428783       1.942561
      10.150000       0.664867       1.446351       1.956080
      10.160000       0.669278       1.461526       1.969799
      10.170000       0.673203       1.473468       1.983701
      10.180000       0.676536       1.481747       1.997745
      10.190000       0.679169       1.486387       2.011892
      10.200000       0.680988       1.487786       2.026109
      10.210000       0.681883       1.486541       2.040351
      10.220000       0.681776       1.483235       2.054509
      10.230000       0.680655       1.478262       2.068371
      10.240000       0.678597       1.471769       2.081636
      10.250000       0.675772       1.463722       2.093966
      10.260000       0.672421       1.454072       2.105063
      10.270000       0.668817       1.442946       2.114723
      10.280000       0.665216       1.430773       2.122884
      10.290000       0.661816       1.418287       2.129659
      10.300000       0.658732       1.406404       2.135374
      10.310000       0.655990       1.396080       2.140603
      10.320000       0.653553       1.388202       2.146143
      10.330000       0.651359       1.383563       2.152931
      10.340000       0.649370       1.382872       2.161895
      10.350000       0.647593       1.386752       2.173781
      10.360000       0.646077       1.395682       2.189004
      10.370000       0.644885       1.409899       2.207570
      10.380000       0.644057       1.429295       2.229058
      10.390000       0.643584       1.453370       2.252675
      10.400000       0.643401       1.481251       2.277357
      10.410000       0.643398       1.511786       2.301915
      10.420000       0.643447       1.543674       2.325190
      10.430000       0.643448       1.575610       2.346196
      10.440000       0.643368       1.606433       2.364237
      10.450000       0.643273       1.635282       2.378998
      10.460000       0.643304       1.661758       2.390585
      10.470000       0.643632       1.686030       2.399473
      10.480000       0.644392       1.708816       2.406354
      10.490000       0.645642       1.731220       2.411880
      10.500000       0.647350       1.754471       2.416418
      10.510000       0.649422       1.779670       2.419905
      10.520000       0.651737       1.807655       2.421892
      10.530000       0.654183       1.838981       2.421754
      10.540000       0.656686       1.873989       2.418963
      10.550000       0.659215       1.912830       2.413296
      10.560000       0.661796       1.955429       2.404898
      10.570000       0.664496       2.001362       2.394192
      10.580000       0.667410       2.049735       2.381728
      10.590000       0.670638       2.099116       2.368046
      10.600000       0.674257       2.147563       2.353598
      10.610000       0.678309       2.192742       2.338748
      10.620000       0.682798       2.232153       2.323812
      10.630000       0.687714       2.263425       2.309113
      10.640000       0.693052       2.284675       2.295023
      10.650000       0.698834       2.294847       2.281977
      10.660000       0.705107       2.293938       2.270432
      10.670000       0.711928       2.283029       2.260791
      10.680000       0.719361       2.264117       2.253275
      10.690000       0.727469       2.239764       2.247810
      10.700000       0.736310       2.212678       2.243950
      10.710000       0.745917       2.185285       2.240896
      10.720000       0.756270       2.159380       2.237601
      10.730000       0.767262       2.135901       2.232947
      10.740000       0.778676       2.114849       2.225934
      10.750000       0.790200       2.095379       2.215823
      10.760000       0.801461       2.076051       2.202226
      10.770000       0.812111       2.055215       2.185112
      10.780000       0.821904       2.031468       2.164773
      10.790000       0.830776       2.004070       2.141778
      10.800000       0.838899       1.973197       2.116909
      10.810000       0.846684       1.939957       2.091105
      10.820000       0.854753       1.906148       2.065381
      10.830000       0.863848       1.873841       2.040731
      10.840000       0.874713       1.844919       2.018031
      10.850000       0.887947       1.820702       1.997968
      10.860000       0.903865       1.801726       1.980978
      10.870000       0.922395       1.787717       1.967232
      10.880000       0.943039       1.777733       1.956646
      10.890000       0.964904       1.770425       1.948924
      10.900000       0.986819       1.764339       1.943625
      10.910000       1.007512       1.758190       1.940249
      10.920000       1.025804       1.751037       1.938319
      10.930000       1.040771       1.742364       1.937443
      10.940000       1.051839       1.732034       1.937373
      10.950000       1.058775       1.720170       1.938021
      10.960000       1.061617       1.706981       1.939461
      10.970000       1.060563       1.692597       1.941902
      10.980000       1.055876       1.676978       1.945648
      10.990000       1.047857       1.659907       1.951060
      11.000000       1.036891       1.641038       1.958521
      11.010000       1.023540       1.619957       1.968412
      11.020000       1.008598       1.596230       1.981082
      11.030000       0.993054       1.569452       1.996804
      11.040000       0.977955       1.539344       2.015720
      11.050000       0.964211       1.505884       2.037783
      11.060000       0.952426       1.469409       2.062736
      11.070000       0.942809       1.430640       2.090127
      11.080000       0.935193       1.390563       2.119373
      11.090000       0.929145       1.350228       2.149836
      11.100000       0.924144       1.310545       2.180892
      11.110000       0.919766       1.272147       2.211989
      11.120000       0.915825       1.235378       2.242691
      11.130000       0.912423       1.200377       2.272707
      11.140000       0.909894       1.167213       2.301925
      11.150000       0.908676       1.136008       2.330410
      11.160000       0.909143       1.106997       2.358382
      11.170000       0.911451       1.080521       2.386162
      11.180000       0.915451       1.056972       2.414114
      11.190000       0.920674       1.036727       2.442599
      11.200000       0.926403       1.020080       2.471931
      11.210000       0.931807       1.007191       2.502371
      11.220000       0.936106       0.998047       2.534120
      11.230000       0.938710       0.992444       2.567321
      11.240000       0.939325       0.990000       2.602062
      11.250000       0.937986       0.990171       2.638388
      11.260000       0.935025       0.992297       2.676288
      11.270000       0.930978       0.995657       2.715650
      11.280000       0.926459       0.999538       2.756155
      11.290000       0.922020       1.003317       2.797135
      11.300000       0.918048       1.006530       2.837477
      11.310000       0.914728       1.008894       2.875643
      11.320000       0.912068       1.010276       2.909816
      11.330000       0.909961       1.010623       2.938130
      11.340000       0.908241       1.009886       2.958907
      11.350000       0.906727       1.007986       2.970839
      11.360000       0.905225       1.004816       2.973103
      11.370000       0.903515       1.000298       2.965398
      11.380000       0.901341       0.994429       2.947919
      11.390000       0.898421       0.987327       2.921286
      11.400000       0.894478       0.979246       2.886442
      11.410000       0.889294       0.970565       2.844530
      11.420000       0.882775       0.961750       2.796759
      11.430000       0.874991       0.953269       2.744279
      11.440000       0.866198       0.945476       2.688109
      11.450000       0.856814       0.938487       2.629134
      11.460000       0.847373       0.932106       2.568141
      11.470000       0.838465       0.925828       2.505882
      11.480000       0.830677       0.918938       2.443103
      11.490000       0.824532       0.910680       2.380548
      11.500000       0.820447       0.900449       2.318943
      11.510000       0.818687       0.887943       2.258990
      11.520000       0.819322       0.873235       2.201341
      11.530000       0.822206       0.856736       2.146582
      11.540000       0.826976       0.839085       2.095209
      11.550000       0.833091       0.821000       2.047604
      11.560000       0.839918       0.803157       2.004013
      11.570000       0.846849       0.786123       1.964516
      11.580000       0.853417       0.770339       1.928998
      11.590000       0.859374       0.756134       1.897134
      11.600000       0.864695       0.743741       1.868399
      11.610000       0.869499       0.733308       1.842115
      11.620000       0.873923       0.724905       1.817534
      11.630000       0.877992       0.718533       1.793939
      11.640000       0.881550       0.714124       1.770765
      11.650000       0.884265       0.711555       1.747700
      11.660000       0.885695       0.710649       1.724731
      11.670000       0.885377       0.711174       1.702127
      11.680000       0.882905       0.712825       1.680339
      11.690000       0.878002       0.715195       1.659867
      11.700000       0.870581       0.717770       1.641135
      11.710000       0.860795       0.719957       1.624424
      11.720000       0.849055       0.721166       1.609868
      11.730000       0.836002       0.720927       1.597509
      11.740000       0.822426       0.718995       1.587358
      11.750000       0.809148       0.715369       1.579445
      11.760000       0.796897       0.710239       1.573833
      11.770000       0.786213       0.703854       1.570599
      11.780000       0.777399       0.696402       1.569788
      11.790000       0.770547       0.687939       1.571339
      11.800000       0.765608       0.678398       1.575012
      11.810000       0.762473       0.667658       1.580333
      11.820000       0.761041       0.655627       1.586574
      11.830000       0.761257       0.642320       1.592838
      11.840000       0.763123       0.627887       1.598199
      11.850000       0.766694       0.612609       1.601899
      11.860000       0.772056       0.596864       1.603509
      11.870000       0.779305       0.581077       1.603006
      11.880000       0.788494       0.565675       1.600736
      11.890000       0.799592       0.551044       1.597298
      11.900000       0.812451       0.537507       1.593391
      11.910000       0.826814       0.525306       1.589676
      11.920000       0.842369       0.514592       1.586677
      11.930000       0.858825       0.505428       1.584726
      11.940000       0.875980       0.497796       1.583947
      11.950000       0.893733       0.491618       1.584276
      11.960000       0.912043       0.486800       1.585490
      11.970000       0.930848       0.483262       1.587236
      11.980000       0.949994       0.480961       1.589051
      11.990000       0.969222       0.479887       1.590388
      12.000000       0.988229       0.480049       1.590657
      12.010000       1.006770       0.481440       1.589282
      12.020000       1.024778       0.484019       1.585773
      12.030000       1.042432       0.487702       1.579767
      12.040000       1.060152       0.492356       1.571052
      12.050000       1.078508       0.497823       1.559576
      12.060000       1.098071       0.503938       1.545442
      12.070000       1.119264       0.510564       1.528910
      12.080000       1.142233       0.517612       1.510376
      12.090000       1.166784       0.525058       1.490325
      12.100000       1.192382       0.532950       1.469275
      12.110000       1.218216       0.541399       1.447710
      12.120000       1.243321       0.550568       1.426035
      12.130000       1.266739       0.560645       1.404550
      12.140000       1.287697       0.571807       1.383465
      12.150000       1.305770       0.584165       1.362931
      12.160000       1.320977       0.597726       1.343087
      12.170000       1.333787       0.612367       1.324088
      12.180000       1.345033       0.627836       1.306111
      12.190000       1.355736       0.643785       1.289310
      12.200000       1.366893       0.659816       1.273762
      12.210000       1.379292       0.675533       1.259408
      12.220000       1.393377       0.690570       1.246030
      12.230000       1.409198       0.704588       1.233273
      12.240000       1.426447       0.717248       1.220688
      12.250000       1.444552       0.728176       1.207790
      12.260000       1.462810       0.736965       1.194128
      12.270000       1.480508       0.743239       1.179339
      12.280000       1.497026       0.746768       1.163209
      12.290000       1.511924       0.747562       1.145713
      12.300000       1.525016       0.745912       1.127036
      12.310000       1.536428       0.742342       1.107561
      12.320000       1.546599       0.737495       1.087816
      12.330000       1.556176       0.732029       1.068394
      12.340000       1.565805       0.726533       1.049862
      12.350000       1.575853       0.721502       1.032693
      12.360000       1.586153       0.717354       1.017217
      12.370000       1.595861       0.714450       1.003622
      12.380000       1.603492       0.713111       0.991969
      12.390000       1.607137       0.713614       0.982221
      12.400000       1.604813       0.716168       0.974258
      12.410000       1.594847       0.720896       0.967883
      12.420000       1.576217       0.727810       0.962829
      12.430000       1.548762       0.736793       0.958785
      12.440000       1.513229       0.747589       0.955433
      12.450000       1.471150       0.759805       0.952477
      12.460000       1.424578       0.772928       0.949662
      12.470000       1.375753       0.786387       0.946760
      12.480000       1.326798       0.799633       0.943566
      12.490000       1.279487       0.812227       0.939893
      12.500000       1.235120       0.823898       0.935589
      12.510000       1.194497       0.834553       0.930557
      12.520000       1.157978       0.844254       0.924769
      12.530000       1.125600       0.853165       0.918272
      12.540000       1.097205       0.861504       0.911183
      12.550000       1.072562       0.869506       0.903658
      12.560000       1.051453       0.877385       0.895854
      12.570000       1.033714       0.885308       0.887866
      12.580000       1.019263       0.893370       0.879692
      12.590000       1.008101       0.901584       0.871220
      12.600000       1.000306       0.909882       0.862265
      12.610000       0.996019       0.918130       0.852626
      12.620000       0.995417       0.926146       0.842155
      12.630000       0.998685       0.933738       0.830812
      12.640000       1.005983       0.940749       0.818678
      12.650000       1.017430       0.947096       0.805947
      12.660000       1.033074       0.952788       0.792884
      12.670000       1.052875       0.957919       0.779777
      12.680000       1.076672       0.962642       0.766883
      12.690000       1.104134       0.967132       0.754386
      12.700000       1.134672       0.971545       0.742360
      12.710000       1.167320       0.975980       0.730771
      12.720000       1.200607       0.980443       0.719498
      12.730000       1.232492       0.984841       0.708383
      12.740000       1.260434       0.988997       0.697291
      12.750000       1.281659       0.992691       0.686141
      12.760000       1.293623       0.995673       0.674924
      12.770000       1.294551       0.997665       0.663684
      12.780000       1.283887       0.998347       0.652501
      12.790000       1.262430       0.997371       0.641459
      12.800000       1.232116       0.994391       0.630635
      12.810000       1.195504       0.989132       0.620095
      12.820000       1.155205       0.981449       0.609905
      12.830000       1.113431       0.971373       0.600154
      12.840000       1.071782       0.959109       0.590966
      12.850000       1.031255       0.945016       0.582503
      12.860000       0.992394       0.929541       0.574936
      12.870000       0.955489       0.913164       0.568403
      12.880000       0.920717       0.896339       0.562975
      12.890000       0.888231       0.879477       0.558626
      12.900000       0.858159       0.862942       0.555248
      12.910000       0.830581       0.847066       0.552680
      12.920000       0.805493       0.832148       0.550752
      12.930000       0.782789       0.818445       0.549318
      12.940000       0.762276       0.806159       0.548270
      12.950000       0.743701       0.795430       0.547523
      12.960000       0.726794       0.786329       0.546996
      12.970000       0.711299       0.778860       0.546588
      12.980000       0.696993       0.772946       0.546167
      12.990000       0.683703       0.768431       0.545564
      13.000000       0.671307       0.765094       0.544596
      13.010000       0.659747       0.762676       0.543093
      13.020000       0.649032       0.760918       0.540943
      13.030000       0.639238       0.759602       0.538125
      13.040000       0.630500       0.758563       0.534723
      13.050000       0.623001       0.757701       0.530924
      13.060000       0.616946       0.756961       0.526989
      13.070000       0.612538       0.756316       0.523221
      13.080000       0.609955       0.755746       0.519925
      13.090000       0.609324       0.755198       0.517369
      13.100000       0.610706       0.754558       0.515742
      13.110000       0.614085       0.753606       0.515130
      13.120000       0.619381       0.752003       0.515505
      13.130000       0.626476       0.749322       0.516732
      13.140000       0.635254       0.745132       0.518604
      13.150000       0.645637       0.739111       0.520878
      13.160000       0.657600       0.731164       0.523321
      13.170000       0.671164       0.721484       0.525717
      13.180000       0.686361       0.710548       0.527867
      13.190000       0.703190       0.699043       0.529551
      13.200000       0.721558       0.687758       0.530515
      13.210000       0.741239       0.677459       0.530481
      13.220000       0.761831       0.668792       0.529184
      13.230000       0.782711       0.662214       0.526438
      13.240000       0.802998       0.657968       0.522184
      13.250000       0.821528       0.656078       0.516515
      13.260000       0.836906       0.656375       0.509669
      13.270000       0.847666       0.658535       0.501994
      13.280000       0.852545       0.662133       0.493912
      13.290000       0.850795       0.666695       0.485852
      13.300000       0.842399       0.671757       0.478205
      13.310000       0.828098       0.676895       0.471273
      13.320000       0.809200       0.681747       0.465244
      13.330000       0.787270       0.686019       0.460178
      13.340000       0.763830       0.689489       0.456022
      13.350000       0.740157       0.692018       0.452628
      13.360000       0.717212       0.693562       0.449792
      13.370000       0.695661       0.694174       0.447293
      13.380000       0.675932       0.693984       0.444928
      13.390000       0.658277       0.693164       0.442553
      13.400000       0.642831       0.691873       0.440102
      13.410000       0.629649       0.690205       0.437581
      13.420000       0.618755       0.688171       0.435049
      13.430000       0.610154       0.685702       0.432574
      13.440000       0.603829       0.682676       0.430200
      13.450000       0.599708       0.678964       0.427917
      13.460000       0.597609       0.674457       0.425654
      13.470000       0.597188       0.669099       0.423289
      13.480000       0.597914       0.662912       0.420672
      13.490000       0.599092       0.656020       0.417666
      13.500000       0.599939       0.648656       0.414179
      13.510000       0.599701       0.641138       0.410193
      13.520000       0.597795       0.633816       0.405772
      13.530000       0.593906       0.626999       0.401039
      13.540000       0.588039       0.620898       0.396148
      13.550000       0.580488       0.615599       0.391238
      13.560000       0.571763       0.611077       0.386410
      13.570000       0.562489       0.607218       0.381731
      13.580000       0.553297       0.603862       0.377247
      13.590000       0.544742       0.600823       0.373012
      13.600000       0.537233       0.597924       0.369110
      13.610000       0.531002       0.595018       0.365658
      13.620000       0.526099       0.592016       0.362796
      13.630000       0.522417       0.588916       0.360667
      13.640000       0.519740       0.585818       0.359394
      13.650000       0.517805       0.582926       0.359064
      13.660000       0.516359       0.580532       0.359711
      13.670000       0.515208       0.578970       0.361324
      13.680000       0.514240       0.578552       0.363843
      13.690000       0.513434       0.579487       0.367174
      13.700000       0.512852       0.581815       0.371187
      13.710000       0.512639       0.585377       0.375723
      13.720000       0.513013       0.589832       0.380592
      13.730000       0.514241       0.594727       0.385572
      13.740000       0.516609       0.599596       0.390411
      13.750000       0.520398       0.604066       0.394830
      13.760000       0.525858       0.607922       0.398534
      13.770000       0.533206       0.611121       0.401228
      13.780000       0.542620       0.613754       0.402652
      13.790000       0.554230       0.615980       0.402626
      13.800000       0.568096       0.617967       0.401098
      13.810000       0.584175       0.619845       0.398176
      13.820000       0.602284       0.621685       0.394126
      13.830000       0.622076       0.623493       0.389328
      13.840000       0.643024       0.625201       0.384205
      13.850000       0.664422       0.626678       0.379149
      13.860000       0.685417       0.627755       0.374467
      13.870000       0.705054       0.628265       0.370357
      13.880000       0.722328       0.628094       0.366915
      13.890000       0.736265       0.627219       0.364169
      13.900000       0.746015       0.625721       0.362112
      13.910000       0.750979       0.623780       0.360736
      13.920000       0.750938       0.621629       0.360041
      13.930000       0.746128       0.619507       0.360031
      13.940000       0.737225       0.617591       0.360699
      13.950000       0.725233       0.615950       0.362016
      13.960000       0.711299       0.614534       0.363915
      13.970000       0.696534       0.613190       0.366290
      13.980000       0.681853       0.611725       0.369007
      13.990000       0.667884       0.609971       0.371909
      14.000000       0.654950       0.607828       0.374844
      14.010000       0.643127       0.605289       0.377675
      14.020000       0.632348       0.602415       0.380299
      14.030000       0.622531       0.599318       0.382646
      14.040000       0.613683       0.596143       0.384672
      14.050000       0.605939       0.593048       0.386354
      14.060000       0.599550       0.590204       0.387680
      14.070000       0.594821       0.587769       0.388651
      14.080000       0.592035       0.585867       0.389290
      14.090000       0.591383       0.584557       0.389652
      14.100000       0.592917       0.583806       0.389838
      14.110000       0.596525       0.583485       0.389980
      14.120000       0.601930       0.583393       0.390231
      14.130000       0.608712       0.583305       0.390729
      14.140000       0.616354       0.583016       0.391573
      14.150000       0.624309       0.582372       0.392808
      14.160000       0.632073       0.581269       0.394417
      14.170000       0.639238       0.579631       0.396322
      14.180000       0.645512       0.577394       0.398398
      14.190000       0.650697       0.574502       0.400489
      14.200000       0.654635       0.570929       0.402428
      14.210000       0.657143       0.566699       0.404069
      14.220000       0.657999       0.561908       0.405307
      14.230000       0.656966       0.556709       0.406095
      14.240000       0.653871       0.551279       0.406450
      14.250000       0.648694       0.545778       0.406450
      14.260000       0.641614       0.540312       0.406212
      14.270000       0.633016       0.534930       0.405871
      14.280000       0.623423       0.529624       0.405543
      14.290000       0.613426       0.524358       0.405307
      14.300000       0.603609       0.519074       0.405181
      14.310000       0.594514       0.513701       0.405118
      14.320000       0.586625       0.508158       0.405021
      14.330000       0.580375       0.502378       0.404770
      14.340000       0.576152       0.496331       0.404259
      14.350000       0.574293       0.490056       0.403416
      14.360000       0.575069       0.483664       0.402220
      14.370000       0.578656       0.477333       0.400694
      14.380000       0.585099       0.471277       0.398899
      14.390000       0.594287       0.465718       0.396930
      14.400000       0.605934       0.460858       0.394914
      14.410000       0.619566       0.456853       0.392999
      14.420000       0.634530       0.453784       0.391341
      14.430000       0.650025       0.451645       0.390073
      14.440000       0.665177       0.450334       0.389290
      14.450000       0.679145       0.449670       0.389033
      14.460000       0.691264       0.449423       0.389287
      14.470000       0.701162       0.449353       0.389998
      14.480000       0.708828       0.449245       0.391086
      14.490000       0.714601       0.448943       0.392463
      14.500000       0.719057       0.448356       0.394060
      14.510000       0.722850       0.447471       0.395838
      14.520000       0.726540       0.446349       0.397802
      14.530000       0.730450       0.445119       0.400008
      14.540000       0.734586       0.443958       0.402548
      14.550000       0.738630       0.443054       0.405539
      14.560000       0.741999       0.442563       0.409090
      14.570000       0.743954       0.442575       0.413277
      14.580000       0.743728       0.443104       0.418111
      14.590000       0.740662       0.444106       0.423522
      14.600000       0.734313       0.445513       0.429357
      14.610000       0.724548       0.447272       0.435408
      14.620000       0.711583       0.449358       0.441438
      14.630000       0.695974       0.451755       0.447231
      14.640000       0.678531       0.454421       0.452620
      14.650000       0.660189       0.457250       0.457503
      14.660000       0.641854       0.460047       0.461840
      14.670000       0.624283       0.462536       0.465636
      14.680000       0.608002       0.464389       0.468925
      14.690000       0.593288       0.465279       0.471766
      14.700000       0.580184       0.464936       0.474246
      14.710000       0.568556       0.463209       0.476487
      14.720000       0.558166       0.460104       0.478632
      14.730000       0.548749       0.455779       0.480829
      14.740000       0.540078       0.450509       0.483196
      14.750000       0.532006       0.444610       0.485804
      14.760000       0.524478       0.438370       0.488669
      14.770000       0.517517       0.431994       0.491759
      14.780000       0.511200       0.425597       0.495012
      14.790000       0.505637       0.419232       0.498348
      14.800000       0.500946       0.412936       0.501694
      14.810000       0.497235       0.406778       0.505000
      14.820000       0.494575       0.400885       0.508250
      14.830000       0.492975       0.395440       0.511461
      14.840000       0.492363       0.390647       0.514658
      14.850000       0.492593       0.386688       0.517837
      14.860000       0.493465       0.383679       0.520935
      14.870000       0.494759       0.381638       0.523804
      14.880000       0.496265       0.380467       0.526234
      14.890000       0.497796       0.379965       0.527986
      14.900000       0.499203       0.379856       0.528842
      14.910000       0.500376       0.379845       0.528645
      14.920000       0.501241       0.379678       0.527312
      14.930000       0.501750       0.379197       0.524824
      14.940000       0.501863       0.378367       0.521219
      14.950000       0.501539       0.377262       0.516579
      14.960000       0.500741       0.376023       0.511033
      14.970000       0.499463       0.374807       0.504766
      14.980000       0.497756       0.373737       0.498018
      14.990000       0.495739       0.372871       0.491072
      15.000000       0.493584       0.372195       0.484225
      15.010000       0.491479       0.371634       0.477743
      15.020000       0.489575       0.371073       0.471819
      15.030000       0.487954       0.370393       0.466546
      15.040000       0.486622       0.369500       0.461900
      15.050000       0.485518       0.368352       0.457764
      15.060000       0.484546       0.366959       0.453955
      15.070000       0.483601       0.365379       0.450268
      15.080000       0.482594       0.363684       0.446516
      15.090000       0.481469       0.361936       0.442554
      15.100000       0.480216       0.360163       0.438297
      15.110000       0.478886       0.358361       0.433714
      15.120000       0.477600       0.356518       0.428822
      15.130000       0.476543       0.354635       0.423665
      15.140000       0.475933       0.352752       0.418311
      15.150000       0.475981       0.350958       0.412843
      15.160000       0.476835       0.349385       0.407358
      15.170000       0.478544       0.348192       0.401963
      15.180000       0.481039       0.347541       0.396765
      15.190000       0.484162       0.347573       0.391854
      15.200000       0.487727       0.348393       0.387292
      15.210000       0.491593       0.350073       0.383103
      15.220000       0.495721       0.352646       0.379279
      15.230000       0.500195       0.356108       0.375805
      15.240000       0.505184       0.360408       0.372668
      15.250000       0.510876       0.365445       0.369880
      15.260000       0.517410       0.371061       0.367470
      15.270000       0.524820       0.377049       0.365485
      15.280000       0.533008       0.383168       0.363968
      15.290000       0.541747       0.389171       0.362945
      15.300000       0.550707       0.394829       0.362409
      15.310000       0.559495       0.399951       0.362305
      15.320000       0.567691       0.404386       0.362537
      15.330000       0.574881       0.408016       0.362979
      15.340000       0.580671       0.410741       0.363506
      15.350000       0.584691       0.412474       0.364040
      15.360000       0.586605       0.413150       0.364576
      15.370000       0.586145       0.412736       0.365198
      15.380000       0.583160       0.411242       0.366060
      15.390000       0.577653       0.408719       0.367350
      15.400000       0.569802       0.405245       0.369249
      15.410000       0.559921       0.400919       0.371892
      15.420000       0.548406       0.395850       0.375350
      15.430000       0.535679       0.390159       0.379625
      15.440000       0.522148       0.383982       0.384657
      15.450000       0.508174       0.377478       0.390356
      15.460000       0.494068       0.370831       0.396623
      15.470000       0.480080       0.364246       0.403391
      15.480000       0.466406       0.357932       0.410641
      15.490000       0.453205       0.352078       0.418413
      15.500000       0.440624       0.346834       0.426792
      15.510000       0.428817       0.342288       0.435888
      15.520000       0.417947       0.338467       0.445804
      15.530000       0.408182       0.335344       0.456614
      15.540000       0.399672       0.332855       0.468339
      15.550000       0.392539       0.330923       0.480937
      15.560000       0.386864       0.329477       0.494296
      15.570000       0.382678       0.328457       0.508234
      15.580000       0.379957       0.327807       0.522504
      15.590000       0.378623       0.327465       0.536798
      15.600000       0.378541       0.327354       0.550761
      15.610000       0.379530       0.327386       0.564013
      15.620000       0.381373       0.327475       0.576185
      15.630000       0.383837       0.327555       0.586973
      15.640000       0.386693       0.327600       0.596183
      15.650000       0.389741       0.327641       0.603752
      15.660000       0.392817       0.327755       0.609730
      15.670000       0.395817       0.328053       0.614236
      15.680000       0.398702       0.328640       0.617396
      15.690000       0.401495       0.329589       0.619313
      15.700000       0.404265       0.330914       0.620061
      15.710000       0.407093       0.332563       0.619723
      15.720000       0.410024       0.334424       0.618447
      15.730000       0.413037       0.336349       0.616487
      15.740000       0.416035       0.338179       0.614209
      15.750000       0.418865       0.339769       0.612058
      15.760000       0.421363       0.341010       0.610490
      15.770000       0.423405       0.341824       0.609906
      15.780000       0.424935       0.342160       0.610588
      15.790000       0.425969       0.341983       0.612661
      15.800000       0.426569       0.341278       0.616072
      15.810000       0.426797       0.340060       0.620597
      15.820000       0.426677       0.338382       0.625864
      15.830000       0.426177       0.336341       0.631402
      15.840000       0.425213       0.334056       0.636705
      15.850000       0.423676       0.331647       0.641299
      15.860000       0.421468       0.329212       0.644799
      15.870000       0.418543       0.326819       0.646950
      15.880000       0.414928       0.324515       0.647636
      15.890000       0.410718       0.322340       0.646867
      15.900000       0.406060       0.320342       0.644735
      15.910000       0.401106       0.318583       0.641385
      15.920000       0.395983       0.317133       0.636979
      15.930000       0.390773       0.316068       0.631684
      15.940000       0.385510       0.315458       0.625658
      15.950000       0.380191       0.315365       0.619033
      15.960000       0.374791       0.315838       0.611887
      15.970000       0.369278       0.316908       0.604234
      15.980000       0.363619       0.318585       0.596022
      15.990000       0.357804       0.320862       0.587167
      16.000000       0.351855       0.323720       0.577596
      16.010000       0.345839       0.327147       0.567295
      16.020000       0.339879       0.331145       0.556337
      16.030000       0.334146       0.335741       0.544885
      16.040000       0.328849       0.340985       0.533170
      16.050000       0.324209       0.346939       0.521457
      16.060000       0.320441       0.353662       0.510000
      16.070000       0.317719       0.361185       0.499008
      16.080000       0.316157       0.369495       0.488629
      16.090000       0.315788       0.378502       0.478927
      16.100000       0.316564       0.388028       0.469886
      16.110000       0.318362       0.397810       0.461427
      16.120000       0.321007       0.407524       0.453439
      16.130000       0.324301       0.416832       0.445823
      16.140000       0.328047       0.425445       0.438531
      16.150000       0.332066       0.433179       0.431583
      16.160000       0.336206       0.439987       0.425060
      16.170000       0.340339       0.445960       0.419074
      16.180000       0.344365       0.451288       0.413740
      16.190000       0.348225       0.456201       0.409142
      16.200000       0.351915       0.460909       0.405320
      16.210000       0.355507       0.465562       0.402262
      16.220000       0.359154       0.470240       0.399900
      16.230000       0.363073       0.474964       0.398122
      16.240000       0.367524       0.479715       0.396770
      16.250000       0.372752       0.484457       0.395661
      16.260000       0.378944       0.489160       0.394599
      16.270000       0.386172       0.493802       0.393396
      16.280000       0.394368       0.498376       0.391892
      16.290000       0.403315       0.502874       0.389967
      16.300000       0.412663       0.507280       0.387556
      16.310000       0.421974       0.511568       0.384642
      16.320000       0.430785       0.515713       0.381240
      16.330000       0.438688       0.519710       0.377375
      16.340000       0.445390       0.523592       0.373058
      16.350000       0.450766       0.527419       0.368270
      16.360000       0.454853       0.531257       0.362953
      16.370000       0.457810       0.535138       0.357018
      16.380000       0.459850       0.539027       0.350361
      16.390000       0.461173       0.542809       0.342885
      16.400000       0.461922       0.546318       0.334533
      16.410000       0.462161       0.549380       0.325314
      16.420000       0.461886       0.551879       0.315327
      16.430000       0.461048       0.553798       0.304758
      16.440000       0.459589       0.555230       0.293856
      16.450000       0.457473       0.556362       0.282892
      16.460000       0.454712       0.557421       0.272119
      16.470000       0.451368       0.558630       0.261736
      16.480000       0.447551       0.560160       0.251875
      16.490000       0.443387       0.562117       0.242603
      16.500000       0.438990       0.564539       0.233941
      16.510000       0.434438       0.567411       0.225886
      16.520000       0.429760       0.570672       0.218428
      16.530000       0.424948       0.574223       0.211565
      16.540000       0.419997       0.577924       0.205301
      16.550000       0.414944       0.581604       0.199639
      16.560000       0.409888       0.585087       0.194576
      16.570000       0.404985       0.588230       0.190096
      16.580000       0.400409       0.590960       0.186167
      16.590000       0.396301       0.593299       0.182742
      16.600000       0.392742       0.595350       0.179770
      16.610000       0.389743       0.597269       0.177193
      16.620000       0.387260       0.599218       0.174956
      16.630000       0.385220       0.601329       0.173005
      16.640000       0.383547       0.603677       0.171286
      16.650000       0.382165       0.606254       0.169752
      16.660000       0.381000       0.608950       0.168361
      16.670000       0.379972       0.611544       0.167078
      16.680000       0.378988       0.613723       0.165877
      16.690000       0.377943       0.615122       0.164743
      16.700000       0.376721       0.615400       0.163664
      16.710000       0.375206       0.614319       0.162636
      16.720000       0.373296       0.611810       0.161660
      16.730000       0.370920       0.607996       0.160735
      16.740000       0.368057       0.603184       0.159861
      16.750000       0.364750       0.597813       0.159035
      16.760000       0.361089       0.592383       0.158250
      16.770000       0.357198       0.587370       0.157498
      16.780000       0.353205       0.583153       0.156773
      16.790000       0.349225       0.579959       0.156072
      16.800000       0.345359       0.577837       0.155393
      16.810000       0.341686       0.576668       0.154742
      16.820000       0.338274       0.576204       0.154127
      16.830000       0.335163       0.576120       0.153562
      16.840000       0.332358       0.576063       0.153071
      16.850000       0.329813       0.575702       0.152682
      16.860000       0.327433       0.574765       0.152428
      16.870000       0.325093       0.573062       0.152333
      16.880000       0.322674       0.570509       0.152416
      16.890000       0.320100       0.567126       0.152681
      16.900000       0.317364       0.563024       0.153119
      16.910000       0.314542       0.558371       0.153706
      16.920000       0.311767       0.553364       0.154404
      16.930000       0.309202       0.548191       0.155160
      16.940000       0.306993       0.543020       0.155912
      16.950000       0.305236       0.537982       0.156591
      16.960000       0.303959       0.533165       0.157131
      16.970000       0.303120       0.528613       0.157480
      16.980000       0.302627       0.524326       0.157611
      16.990000       0.302371       0.520272       0.157525
      17.000000       0.302252       0.516392       0.157254
      17.010000       0.302207       0.512616       0.156846
      17.020000       0.302219       0.508865       0.156355
      17.030000       0.302322       0.505066       0.155818
      17.040000       0.302590       0.501156       0.155253
      17.050000       0.303132       0.497087       0.154656
      17.060000       0.304078       0.492833       0.154011
      17.070000       0.305572       0.488382       0.153307
      17.080000       0.307759       0.483741       0.152544
      17.090000       0.310776       0.478936       0.151745
      17.100000       0.314732       0.474009       0.150947
      17.110000       0.319692       0.469021       0.150200
      17.120000       0.325663       0.464049       0.149559
      17.130000       0.332568       0.459177       0.149078
      17.140000       0.340246       0.454496       0.148802
      17.150000       0.348455       0.450081       0.148768
      17.160000       0.356888       0.445976       0.148997
      17.170000       0.365206       0.442170       0.149492
      17.180000       0.373079       0.438595       0.150235
      17.190000       0.380231       0.435133       0.151186
      17.200000       0.386477       0.431655       0.152287
      17.210000       0.391741       0.428058       0.153469
      17.220000       0.396049       0.424305       0.154662
      17.230000       0.399502       0.420434       0.155809
      17.240000       0.402239       0.416540       0.156872
      17.250000       0.404404       0.412735       0.157834
      17.260000       0.406121       0.409118       0.158690
      17.270000       0.407478       0.405751       0.159440
      17.280000       0.408510       0.402658       0.160075
      17.290000       0.409195       0.399841       0.160578
      17.300000       0.409453       0.397281       0.160926
      17.310000       0.409159       0.394941       0.161100
      17.320000       0.408175       0.392759       0.161095
      17.330000       0.406384       0.390638       0.160927
      17.340000       0.403728       0.388466       0.160621
      17.350000       0.400236       0.386132       0.160211
      17.360000       0.396018       0.383565       0.159720
      17.370000       0.391254       0.380750       0.159160
      17.380000       0.386161       0.377736       0.158529
      17.390000       0.380963       0.374624       0.157815
      17.400000       0.375873       0.371547       0.157000
      17.410000       0.371062       0.368641       0.156068
      17.420000       0.366643       0.366025       0.155003
      17.430000       0.362655       0.363779       0.153799
      17.440000       0.359060       0.361939       0.152461
      17.450000       0.355759       0.360491       0.151005
      17.460000       0.352620       0.359380       0.149467
      17.470000       0.349510       0.358531       0.147891
      17.480000       0.346330       0.357866       0.146329
      17.490000       0.343032       0.357327       0.144827
      17.500000       0.339625       0.356883       0.143422
      17.510000       0.336167       0.356525       0.142131
      17.520000       0.332754       0.356236       0.140958
      17.530000       0.329502       0.355966       0.139894
      17.540000       0.326530       0.355601       0.138926
      17.550000       0.323951       0.354958       0.138038
      17.560000       0.321863       0.353807       0.137212
      17.570000       0.320337       0.351934       0.136427
      17.580000       0.319407       0.349202       0.135656
      17.590000       0.319067       0.345599       0.134876
      17.600000       0.319269       0.341254       0.134070
      17.610000       0.319935       0.336396       0.133233
      17.620000       0.320976       0.331306       0.132376
      17.630000       0.322308       0.326262       0.131523
      17.640000       0.323863       0.321509       0.130700
      17.650000       0.325597       0.317236       0.129930
      17.660000       0.327482       0.313579       0.129230
      17.670000       0.329497       0.310616       0.128604
      17.680000       0.331613       0.308368       0.128047
      17.690000       0.333783       0.306812       0.127548
      17.700000       0.335925       0.305878       0.127085
      17.710000       0.337919       0.305465       0.126633
      17.720000       0.339610       0.305444       0.126162
      17.730000       0.340830       0.305672       0.125643
      17.740000       0.341429       0.306008       0.125043
      17.750000       0.341308       0.306325       0.124341
      17.760000       0.340447       0.306519       0.123522
      17.770000       0.338911       0.306512       0.122585
      17.780000       0.336829       0.306237       0.121539
      17.790000       0.334361       0.305634       0.120403
      17.800000       0.331662       0.304644       0.119200
      17.810000       0.328857       0.303226       0.117952
      17.820000       0.326043       0.301373       0.116682
      17.830000       0.323301       0.299121       0.115406
      17.840000       0.320726       0.296550       0.114143
      17.850000       0.318436       0.293759       0.112909
      17.860000       0.316578       0.290842       0.111723
      17.870000       0.315308       0.287867       0.110604
      17.880000       0.314764       0.284875       0.109572
      17.890000       0.315032       0.281883       0.108643
      17.900000       0.316124       0.278911       0.107823
      17.910000       0.317960       0.275991       0.107109
      17.920000       0.320372       0.273174       0.106486
      17.930000       0.323129       0.270525       0.105924
      17.940000       0.325962       0.268103       0.105387
      17.950000       0.328612       0.265942       0.104829
      17.960000       0.330849       0.264033       0.104206
      17.970000       0.332490       0.262321       0.103474
      17.980000       0.333408       0.260708       0.102604
      17.990000       0.333530       0.259076       0.101586
      18.000000       0.332847       0.257313       0.100436
      18.010000       0.331410       0.255343       0.099190
      18.020000       0.329328       0.253143       0.097900
      18.030000       0.326753       0.250739       0.096626
      18.040000       0.323872       0.248198       0.095422
      18.050000       0.320891       0.245599       0.094336
      18.060000       0.318022       0.243010       0.093399
      18.070000       0.315462       0.240470       0.092632
      18.080000       0.313380       0.237980       0.092040
      18.090000       0.311891       0.235508       0.091616
      18.100000       0.311043       0.233005       0.091344
      18.110000       0.310821       0.230422       0.091200
      18.120000       0.311149       0.227735       0.091152
      18.130000       0.311921       0.224955       0.091168
      18.140000       0.313022       0.222126       0.091214
      18.150000       0.314353       0.219315       0.091257
      18.160000       0.315841       0.216603       0.091266
      18.170000       0.317431       0.214063       0.091215
      18.180000       0.319076       0.211754       0.091088
      18.190000       0.320719       0.209703       0.090882
      18.200000       0.322292       0.207907       0.090610
      18.210000       0.323731       0.206327       0.090302
      18.220000       0.324990       0.204898       0.090001
      18.230000       0.326070       0.203536       0.089756
      18.240000       0.327012       0.202158       0.089613
      18.250000       0.327894       0.200700       0.089607
      18.260000       0.328803       0.199132       0.089753
      18.270000       0.329805       0.197459       0.090044
      18.280000       0.330927       0.195727       0.090456
      18.290000       0.332149       0.194004       0.090947
      18.300000       0.333412       0.192366       0.091467
      18.310000       0.334635       0.190879       0.091962
      18.320000       0.335733       0.189587       0.092387
      18.330000       0.336634       0.188506       0.092700
      18.340000       0.337279       0.187619       0.092871
      18.350000       0.337626       0.186884       0.092878
      18.360000       0.337654       0.186246       0.092705
      18.370000       0.337370       0.185646       0.092348
      18.380000       0.336821       0.185035       0.091815
      18.390000       0.336106       0.184378       0.091125
      18.400000       0.335365       0.183661       0.090308
      18.410000       0.334755       0.182884       0.089406
      18.420000       0.334421       0.182061       0.088465
      18.430000       0.334453       0.181214       0.087532
      18.440000       0.334856       0.180369       0.086655
      18.450000       0.335535       0.179551       0.085878
      18.460000       0.336302       0.178782       0.085237
      18.470000       0.336905       0.178079       0.084756
      18.480000       0.337084       0.177454       0.084448
      18.490000       0.336636       0.176912       0.084306
      18.500000       0.335469       0.176461       0.084312
      18.510000       0.333624       0.176106       0.084433
      18.520000       0.331254       0.175855       0.084630
      18.530000       0.328585       0.175713       0.084863
      18.540000       0.325846       0.175683       0.085099
      18.550000       0.323231       0.175759       0.085314
      18.560000       0.320867       0.175923       0.085500
      18.570000       0.318819       0.176147       0.085661
      18.580000       0.317099       0.176392       0.085809
      18.590000       0.315692       0.176609       0.085955
      18.600000       0.314566       0.176751       0.086107
      18.610000       0.313688       0.176771       0.086262
      18.620000       0.313034       0.176638       0.086407
      18.630000       0.312582       0.176330       0.086525
      18.640000       0.312315       0.175844       0.086593
      18.650000       0.312198       0.175193       0.086596
      18.660000       0.312173       0.174400       0.086523
      18.670000       0.312148       0.173499       0.086380
      18.680000       0.312002       0.172532       0.086185
      18.690000       0.311596       0.171546       0.085964
      18.700000       0.310788       0.170588       0.085750
      18.710000       0.309442       0.169703       0.085571
      18.720000       0.307452       0.168927       0.085451
      18.730000       0.304754       0.168289       0.085405
      18.740000       0.301344       0.167811       0.085441
      18.750000       0.297285       0.167508       0.085562
      18.760000       0.292697       0.167386       0.085766
      18.770000       0.287734       0.167447       0.086046
      18.780000       0.282561       0.167682       0.086385
      18.790000       0.277324       0.168072       0.086759
      18.800000       0.272139       0.168587       0.087135
      18.810000       0.267080       0.169190       0.087478
      18.820000       0.262190       0.169835       0.087759
      18.830000       0.257482       0.170476       0.087953
      18.840000       0.252956       0.171067       0.088050
      18.850000       0.248613       0.171568       0.088051
      18.860000       0.244456       0.171939       0.087968
      18.870000       0.240499       0.172151       0.087821
      18.880000       0.236763       0.172175       0.087633
      18.890000       0.233271       0.171991       0.087429
      18.900000       0.230041       0.171584       0.087232
      18.910000       0.227076       0.170950       0.087067
      18.920000       0.224362       0.170090       0.086955
      18.930000       0.221861       0.169018       0.086920
      18.940000       0.219516       0.167752       0.086984
      18.950000       0.217254       0.166323       0.087170
      18.960000       0.215003       0.164768       0.087491
      18.970000       0.212697       0.163132       0.087953
      18.980000       0.210294       0.161461       0.088551
      18.990000       0.207781       0.159805       0.089269
      19.000000       0.205180       0.158210       0.090086
      19.010000       0.202541       0.156714       0.090974
      19.020000       0.199930       0.155347       0.091901
      19.030000       0.197418       0.154127       0.092833
      19.040000       0.195066       0.153065       0.093730
      19.050000       0.192919       0.152156       0.094551
      19.060000       0.190998       0.151387       0.095257
      19.070000       0.189307       0.150738       0.095819
      19.080000       0.187842       0.150187       0.096221
      19.090000       0.186596       0.149719       0.096464
      19.100000       0.185574       0.149328       0.096563
      19.110000       0.184794       0.149014       0.096546
      19.120000       0.184284       0.148786       0.096442
      19.130000       0.184078       0.148647       0.096283
      19.140000       0.184206       0.148591       0.096102
      19.150000       0.184687       0.148602       0.095928
      19.160000       0.185524       0.148648       0.095790
      19.170000       0.186702       0.148687       0.095715
      19.180000       0.188188       0.148670       0.095724
      19.190000       0.189931       0.148554       0.095840
      19.200000       0.191872       0.148305       0.096083
      19.210000       0.193945       0.147908       0.096476
      19.220000       0.196080       0.147369       0.097037
      19.230000       0.198203       0.146708       0.097775
      19.240000       0.200233       0.145958       0.098687
      19.250000       0.202088       0.145150       0.099753
      19.260000       0.203692       0.144311       0.100939
      19.270000       0.204999       0.143462       0.102199
      19.280000       0.206007       0.142613       0.103480
      19.290000       0.206767       0.141771       0.104734
      19.300000       0.207380       0.140942       0.105918
      19.310000       0.207978       0.140138       0.107004
      19.320000       0.208699       0.139382       0.107977
      19.330000       0.209666       0.138707       0.108838
      19.340000       0.210968       0.138157       0.109601
      19.350000       0.212644       0.137772       0.110289
      19.360000       0.214676       0.137583       0.110927
      19.370000       0.216980       0.137598       0.111541
      19.380000       0.219415       0.137800       0.112158
      19.390000       0.221790       0.138148       0.112805
      19.400000       0.223881       0.138589       0.113509
      19.410000       0.225456       0.139071       0.114300
      19.420000       0.226295       0.139554       0.115207
      19.430000       0.226220       0.140022       0.116259
      19.440000       0.225118       0.140479       0.117479
      19.450000       0.222959       0.140945       0.118886
      19.460000       0.219801       0.141448       0.120490
      19.470000       0.215779       0.142008       0.122294
      19.480000       0.211090       0.142631       0.124294
      19.490000       0.205960       0.143305       0.126483
      19.500000       0.200618       0.143995       0.128855
      19.510000       0.195268       0.144658       0.131408
      19.520000       0.190068       0.145242       0.134140
      19.530000       0.185132       0.145703       0.137046
      19.540000       0.180530       0.146010       0.140107
      19.550000       0.176299       0.146150       0.143289
      19.560000       0.172456       0.146126       0.146535
      19.570000       0.169005       0.145961       0.149778
      19.580000       0.165937       0.145690       0.152944
      19.590000       0.163229       0.145357       0.155972
      19.600000       0.160847       0.145013       0.158822
      19.610000       0.158739       0.144710       0.161484
      19.620000       0.156847       0.144496       0.163976
      19.630000       0.155114       0.144412       0.166341
      19.640000       0.153491       0.144487       0.168624
      19.650000       0.151944       0.144726       0.170860
      19.660000       0.150454       0.145118       0.173051
      19.670000       0.149008       0.145627       0.175164
      19.680000       0.147596       0.146196       0.177136
      19.690000       0.146204       0.146754       0.178892
      19.700000       0.144810       0.147216       0.180370
      19.710000       0.143392       0.147495       0.181538
      19.720000       0.141933       0.147513       0.182410
      19.730000       0.140427       0.147210       0.183030
      19.740000       0.138890       0.146558       0.183463
      19.750000       0.137362       0.145563       0.183762
      19.760000       0.135895       0.144267       0.183955
      19.770000       0.134552       0.142741       0.184040
      19.780000       0.133395       0.141072       0.183991
      19.790000       0.132478       0.139349       0.183773
      19.800000       0.131841       0.137650       0.183357
      19.810000       0.131515       0.136034       0.182734
      19.820000       0.131518       0.134536       0.181924
      19.830000       0.131854       0.133168       0.180982
      19.840000       0.132516       0.131920       0.179995
      19.850000       0.133482       0.130768       0.179069
      19.860000       0.134719       0.129679       0.178320
      19.870000       0.136185       0.128627       0.177857
      19.880000       0.137837       0.127592       0.177772
      19.890000       0.139628       0.126569       0.178145
      19.900000       0.141505       0.125563       0.179042
      19.910000       0.143410       0.124587       0.180522
      19.920000       0.145270       0.123654       0.182632
      19.930000       0.146999       0.122776       0.185404
      19.940000       0.148501       0.121959       0.188848
      19.950000       0.149681       0.121203       0.192936
      19.960000       0.150456       0.120501       0.197608
      19.970000       0.150769       0.119842       0.202760
      19.980000       0.150597       0.119204       0.208256
      19.990000       0.149958       0.118566       0.213928
      20.000000       0.148905       0.117904       0.219587
