  # energy grid [eV]     epsr_x  epsr_y  epsr_z
       0.000000            NaN            NaN            NaN
       0.010000 -116915.130759  -60541.459491       5.914190
       0.020000  -29225.778882  -15132.827543       5.028384
       0.030000  -12987.009533   -6723.821321       4.136116
       0.040000   -7303.439690   -3780.668783       3.441778
       0.050000   -4672.758164   -2418.409211       2.950594
       0.060000   -3243.745311   -1678.415935       2.612775
       0.070000   -2382.094935   -1232.222889       2.380444
       0.080000   -1822.849982    -942.625984       2.218574
       0.090000   -1439.432746    -744.078832       2.103364
       0.100000   -1165.175898    -602.058743       2.018978
       0.110000    -962.256079    -496.979451       1.955037
       0.120000    -807.918134    -417.057534       1.904957
       0.130000    -687.806130    -354.858985       1.864832
       0.140000    -592.500128    -305.505828       1.832590
       0.150000    -515.611295    -265.689700       1.807279
       0.160000    -452.682596    -233.102589       1.788470
       0.170000    -400.527997    -206.094655       1.775821
       0.180000    -356.821092    -183.461202       1.768847
       0.190000    -319.831088    -164.305962       1.766863
       0.200000    -288.248759    -147.950973       1.769031
       0.210000    -261.068978    -133.875741       1.774452
       0.220000    -237.509728    -121.675311       1.782243
       0.230000    -216.955210    -111.030798       1.791586
       0.240000    -198.915179    -101.688335       1.801756
       0.250000    -182.995434     -93.443789       1.812121
       0.260000    -168.876091     -86.131511       1.822144
       0.270000    -156.295386     -79.615947       1.831380
       0.280000    -145.037442     -73.785309       1.839490
       0.290000    -134.922950     -68.546741       1.846243
       0.300000    -125.801976     -63.822599       1.851523
       0.310000    -117.548373     -59.547558       1.855316
       0.320000    -110.055388     -55.666334       1.857676
       0.330000    -103.232192     -52.131890       1.858678
       0.340000     -97.001114     -48.904004       1.858377
       0.350000     -91.295417     -45.948112       1.856795
       0.360000     -86.057500     -43.234385       1.853957
       0.370000     -81.237438     -40.736965       1.849944
       0.380000     -76.791789     -38.433355       1.844965
       0.390000     -72.682605     -36.303900       1.839390
       0.400000     -68.876622     -34.331372       1.833725
       0.410000     -65.344582     -32.500620       1.828530
       0.420000     -62.060669     -30.798273       1.824317
       0.430000     -59.002031     -29.212499       1.821458
       0.440000     -56.148384     -27.732797       1.820144
       0.450000     -53.481667     -26.349824       1.820386
       0.460000     -50.985760     -25.055243       1.822052
       0.470000     -48.646231     -23.841603       1.824909
       0.480000     -46.450129     -22.702222       1.828674
       0.490000     -44.385803     -21.631100       1.833049
       0.500000     -42.442747     -20.622830       1.837745
       0.510000     -40.611473     -19.672531       1.842505
       0.520000     -38.883394     -18.775780       1.847112
       0.530000     -37.250732     -17.928556       1.851410
       0.540000     -35.706426     -17.127200       1.855304
       0.550000     -34.244059     -16.368381       1.858767
       0.560000     -32.857787     -15.649076       1.861826
       0.570000     -31.542281     -14.966551       1.864541
       0.580000     -30.292674     -14.318354       1.866974
       0.590000     -29.104516     -13.702289       1.869161
       0.600000     -27.973734     -13.116396       1.871104
       0.610000     -26.896598     -12.558911       1.872781
       0.620000     -25.869690     -12.028234       1.874163
       0.630000     -24.889874     -11.522875       1.875232
       0.640000     -23.954272     -11.041408       1.876003
       0.650000     -23.060237     -10.582432       1.876526
       0.660000     -22.205324     -10.144539       1.876890
       0.670000     -21.387279      -9.726319       1.877214
       0.680000     -20.604024      -9.326387       1.877636
       0.690000     -19.853654      -8.943446       1.878289
       0.700000     -19.134432      -8.576357       1.879280
       0.710000     -18.444771      -8.224200       1.880663
       0.720000     -17.783191      -7.886288       1.882430
       0.730000     -17.148254      -7.562131       1.884512
       0.740000     -16.538479      -7.251355       1.886788
       0.750000     -15.952275      -6.953600       1.889112
       0.760000     -15.387919      -6.668432       1.891331
       0.770000     -14.843608      -6.395298       1.893312
       0.780000     -14.317564      -6.133541       1.894964
       0.790000     -13.808163      -5.882465       1.896254
       0.800000     -13.314034      -5.641419       1.897211
       0.810000     -12.834078      -5.409857       1.897915
       0.820000     -12.367430      -5.187361       1.898465
       0.830000     -11.913376      -4.973613       1.898938
       0.840000     -11.471276      -4.768354       1.899368
       0.850000     -11.040502      -4.571347       1.899722
       0.860000     -10.620424      -4.382392       1.899917
       0.870000     -10.210423      -4.201354       1.899845
       0.880000      -9.809918      -4.028185       1.899397
       0.890000      -9.418395      -3.862869       1.898498
       0.900000      -9.035421      -3.705304       1.897117
       0.910000      -8.660646      -3.555161       1.895274
       0.920000      -8.293805      -3.411813       1.893033
       0.930000      -7.934720      -3.274411       1.890506
       0.940000      -7.583304      -3.142093       1.887837
       0.950000      -7.239568      -3.014262       1.885200
       0.960000      -6.903605      -2.890822       1.882771
       0.970000      -6.575558      -2.772283       1.880706
       0.980000      -6.255553      -2.659682       1.879116
       0.990000      -5.943620      -2.554354       1.878057
       1.000000      -5.639606      -2.457586       1.877533
       1.010000      -5.343147      -2.370253       1.877507
       1.020000      -5.053740      -2.292502       1.877906
       1.030000      -4.770932      -2.223554       1.878635
       1.040000      -4.494622      -2.161652       1.879580
       1.050000      -4.225377      -2.104192       1.880629
       1.060000      -3.964690      -2.048035       1.881688
       1.070000      -3.715130      -1.989971       1.882699
       1.080000      -3.480384      -1.927253       1.883659
       1.090000      -3.265203      -1.858022       1.884613
       1.100000      -3.075250      -1.781505       1.885651
       1.110000      -2.916828      -1.697951       1.886876
       1.120000      -2.796441      -1.608378       1.888380
       1.130000      -2.720101      -1.514247       1.890224
       1.140000      -2.692369      -1.417159       1.892424
       1.150000      -2.715228      -1.318619       1.894960
       1.160000      -2.787095      -1.219883       1.897780
       1.170000      -2.902451      -1.121890       1.900816
       1.180000      -3.052433      -1.025270       1.903987
       1.190000      -3.226319      -0.930405       1.907211
       1.200000      -3.413271      -0.837529       1.910399
       1.210000      -3.603629      -0.746821       1.913462
       1.220000      -3.789436      -0.658476       1.916309
       1.230000      -3.964533      -0.572759       1.918847
       1.240000      -4.124773      -0.490054       1.920989
       1.250000      -4.268491      -0.410895       1.922661
       1.260000      -4.396857      -0.335957       1.923815
       1.270000      -4.513516      -0.265954       1.924442
       1.280000      -4.623345      -0.201441       1.924579
       1.290000      -4.730696      -0.142558       1.924314
       1.300000      -4.837922      -0.088787       1.923772
       1.310000      -4.944907      -0.038878       1.923100
       1.320000      -5.049845       0.009016       1.922435
       1.330000      -5.150806       0.056946       1.921886
       1.340000      -5.247150       0.106684       1.921509
       1.350000      -5.339957       0.159298       1.921296
       1.360000      -5.431191       0.214945       1.921182
       1.370000      -5.522033       0.272875       1.921061
       1.380000      -5.611257       0.331607       1.920813
       1.390000      -5.694505       0.389149       1.920343
       1.400000      -5.764910       0.443224       1.919605
       1.410000      -5.814836       0.491495       1.918624
       1.420000      -5.837922       0.531801       1.917493
       1.430000      -5.830579       0.562446       1.916350
       1.440000      -5.792464       0.582493       1.915334
       1.450000      -5.726030       0.592014       1.914538
       1.460000      -5.635598       0.592171       1.913990
       1.470000      -5.526376       0.585099       1.913643
       1.480000      -5.403691       0.573637       1.913393
       1.490000      -5.272487       0.560995       1.913114
       1.500000      -5.137047       0.550453       1.912687
       1.510000      -5.000850       0.545039       1.912040
       1.520000      -4.866481       0.547190       1.911160
       1.530000      -4.735566       0.558399       1.910106
       1.540000      -4.608762       0.578987       1.908986
       1.550000      -4.485830       0.608069       1.907940
       1.560000      -4.365859       0.643726       1.907107
       1.570000      -4.247605       0.683299       1.906606
       1.580000      -4.129861       0.723726       1.906524
       1.590000      -4.011739       0.761895       1.906914
       1.600000      -3.892797       0.795009       1.907798
       1.610000      -3.773014       0.820977       1.909173
       1.620000      -3.652661       0.838806       1.911015
       1.630000      -3.532166       0.848877       1.913285
       1.640000      -3.411990       0.852958       1.915932
       1.650000      -3.292558       0.853828       1.918899
       1.660000      -3.174228       0.854554       1.922120
       1.670000      -3.057291       0.857660       1.925531
       1.680000      -2.941989       0.864479       1.929066
       1.690000      -2.828531       0.874932       1.932660
       1.700000      -2.717114       0.887717       1.936245
       1.710000      -2.607941       0.900796       1.939754
       1.720000      -2.501228       0.911963       1.943116
       1.730000      -2.397213       0.919310       1.946256
       1.740000      -2.296152       0.921493       1.949099
       1.750000      -2.198304       0.917758       1.951576
       1.760000      -2.103894       0.907813       1.953632
       1.770000      -2.013060       0.891732       1.955245
       1.780000      -1.925790       0.869993       1.956434
       1.790000      -1.841867       0.843655       1.957267
       1.800000      -1.760861       0.814499       1.957860
       1.810000      -1.682179       0.784931       1.958358
       1.820000      -1.605184       0.757582       1.958905
       1.830000      -1.529328       0.734701       1.959614
       1.840000      -1.454279       0.717593       1.960550
       1.850000      -1.379980       0.706282       1.961715
       1.860000      -1.306638       0.699515       1.963060
       1.870000      -1.234656       0.695065       1.964502
       1.880000      -1.164510       0.690256       1.965946
       1.890000      -1.096611       0.682553       1.967310
       1.900000      -1.031165       0.670089       1.968540
       1.910000      -0.968110       0.651942       1.969619
       1.920000      -0.907146       0.628077       1.970566
       1.930000      -0.847890       0.598971       1.971429
       1.940000      -0.790102       0.565114       1.972262
       1.950000      -0.733896       0.526688       1.973106
       1.960000      -0.679838       0.483622       1.973971
       1.970000      -0.628907       0.436026       1.974818
       1.980000      -0.582294       0.384776       1.975570
       1.990000      -0.541124       0.331920       1.976126
       2.000000      -0.506131       0.280650       1.976377
       2.010000      -0.477411       0.234803       1.976229
       2.020000      -0.454329       0.198073       1.975602
       2.030000      -0.435662       0.173267       1.974430
       2.040000      -0.419955       0.161847       1.972645
       2.050000      -0.405961       0.163869       1.970186
       2.060000      -0.392975       0.178233       1.967000
       2.070000      -0.380946       0.203080       1.963072
       2.080000      -0.370316       0.236217       1.958434
       2.090000      -0.361684       0.275463       1.953183
       2.100000      -0.355451       0.318875       1.947479
       2.110000      -0.351605       0.364857       1.941540
       2.120000      -0.349757       0.412155       1.935634
       2.130000      -0.349411       0.459756       1.930045
       2.140000      -0.350303       0.506760       1.925039
       2.150000      -0.352619       0.552261       1.920826
       2.160000      -0.356990       0.595289       1.917530
       2.170000      -0.364300       0.634840       1.915192
       2.180000      -0.375485       0.669993       1.913786
       2.190000      -0.391425       0.700082       1.913245
       2.200000      -0.412983       0.724890       1.913492
       2.210000      -0.441079       0.744787       1.914451
       2.220000      -0.476698       0.760744       1.916047
       2.230000      -0.520815       0.774155       1.918197
       2.240000      -0.574273       0.786495       1.920798
       2.250000      -0.637674       0.798929       1.923720
       2.260000      -0.711259       0.812013       1.926812
       2.270000      -0.794740       0.825594       1.929911
       2.280000      -0.887067       0.838922       1.932862
       2.290000      -0.986190       0.850881       1.935529
       2.300000      -1.088929       0.860276       1.937808
       2.310000      -1.191047       0.866094       1.939631
       2.320000      -1.287596       0.867724       1.940968
       2.330000      -1.373529       0.865125       1.941818
       2.340000      -1.444455       0.858924       1.942209
       2.350000      -1.497306       0.850385       1.942194
       2.360000      -1.530715       0.841221       1.941849
       2.370000      -1.544987       0.833268       1.941264
       2.380000      -1.541767       0.828090       1.940532
       2.390000      -1.523538       0.826680       1.939730
       2.400000      -1.493144       0.829353       1.938902
       2.410000      -1.453425       0.835854       1.938049
       2.420000      -1.406987       0.845592       1.937116
       2.430000      -1.356106       0.857897       1.935999
       2.440000      -1.302698       0.872184       1.934564
       2.450000      -1.248346       0.887991       1.932660
       2.460000      -1.194325       0.904931       1.930153
       2.470000      -1.141628       0.922629       1.926948
       2.480000      -1.090956       0.940732       1.923008
       2.490000      -1.042700       0.958994       1.918370
       2.500000      -0.996918       0.977398       1.913158
       2.510000      -0.953339       0.996247       1.907573
       2.520000      -0.911420       1.016130       1.901889
       2.530000      -0.870463       1.037790       1.896419
       2.540000      -0.829763       1.061910       1.891470
       2.550000      -0.788747       1.088930       1.887295
       2.560000      -0.747053       1.118948       1.884052
       2.570000      -0.704553       1.151719       1.881784
       2.580000      -0.661309       1.186718       1.880431
       2.590000      -0.617512       1.223229       1.879861
       2.600000      -0.573422       1.260414       1.879905
       2.610000      -0.529319       1.297363       1.880399
       2.620000      -0.485478       1.333118       1.881202
       2.630000      -0.442153       1.366700       1.882206
       2.640000      -0.399570       1.397139       1.883336
       2.650000      -0.357932       1.423553       1.884546
       2.660000      -0.317404       1.445258       1.885814
       2.670000      -0.278117       1.461917       1.887151
       2.680000      -0.240154       1.473684       1.888586
       2.690000      -0.203550       1.481264       1.890167
       2.700000      -0.168302       1.485832       1.891945
       2.710000      -0.134388       1.488788       1.893963
       2.720000      -0.101790       1.491426       1.896252
       2.730000      -0.070512       1.494645       1.898824
       2.740000      -0.040562       1.498828       1.901666
       2.750000      -0.011910       1.503931       1.904739
       2.760000       0.015561       1.509731       1.907973
       2.770000       0.042104       1.516108       1.911274
       2.780000       0.068106       1.523266       1.914533
       2.790000       0.094042       1.531790       1.917631
       2.800000       0.120378       1.542536       1.920448
       2.810000       0.147483       1.556410       1.922875
       2.820000       0.175563       1.574142       1.924821
       2.830000       0.204639       1.596127       1.926234
       2.840000       0.234572       1.622386       1.927112
       2.850000       0.265104       1.652599       1.927515
       2.860000       0.295891       1.686172       1.927556
       2.870000       0.326547       1.722306       1.927386
       2.880000       0.356662       1.760037       1.927156
       2.890000       0.385826       1.798274       1.926985
       2.900000       0.413661       1.835822       1.926930
       2.910000       0.439851       1.871399       1.926979
       2.920000       0.464185       1.903643       1.927057
       2.930000       0.486580       1.931108       1.927041
       2.940000       0.507081       1.952228       1.926794
       2.950000       0.525804       1.965250       1.926189
       2.960000       0.542851       1.968153       1.925138
       2.970000       0.558212       1.958616       1.923604
       2.980000       0.571709       1.934107       1.921599
       2.990000       0.583006       1.892182       1.919172
       3.000000       0.591680       1.831002       1.916385
       3.010000       0.597333       1.749996       1.913305
       3.020000       0.599692       1.650496       1.910011
       3.030000       0.598670       1.536087       1.906607
       3.040000       0.594364       1.412468       1.903237
       3.050000       0.586975       1.286746       1.900083
       3.060000       0.576720       1.166307       1.897339
       3.070000       0.563774       1.057622       1.895182
       3.080000       0.548274       0.965330       1.893735
       3.090000       0.530391       0.891855       1.893054
       3.100000       0.510417       0.837522       1.893124
       3.110000       0.488831       0.801031       1.893869
       3.120000       0.466332       0.780050       1.895168
       3.130000       0.443839       0.771781       1.896879
       3.140000       0.422456       0.773403       1.898860
       3.150000       0.403390       0.782358       1.900997
       3.160000       0.387803       0.796500       1.903216
       3.170000       0.376637       0.814128       1.905489
       3.180000       0.370457       0.833964       1.907828
       3.190000       0.369386       0.855111       1.910264
       3.200000       0.373133       0.876988       1.912833
       3.210000       0.381122       0.899265       1.915548
       3.220000       0.392636       0.921774       1.918400
       3.230000       0.406965       0.944434       1.921352
       3.240000       0.423494       0.967216       1.924350
       3.250000       0.441740       0.990153       1.927327
       3.260000       0.461339       1.013374       1.930211
       3.270000       0.482014       1.037120       1.932928
       3.280000       0.503532       1.061711       1.935398
       3.290000       0.525684       1.087463       1.937541
       3.300000       0.548279       1.114584       1.939287
       3.310000       0.571148       1.143102       1.940586
       3.320000       0.594152       1.172837       1.941432
       3.330000       0.617177       1.203425       1.941870
       3.340000       0.640128       1.234371       1.942005
       3.350000       0.662925       1.265101       1.941976
       3.360000       0.685496       1.295013       1.941929
       3.370000       0.707775       1.323522       1.941985
       3.380000       0.729708       1.350089       1.942220
       3.390000       0.751242       1.374257       1.942663
       3.400000       0.772325       1.395682       1.943310
       3.410000       0.792898       1.414158       1.944140
       3.420000       0.812895       1.429645       1.945126
       3.430000       0.832253       1.442291       1.946230
       3.440000       0.850929       1.452448       1.947404
       3.450000       0.868918       1.460670       1.948579
       3.460000       0.886265       1.467680       1.949669
       3.470000       0.903060       1.474295       1.950584
       3.480000       0.919425       1.481308       1.951248
       3.490000       0.935481       1.489369       1.951616
       3.500000       0.951322       1.498887       1.951687
       3.510000       0.966993       1.509994       1.951493
       3.520000       0.982485       1.522562       1.951088
       3.530000       0.997758       1.536275       1.950520
       3.540000       1.012770       1.550746       1.949818
       3.550000       1.027516       1.565620       1.948987
       3.560000       1.042057       1.580658       1.948028
       3.570000       1.056520       1.595748       1.946960
       3.580000       1.071075       1.610867       1.945842
       3.590000       1.085896       1.626013       1.944783
       3.600000       1.101122       1.641153       1.943924
       3.610000       1.116832       1.656216       1.943413
       3.620000       1.133044       1.671125       1.943368
       3.630000       1.149724       1.685848       1.943857
       3.640000       1.166808       1.700431       1.944877
       3.650000       1.184210       1.714983       1.946361
       3.660000       1.201837       1.729622       1.948189
       3.670000       1.219589       1.744389       1.950206
       3.680000       1.237358       1.759186       1.952248
       3.690000       1.255036       1.773777       1.954158
       3.700000       1.272521       1.787852       1.955814
       3.710000       1.289733       1.801142       1.957139
       3.720000       1.306634       1.813519       1.958116
       3.730000       1.323240       1.825043       1.958796
       3.740000       1.339628       1.835925       1.959296
       3.750000       1.355921       1.846415       1.959780
       3.760000       1.372263       1.856683       1.960430
       3.770000       1.388777       1.866723       1.961408
       3.780000       1.405533       1.876319       1.962828
       3.790000       1.422535       1.885054       1.964745
       3.800000       1.439721       1.892365       1.967150
       3.810000       1.456978       1.897619       1.969988
       3.820000       1.474165       1.900226       1.973171
       3.830000       1.491136       1.899759       1.976596
       3.840000       1.507753       1.896025       1.980163
       3.850000       1.523899       1.889071       1.983787
       3.860000       1.539476       1.879077       1.987406
       3.870000       1.554407       1.866207       1.990982
       3.880000       1.568631       1.850460       1.994492
       3.890000       1.582103       1.831612       1.997920
       3.900000       1.594792       1.809269       2.001252
       3.910000       1.606672       1.782989       2.004464
       3.920000       1.617708       1.752443       2.007521
       3.930000       1.627844       1.717554       2.010381
       3.940000       1.637006       1.678614       2.012995
       3.950000       1.645132       1.636368       2.015318
       3.960000       1.652209       1.592040       2.017313
       3.970000       1.658314       1.547301       2.018965
       3.980000       1.663633       1.504140       2.020284
       3.990000       1.668457       1.464622       2.021309
       4.000000       1.673152       1.430576       2.022101
       4.010000       1.678133       1.403293       2.022735
       4.020000       1.683826       1.383331       2.023281
       4.030000       1.690626       1.370507       2.023791
       4.040000       1.698859       1.364070       2.024286
       4.050000       1.708741       1.362969       2.024762
       4.060000       1.720367       1.366132       2.025194
       4.070000       1.733727       1.372673       2.025551
       4.080000       1.748744       1.381981       2.025802
       4.090000       1.765304       1.393693       2.025918
       4.100000       1.783273       1.407582       2.025874
       4.110000       1.802493       1.423427       2.025640
       4.120000       1.822763       1.440921       2.025189
       4.130000       1.843835       1.459647       2.024499
       4.140000       1.865418       1.479127       2.023569
       4.150000       1.887190       1.498902       2.022427
       4.160000       1.908820       1.518617       2.021138
       4.170000       1.929983       1.538064       2.019803
       4.180000       1.950375       1.557183       2.018554
       4.190000       1.969728       1.576010       2.017535
       4.200000       1.987829       1.594610       2.016880
       4.210000       2.004553       1.613001       2.016681
       4.220000       2.019901       1.631107       2.016968
       4.230000       2.034017       1.648739       2.017705
       4.240000       2.047167       1.665608       2.018806
       4.250000       2.059657       1.681370       2.020169
       4.260000       2.071698       1.695691       2.021700
       4.270000       2.083274       1.708314       2.023333
       4.280000       2.094053       1.719121       2.025028
       4.290000       2.103389       1.728185       2.026760
       4.300000       2.110402       1.735807       2.028506
       4.310000       2.114126       1.742513       2.030245
       4.320000       2.113698       1.749005       2.031961
       4.330000       2.108560       1.756052       2.033653
       4.340000       2.098634       1.764346       2.035327
       4.350000       2.084408       1.774386       2.036984
       4.360000       2.066912       1.786408       2.038599
       4.370000       2.047545       1.800406       2.040104
       4.380000       2.027808       1.816207       2.041383
       4.390000       2.008997       1.833568       2.042281
       4.400000       1.991921       1.852256       2.042634
       4.410000       1.976715       1.872081       2.042293
       4.420000       1.962796       1.892895       2.041170
       4.430000       1.948981       1.914556       2.039257
       4.440000       1.933746       1.936904       2.036640
       4.450000       1.915602       1.959757       2.033485
       4.460000       1.893498       1.982922       2.030011
       4.470000       1.867192       2.006220       2.026442
       4.480000       1.837490       2.029504       2.022978
       4.490000       1.806222       2.052660       2.019760
       4.500000       1.775947       2.075601       2.016863
       4.510000       1.749410       2.098268       2.014296
       4.520000       1.728965       2.120629       2.012018
       4.530000       1.716142       2.142698       2.009960
       4.540000       1.711480       2.164537       2.008060
       4.550000       1.714618       2.186244       2.006280
       4.560000       1.724537       2.207932       2.004627
       4.570000       1.739830       2.229698       2.003137
       4.580000       1.758928       2.251611       2.001854
       4.590000       1.780261       2.273723       2.000802
       4.600000       1.802367       2.296081       1.999969
       4.610000       1.823985       2.318738       1.999310
       4.620000       1.844142       2.341741       1.998769
       4.630000       1.862255       2.365085       1.998295
       4.640000       1.878199       2.388669       1.997857
       4.650000       1.892320       2.412271       1.997438
       4.660000       1.905322       2.435546       1.997025
       4.670000       1.918047       2.458068       1.996597
       4.680000       1.931190       2.479373       1.996124
       4.690000       1.945049       2.499015       1.995572
       4.700000       1.959388       2.516586       1.994913
       4.710000       1.973433       2.531735       1.994142
       4.720000       1.985973       2.544161       1.993278
       4.730000       1.995531       2.553608       1.992367
       4.740000       2.000592       2.559858       1.991478
       4.750000       1.999866       2.562730       1.990683
       4.760000       1.992579       2.562086       1.990038
       4.770000       1.978747       2.557846       1.989573
       4.780000       1.959333       2.550038       1.989293
       4.790000       1.936187       2.538853       1.989194
       4.800000       1.911707       2.524709       1.989283
       4.810000       1.888299       2.508258       1.989591
       4.820000       1.867827       2.490332       1.990162
       4.830000       1.851270       2.471812       1.991032
       4.840000       1.838691       2.453462       1.992203
       4.850000       1.829484       2.435779       1.993633
       4.860000       1.822790       2.418919       1.995231
       4.870000       1.817916       2.402716       1.996869
       4.880000       1.814629       2.386796       1.998399
       4.890000       1.813256       2.370711       1.999657
       4.900000       1.814563       2.354048       2.000483
       4.910000       1.819475       2.336441       2.000729
       4.920000       1.828777       2.317518       2.000289
       4.930000       1.842909       2.296837       1.999114
       4.940000       1.861891       2.273896       1.997231
       4.950000       1.885374       2.248210       1.994742
       4.960000       1.912753       2.219435       1.991809
       4.970000       1.943269       2.187463       1.988629
       4.980000       1.976087       2.152477       1.985406
       4.990000       2.010337       2.114991       1.982329
       5.000000       2.045131       2.075911       1.979554
       5.010000       2.079572       2.036592       1.977200
       5.020000       2.112762       1.998811       1.975344
       5.030000       2.143832       1.964593       1.974022
       5.040000       2.171986       1.935848       1.973238
       5.050000       2.196576       1.913984       1.972963
       5.060000       2.217173       1.899629       1.973152
       5.070000       2.233613       1.892611       1.973753
       5.080000       2.245956       1.892150       1.974718
       5.090000       2.254345       1.897166       1.976010
       5.100000       2.258802       1.906522       1.977601
       5.110000       2.259009       1.919137       1.979473
       5.120000       2.254214       1.933963       1.981613
       5.130000       2.243300       1.949906       1.984013
       5.140000       2.225057       1.965785       1.986664
       5.150000       2.198593       1.980387       1.989552
       5.160000       2.163781       1.992605       1.992653
       5.170000       2.121598       2.001625       1.995935
       5.180000       2.074211       2.007089       1.999352
       5.190000       2.024775       2.009187       2.002855
       5.200000       1.976980       2.008644       2.006386
       5.210000       1.934491       2.006613       2.009890
       5.220000       1.900429       2.004467       2.013317
       5.230000       1.876982       2.003514       2.016630
       5.240000       1.865234       2.004694       2.019812
       5.250000       1.865187       2.008338       2.022865
       5.260000       1.875972       2.014067       2.025815
       5.270000       1.896135       2.020858       2.028706
       5.280000       1.923932       2.027234       2.031593
       5.290000       1.957555       2.031518       2.034534
       5.300000       1.995277       2.032121       2.037576
       5.310000       2.035521       2.027813       2.040750
       5.320000       2.076889       2.017970       2.044063
       5.330000       2.118147       2.002721       2.047491
       5.340000       2.158207       1.982949       2.050980
       5.350000       2.196083       1.960136       2.054443
       5.360000       2.230847       1.936074       2.057770
       5.370000       2.261581       1.912535       2.060839
       5.380000       2.287354       1.890995       2.063530
       5.390000       2.307246       1.872430       2.065746
       5.400000       2.320390       1.857217       2.067423
       5.410000       2.326065       1.845143       2.068539
       5.420000       2.323793       1.835542       2.069109
       5.430000       2.313433       1.827540       2.069184
       5.440000       2.295219       1.820335       2.068839
       5.450000       2.269723       1.813428       2.068175
       5.460000       2.237721       1.806685       2.067319
       5.470000       2.199995       1.800230       2.066423
       5.480000       2.157183       1.794221       2.065645
       5.490000       2.109701       1.788621       2.065129
       5.500000       2.057781       1.783079       2.064979
       5.510000       2.001537       1.776951       2.065242
       5.520000       1.941033       1.769433       2.065908
       5.530000       1.876334       1.759744       2.066924
       5.540000       1.807580       1.747292       2.068207
       5.550000       1.735119       1.731796       2.069674
       5.560000       1.659686       1.713347       2.071255
       5.570000       1.582555       1.692420       2.072907
       5.580000       1.505586       1.669844       2.074621
       5.590000       1.431088       1.646745       2.076412
       5.600000       1.361521       1.624418       2.078310
       5.610000       1.299099       1.604148       2.080345
       5.620000       1.245432       1.586996       2.082538
       5.630000       1.201299       1.573624       2.084892
       5.640000       1.166644       1.564207       2.087390
       5.650000       1.140776       1.558487       2.090001
       5.660000       1.122733       1.555903       2.092697
       5.670000       1.111661       1.555793       2.095462
       5.680000       1.107083       1.557567       2.098300
       5.690000       1.108955       1.560848       2.101245
       5.700000       1.117527       1.565538       2.104342
       5.710000       1.133086       1.571807       2.107643
       5.720000       1.155715       1.580013       2.111190
       5.730000       1.185159       1.590577       2.115014
       5.740000       1.220802       1.603860       2.119129
       5.750000       1.261756       1.620067       2.123531
       5.760000       1.306976       1.639189       2.128197
       5.770000       1.355382       1.660978       2.133080
       5.780000       1.405948       1.684901       2.138111
       5.790000       1.457752       1.710096       2.143198
       5.800000       1.509994       1.735319       2.148240
       5.810000       1.561978       1.758925       2.153132
       5.820000       1.613069       1.778927       2.157776
       5.830000       1.662639       1.793122       2.162087
       5.840000       1.710028       1.799314       2.166009
       5.850000       1.754531       1.795582       2.169514
       5.860000       1.795420       1.780588       2.172611
       5.870000       1.832025       1.753858       2.175338
       5.880000       1.863833       1.715966       2.177755
       5.890000       1.890610       1.668540       2.179920
       5.900000       1.912480       1.614064       2.181881
       5.910000       1.929915       1.555510       2.183656
       5.920000       1.943623       1.495889       2.185236
       5.930000       1.954332       1.437856       2.186595
       5.940000       1.962576       1.383461       2.187698
       5.950000       1.968540       1.334072       2.188515
       5.960000       1.972038       1.290435       2.189028
       5.970000       1.972598       1.252808       2.189231
       5.980000       1.969621       1.221094       2.189136
       5.990000       1.962567       1.194984       2.188770
       6.000000       1.951115       1.174080       2.188182
       6.010000       1.935248       1.157998       2.187447
       6.020000       1.915220       1.146407       2.186666
       6.030000       1.891403       1.139022       2.185963
       6.040000       1.864090       1.135559       2.185479
       6.050000       1.833386       1.135684       2.185348
       6.060000       1.799273       1.138967       2.185686
       6.070000       1.761876       1.144860       2.186574
       6.080000       1.721789       1.152724       2.188054
       6.090000       1.680284       1.161888       2.190126
       6.100000       1.639275       1.171733       2.192754
       6.110000       1.601004       1.181755       2.195871
       6.120000       1.567584       1.191601       2.199396
       6.130000       1.540553       1.201046       2.203240
       6.140000       1.520572       1.209937       2.207324
       6.150000       1.507315       1.218128       2.211590
       6.160000       1.499546       1.225431       2.215996
       6.170000       1.495358       1.231631       2.220511
       6.180000       1.492482       1.236549       2.225104
       6.190000       1.488628       1.240148       2.229726
       6.200000       1.481788       1.242625       2.234312
       6.210000       1.470462       1.244450       2.238785
       6.220000       1.453809       1.246299       2.243068
       6.230000       1.431709       1.248886       2.247096
       6.240000       1.404745       1.252744       2.250827
       6.250000       1.374089       1.258050       2.254250
       6.260000       1.341286       1.264554       2.257384
       6.270000       1.307960       1.271663       2.260273
       6.280000       1.275506       1.278634       2.262983
       6.290000       1.244872       1.284853       2.265584
       6.300000       1.216508       1.290076       2.268136
       6.310000       1.190481       1.294572       2.270680
       6.320000       1.166677       1.299097       2.273218
       6.330000       1.144969       1.304693       2.275710
       6.340000       1.125289       1.312379       2.278072
       6.350000       1.107594       1.322877       2.280187
       6.360000       1.091779       1.336452       2.281923
       6.370000       1.077609       1.352949       2.283165
       6.380000       1.064711       1.371953       2.283836
       6.390000       1.052674       1.393015       2.283919
       6.400000       1.041201       1.415832       2.283449
       6.410000       1.030249       1.440311       2.282497
       6.420000       1.020033       1.466508       2.281153
       6.430000       1.010891       1.494470       2.279499
       6.440000       1.003038       1.524071       2.277614
       6.450000       0.996377       1.554908       2.275574
       6.460000       0.990451       1.586267       2.273465
       6.470000       0.984586       1.617168       2.271397
       6.480000       0.978131       1.646438       2.269495
       6.490000       0.970701       1.672792       2.267887
       6.500000       0.962318       1.694916       2.266685
       6.510000       0.953437       1.711548       2.265965
       6.520000       0.944888       1.721581       2.265774
       6.530000       0.937777       1.724185       2.266124
       6.540000       0.933350       1.718955       2.267011
       6.550000       0.932824       1.706046       2.268426
       6.560000       0.937191       1.686259       2.270362
       6.570000       0.947047       1.660999       2.272818
       6.580000       0.962480       1.632083       2.275803
       6.590000       0.983060       1.601423       2.279329
       6.600000       1.007921       1.570704       2.283410
       6.610000       1.035911       1.541169       2.288049
       6.620000       1.065766       1.513570       2.293231
       6.630000       1.096277       1.488266       2.298924
       6.640000       1.126431       1.465398       2.305071
       6.650000       1.155508       1.445050       2.311600
       6.660000       1.183123       1.427336       2.318429
       6.670000       1.209177       1.412376       2.325469
       6.680000       1.233739       1.400178       2.332628
       6.690000       1.256861       1.390502       2.339818
       6.700000       1.278420       1.382769       2.346961
       6.710000       1.298036       1.376093       2.353990
       6.720000       1.315105       1.369431       2.360861
       6.730000       1.328935       1.361798       2.367545
       6.740000       1.338899       1.352463       2.374029
       6.750000       1.344580       1.341081       2.380302
       6.760000       1.345843       1.327719       2.386348
       6.770000       1.342867       1.312811       2.392144
       6.780000       1.336164       1.297069       2.397653
       6.790000       1.326586       1.281407       2.402833
       6.800000       1.315318       1.266862       2.407638
       6.810000       1.303775       1.254487       2.412021
       6.820000       1.293418       1.245230       2.415931
       6.830000       1.285535       1.239790       2.419305
       6.840000       1.281077       1.238521       2.422060
       6.850000       1.280597       1.241402       2.424090
       6.860000       1.284268       1.248063       2.425272
       6.870000       1.291927       1.257863       2.425500
       6.880000       1.303125       1.270001       2.424709
       6.890000       1.317181       1.283651       2.422911
       6.900000       1.333244       1.298095       2.420211
       6.910000       1.350358       1.312799       2.416806
       6.920000       1.367490       1.327408       2.412966
       6.930000       1.383515       1.341652       2.408994
       6.940000       1.397183       1.355220       2.405189
       6.950000       1.407115       1.367661       2.401802
       6.960000       1.411871       1.378379       2.399023
       6.970000       1.410104       1.386703       2.396967
       6.980000       1.400780       1.392032       2.395688
       6.990000       1.383392       1.393985       2.395188
       7.000000       1.358139       1.392548       2.395448
       7.010000       1.325998       1.388149       2.396435
       7.020000       1.288674       1.381672       2.398125
       7.030000       1.248441       1.374371       2.400505
       7.040000       1.207903       1.367727       2.403581
       7.050000       1.169702       1.363262       2.407374
       7.060000       1.136211       1.362331       2.411911
       7.070000       1.109244       1.365932       2.417219
       7.080000       1.089843       1.374557       2.423319
       7.090000       1.078207       1.388137       2.430218
       7.100000       1.073767       1.406095       2.437904
       7.110000       1.075399       1.427488       2.446334
       7.120000       1.081691       1.451191       2.455427
       7.130000       1.091207       1.476081       2.465060
       7.140000       1.102690       1.501183       2.475071
       7.150000       1.115197       1.525774       2.485277
       7.160000       1.128160       1.549436       2.495484
       7.170000       1.141398       1.572061       2.505501
       7.180000       1.155072       1.593797       2.515153
       7.190000       1.169570       1.614937       2.524283
       7.200000       1.185342       1.635758       2.532755
       7.210000       1.202727       1.656368       2.540467
       7.220000       1.221833       1.676606       2.547357
       7.230000       1.242506       1.696025       2.553413
       7.240000       1.264371       1.713932       2.558693
       7.250000       1.286894       1.729486       2.563320
       7.260000       1.309424       1.741785       2.567477
       7.270000       1.331209       1.749976       2.571380
       7.280000       1.351413       1.753344       2.575248
       7.290000       1.369144       1.751397       2.579272
       7.300000       1.383524       1.743895       2.583585
       7.310000       1.393774       1.730815       2.588251
       7.320000       1.399319       1.712258       2.593265
       7.330000       1.399845       1.688360       2.598566
       7.340000       1.395329       1.659240       2.604057
       7.350000       1.386024       1.625036       2.609632
       7.360000       1.372438       1.585989       2.615201
       7.370000       1.355312       1.542556       2.620709
       7.380000       1.335622       1.495511       2.626152
       7.390000       1.314573       1.446014       2.631577
       7.400000       1.293565       1.395629       2.637079
       7.410000       1.274122       1.346266       2.642776
       7.420000       1.257772       1.300035       2.648780
       7.430000       1.245895       1.259021       2.655171
       7.440000       1.239560       1.225015       2.661982
       7.450000       1.239394       1.199268       2.669199
       7.460000       1.245509       1.182356       2.676767
       7.470000       1.257515       1.174174       2.684602
       7.480000       1.274593       1.174036       2.692611
       7.490000       1.295627       1.180828       2.700705
       7.500000       1.319346       1.193159       2.708819
       7.510000       1.344459       1.209502       2.716929
       7.520000       1.369777       1.228331       2.725056
       7.530000       1.394299       1.248252       2.733257
       7.540000       1.417272       1.268121       2.741611
       7.550000       1.438217       1.287122       2.750192
       7.560000       1.456944       1.304770       2.759051
       7.570000       1.473546       1.320852       2.768198
       7.580000       1.488349       1.335337       2.777598
       7.590000       1.501827       1.348298       2.787187
       7.600000       1.514498       1.359896       2.796899
       7.610000       1.526841       1.370416       2.806709
       7.620000       1.539265       1.380339       2.816654
       7.630000       1.552115       1.390363       2.826838
       7.640000       1.565678       1.401343       2.837414
       7.650000       1.580157       1.414141       2.848551
       7.660000       1.595601       1.429427       2.860403
       7.670000       1.611827       1.447528       2.873077
       7.680000       1.628376       1.468364       2.886621
       7.690000       1.644508       1.491488       2.901017
       7.700000       1.659255       1.516185       2.916173
       7.710000       1.671510       1.541598       2.931945
       7.720000       1.680148       1.566816       2.948143
       7.730000       1.684171       1.590939       2.964562
       7.740000       1.682852       1.613121       2.981008
       7.750000       1.675875       1.632607       2.997325
       7.760000       1.663405       1.648794       3.013416
       7.770000       1.646087       1.661290       3.029258
       7.780000       1.624932       1.669956       3.044892
       7.790000       1.601132       1.674896       3.060405
       7.800000       1.575851       1.676384       3.075894
       7.810000       1.550061       1.674767       3.091425
       7.820000       1.524473       1.670357       3.106997
       7.830000       1.499554       1.663377       3.122505
       7.840000       1.475601       1.653970       3.137731
       7.850000       1.452841       1.642252       3.152331
       7.860000       1.431512       1.628367       3.165847
       7.870000       1.411908       1.612495       3.177731
       7.880000       1.394383       1.594826       3.187405
       7.890000       1.379315       1.575524       3.194327
       7.900000       1.367059       1.554750       3.198078
       7.910000       1.357898       1.532750       3.198452
       7.920000       1.352038       1.509982       3.195504
       7.930000       1.349621       1.487184       3.189564
       7.940000       1.350758       1.465314       3.181183
       7.950000       1.355530       1.445362       3.171038
       7.960000       1.363971       1.428111       3.159811
       7.970000       1.376044       1.413988       3.148089
       7.980000       1.391635       1.403050       3.136306
       7.990000       1.410541       1.395101       3.124725
       8.000000       1.432458       1.389829       3.113458
       8.010000       1.456947       1.386884       3.102494
       8.020000       1.483399       1.385902       3.091730
       8.030000       1.511026       1.386497       3.080989
       8.040000       1.538902       1.388266       3.070038
       8.050000       1.566052       1.390820       3.058609
       8.060000       1.591560       1.393818       3.046437
       8.070000       1.614646       1.396962       3.033307
       8.080000       1.634677       1.399981       3.019113
       8.090000       1.651136       1.402621       3.003909
       8.100000       1.663578       1.404661       2.987944
       8.110000       1.671647       1.405977       2.971675
       8.120000       1.675177       1.406633       2.955724
       8.130000       1.674351       1.406962       2.940809
       8.140000       1.669820       1.407582       2.927637
       8.150000       1.662696       1.409304       2.916781
       8.160000       1.654374       1.412946       2.908594
       8.170000       1.646249       1.419098       2.903162
       8.180000       1.639427       1.427942       2.900325
       8.190000       1.634549       1.439187       2.899762
       8.200000       1.631776       1.452144       2.901105
       8.210000       1.630898       1.465894       2.904053
       8.220000       1.631480       1.479493       2.908448
       8.230000       1.632979       1.492145       2.914288
       8.240000       1.634810       1.503320       2.921679
       8.250000       1.636335       1.512771       2.930731
       8.260000       1.636804       1.520457       2.941449
       8.270000       1.635304       1.526403       2.953657
       8.280000       1.630744       1.530570       2.966975
       8.290000       1.621953       1.532831       2.980858
       8.300000       1.607888       1.533087       2.994664
       8.310000       1.587904       1.531485       3.007746
       8.320000       1.562020       1.528604       3.019529
       8.330000       1.531034       1.525484       3.029578
       8.340000       1.496441       1.523435       3.037637
       8.350000       1.460154       1.523686       3.043637
       8.360000       1.424150       1.527027       3.047688
       8.370000       1.390153       1.533580       3.050047
       8.380000       1.359438       1.542769       3.051089
       8.390000       1.332748       1.553450       3.051270
       8.400000       1.310292       1.564127       3.051091
       8.410000       1.291799       1.573191       3.051053
       8.420000       1.276616       1.579136       3.051600
       8.430000       1.263818       1.580755       3.053074
       8.440000       1.252338       1.577279       3.055700
       8.450000       1.241060       1.568430       3.059584
       8.460000       1.228896       1.554366       3.064740
       8.470000       1.214814       1.535522       3.071101
       8.480000       1.197859       1.512413       3.078526
       8.490000       1.177171       1.485482       3.086810
       8.500000       1.152021       1.455074       3.095701
       8.510000       1.121891       1.421550       3.104919
       8.520000       1.086550       1.385492       3.114180
       8.530000       1.046122       1.347860       3.123179
       8.540000       1.001081       1.309986       3.131574
       8.550000       0.952172       1.273374       3.138977
       8.560000       0.900277       1.239374       3.144977
       8.570000       0.846313       1.208938       3.149202
       8.580000       0.791210       1.182563       3.151388
       8.590000       0.735953       1.160425       3.151436
       8.600000       0.681608       1.142585       3.149417
       8.610000       0.629244       1.129095       3.145550
       8.620000       0.579752       1.119956       3.140139
       8.630000       0.533626       1.114950       3.133513
       8.640000       0.490838       1.113478       3.125968
       8.650000       0.450864       1.114515       3.117736
       8.660000       0.412859       1.116711       3.108969
       8.670000       0.375907       1.118597       3.099771
       8.680000       0.339270       1.118810       3.090233
       8.690000       0.302556       1.116245       3.080473
       8.700000       0.265796       1.110109       3.070654
       8.710000       0.229415       1.099872       3.060979
       8.720000       0.194134       1.085167       3.051661
       8.730000       0.160807       1.065692       3.042874
       8.740000       0.130256       1.041175       3.034703
       8.750000       0.103142       1.011438       3.027117
       8.760000       0.079907       0.976530       3.019994
       8.770000       0.060806       0.936888       3.013180
       8.780000       0.045968       0.893438       3.006570
       8.790000       0.035472       0.847619       3.000167
       8.800000       0.029388       0.801281       2.994123
       8.810000       0.027761       0.756493       2.988739
       8.820000       0.030565       0.715288       2.984441
       8.830000       0.037635       0.679401       2.981730
       8.840000       0.048617       0.650079       2.981097
       8.850000       0.062950       0.627977       2.982939
       8.860000       0.079897       0.613160       2.987484
       8.870000       0.098596       0.605165       2.994753
       8.880000       0.118113       0.603105       3.004551
       8.890000       0.137476       0.605779       3.016503
       8.900000       0.155715       0.611792       3.030107
       8.910000       0.171913       0.619704       3.044825
       8.920000       0.185292       0.628195       3.060177
       8.930000       0.195310       0.636221       3.075826
       8.940000       0.201729       0.643117       3.091619
       8.950000       0.204652       0.648613       3.107567
       8.960000       0.204513       0.652760       3.123801
       8.970000       0.202033       0.655834       3.140491
       8.980000       0.198149       0.658243       3.157795
       8.990000       0.193875       0.660470       3.175815
       9.000000       0.190120       0.663016       3.194612
       9.010000       0.187509       0.666333       3.214251
       9.020000       0.186261       0.670747       3.234875
       9.030000       0.186192       0.676400       3.256760
       9.040000       0.186805       0.683233       3.280341
       9.050000       0.187456       0.691012       3.306181
       9.060000       0.187509       0.699386       3.334889
       9.070000       0.186451       0.707934       3.366998
       9.080000       0.183932       0.716227       3.402842
       9.090000       0.179775       0.723887       3.442462
       9.100000       0.173960       0.730671       3.485577
       9.110000       0.166630       0.736545       3.531629
       9.120000       0.158103       0.741727       3.579869
       9.130000       0.148881       0.746649       3.629466
       9.140000       0.139616       0.751849       3.679603
       9.150000       0.131029       0.757816       3.729529
       9.160000       0.123793       0.764831       3.778566
       9.170000       0.118413       0.772877       3.826050
       9.180000       0.115143       0.781625       3.871233
       9.190000       0.113964       0.790506       3.913163
       9.200000       0.114616       0.798845       3.950557
       9.210000       0.116681       0.805994       3.981689
       9.220000       0.119687       0.811451       4.004272
       9.230000       0.123204       0.814938       4.015373
       9.240000       0.126932       0.816428       4.011419
       9.250000       0.130749       0.816139       3.988365
       9.260000       0.134703       0.814496       3.942083
       9.270000       0.138951       0.812072       3.869002
       9.280000       0.143667       0.809507       3.766880
       9.290000       0.148953       0.807425       3.635511
       9.300000       0.154798       0.806362       3.477129
       9.310000       0.161080       0.806716       3.296310
       9.320000       0.167629       0.808748       3.099369
       9.330000       0.174308       0.812637       2.893408
       9.340000       0.181101       0.818541       2.685326
       9.350000       0.188161       0.826652       2.481037
       9.360000       0.195799       0.837183       2.285050
       9.370000       0.204407       0.850301       2.100418
       9.380000       0.214319       0.866019       1.928943
       9.390000       0.225678       0.884122       1.771534
       9.400000       0.238355       0.904134       1.628535
       9.410000       0.251956       0.925363       1.499964
       9.420000       0.265902       0.946990       1.385604
       9.430000       0.279572       0.968172       1.285024
       9.440000       0.292427       0.988141       1.197586
       9.450000       0.304107       1.006286       1.122498
       9.460000       0.314454       1.022200       1.058851
       9.470000       0.323482       1.035718       1.005586
       9.480000       0.331315       1.046925       0.961367
       9.490000       0.338127       1.056141       0.924451
       9.500000       0.344093       1.063877       0.892705
       9.510000       0.349367       1.070757       0.863854
       9.520000       0.354057       1.077435       0.835922
       9.530000       0.358186       1.084496       0.807708
       9.540000       0.361652       1.092377       0.779075
       9.550000       0.364191       1.101317       0.750910
       9.560000       0.365375       1.111342       0.724751
       9.570000       0.364668       1.122281       0.702230
       9.580000       0.361522       1.133821       0.684562
       9.590000       0.355529       1.145568       0.672238
       9.600000       0.346566       1.157129       0.664990
       9.610000       0.334898       1.168166       0.661938
       9.620000       0.321186       1.178435       0.661856
       9.630000       0.306376       1.187777       0.663483
       9.640000       0.291516       1.196106       0.665840
       9.650000       0.277551       1.203402       0.668514
       9.660000       0.265204       1.209742       0.671809
       9.670000       0.254943       1.215360       0.676726
       9.680000       0.247025       1.220688       0.684711
       9.690000       0.241582       1.226356       0.697249
       9.700000       0.238702       1.233127       0.715430
       9.710000       0.238477       1.241776       0.739621
       9.720000       0.241018       1.252947       0.769338
       9.730000       0.246416       1.267021       0.803318
       9.740000       0.254688       1.284033       0.839741
       9.750000       0.265739       1.303662       0.876508
       9.760000       0.279348       1.325289       0.911527
       9.770000       0.295203       1.348107       0.942954
       9.780000       0.312954       1.371228       0.969365
       9.790000       0.332253       1.393774       0.989851
       9.800000       0.352779       1.414934       1.004054
       9.810000       0.374237       1.434008       1.012142
       9.820000       0.396341       1.450435       1.014761
       9.830000       0.418803       1.463824       1.012946
       9.840000       0.441324       1.473946       1.007987
       9.850000       0.463598       1.480685       1.001261
       9.860000       0.485314       1.483937       0.994062
       9.870000       0.506168       1.483493       0.987442
       9.880000       0.525860       1.478967       0.982130
       9.890000       0.544089       1.469781       0.978506
       9.900000       0.560542       1.455231       0.976646
       9.910000       0.574896       1.434621       0.976416
       9.920000       0.586836       1.407451       0.977596
       9.930000       0.596117       1.373661       0.980004
       9.940000       0.602655       1.333870       0.983594
       9.950000       0.606619       1.289528       0.988495
       9.960000       0.608487       1.242889       0.994987
       9.970000       0.609027       1.196769       1.003425
       9.980000       0.609182       1.154154       1.014153
       9.990000       0.609894       1.117763       1.027423
      10.000000       0.611927       1.089668       1.043354
      10.010000       0.615738       1.071060       1.061912
      10.020000       0.621444       1.062170       1.082921
      10.030000       0.628864       1.062347       1.106055
      10.040000       0.637610       1.070255       1.130832
      10.050000       0.647201       1.084122       1.156603
      10.060000       0.657148       1.101979       1.182572
      10.070000       0.667022       1.121864       1.207866
      10.080000       0.676488       1.141950       1.231657
      10.090000       0.685298       1.160634       1.253300
      10.100000       0.693284       1.176583       1.272442
      10.110000       0.700335       1.188772       1.289045
      10.120000       0.706392       1.196499       1.303320
      10.130000       0.711444       1.199408       1.315597
      10.140000       0.715520       1.197493       1.326194
      10.150000       0.718679       1.191114       1.335338
      10.160000       0.720999       1.180988       1.343150
      10.170000       0.722567       1.168136       1.349685
      10.180000       0.723471       1.153752       1.354978
      10.190000       0.723806       1.139010       1.359061
      10.200000       0.723691       1.124864       1.361940
      10.210000       0.723285       1.111922       1.363573
      10.220000       0.722802       1.100444       1.363877
      10.230000       0.722498       1.090459       1.362784
      10.240000       0.722637       1.081956       1.360309
      10.250000       0.723452       1.075068       1.356610
      10.260000       0.725097       1.070166       1.351987
      10.270000       0.727629       1.067834       1.346872
      10.280000       0.731001       1.068713       1.341785
      10.290000       0.735087       1.073312       1.337300
      10.300000       0.739719       1.081876       1.333993
      10.310000       0.744732       1.094352       1.332351
      10.320000       0.750007       1.110449       1.332655
      10.330000       0.755490       1.129708       1.334867
      10.340000       0.761184       1.151525       1.338561
      10.350000       0.767112       1.175133       1.342947
      10.360000       0.773277       1.199568       1.346963
      10.370000       0.779639       1.223685       1.349436
      10.380000       0.786111       1.246237       1.349242
      10.390000       0.792590       1.266021       1.345462
      10.400000       0.798981       1.282029       1.337508
      10.410000       0.805235       1.293581       1.325190
      10.420000       0.811369       1.300409       1.308730
      10.430000       0.817477       1.302686       1.288712
      10.440000       0.823703       1.301018       1.265999
      10.450000       0.830193       1.296398       1.241600
      10.460000       0.837032       1.290079       1.216496
      10.470000       0.844210       1.283366       1.191451
      10.480000       0.851624       1.277344       1.166836
      10.490000       0.859122       1.272649       1.142580
      10.500000       0.866553       1.269367       1.118270
      10.510000       0.873816       1.267096       1.093405
      10.520000       0.880876       1.265108       1.067675
      10.530000       0.887759       1.262506       1.041157
      10.540000       0.894540       1.258300       1.014331
      10.550000       0.901319       1.251392       0.987925
      10.560000       0.908193       1.240536       0.962692
      10.570000       0.915238       1.224350       0.939220
      10.580000       0.922489       1.201425       0.917851
      10.590000       0.929935       1.170516       0.898713
      10.600000       0.937525       1.130761       0.881794
      10.610000       0.945189       1.081905       0.867035
      10.620000       0.952866       1.024471       0.854375
      10.630000       0.960523       0.959851       0.843762
      10.640000       0.968151       0.890266       0.835113
      10.650000       0.975754       0.818551       0.828258
      10.660000       0.983323       0.747787       0.822864
      10.670000       0.990832       0.680849       0.818393
      10.680000       0.998226       0.619978       0.814097
      10.690000       1.005427       0.566484       0.809100
      10.700000       1.012322       0.520624       0.802544
      10.710000       1.018753       0.481668       0.793765
      10.720000       1.024520       0.448118       0.782454
      10.730000       1.029403       0.418048       0.768729
      10.740000       1.033209       0.389498       0.753128
      10.750000       1.035834       0.360869       0.736513
      10.760000       1.037321       0.331259       0.719928
      10.770000       1.037882       0.300661       0.704462
      10.780000       1.037898       0.269963       0.691140
      10.790000       1.037858       0.240724       0.680843
      10.800000       1.038279       0.214757       0.674252
      10.810000       1.039599       0.193639       0.671796
      10.820000       1.042067       0.178276       0.673617
      10.830000       1.045654       0.168671       0.679557
      10.840000       1.050000       0.163918       0.689187
      10.850000       1.054416       0.162420       0.701862
      10.860000       1.057955       0.162236       0.716808
      10.870000       1.059537       0.161459       0.733205
      10.880000       1.058121       0.158548       0.750287
      10.890000       1.052880       0.152539       0.767417
      10.900000       1.043353       0.143104       0.784146
      10.910000       1.029531       0.130466       0.800241
      10.920000       1.011848       0.115222       0.815674
      10.930000       0.991087       0.098124       0.830592
      10.940000       0.968218       0.079869       0.845260
      10.950000       0.944243       0.060947       0.859997
      10.960000       0.920065       0.041580       0.875112
      10.970000       0.896450       0.021769       0.890849
      10.980000       0.874045       0.001407       0.907353
      10.990000       0.853456      -0.019594       0.924651
      11.000000       0.835300      -0.041217       0.942656
      11.010000       0.820186      -0.063307       0.961157
      11.020000       0.808604      -0.085539       0.979816
      11.030000       0.800781      -0.107394       0.998161
      11.040000       0.796572      -0.128133       1.015605
      11.050000       0.795447      -0.146835       1.031496
      11.060000       0.796603      -0.162533       1.045201
      11.070000       0.799140      -0.174401       1.056191
      11.080000       0.802254      -0.181945       1.064107
      11.090000       0.805404      -0.185083       1.068789
      11.100000       0.808382      -0.184096       1.070272
      11.110000       0.811284      -0.179477       1.068758
      11.120000       0.814398      -0.171747       1.064584
      11.130000       0.818021      -0.161315       1.058179
      11.140000       0.822296      -0.148426       1.050017
      11.150000       0.827104      -0.133198       1.040543
      11.160000       0.832039      -0.115716       1.030114
      11.170000       0.836484      -0.096124       1.018953
      11.180000       0.839740      -0.074691       1.007134
      11.190000       0.841196      -0.051834       0.994593
      11.200000       0.840474      -0.028108       0.981153
      11.210000       0.837525      -0.004175       0.966550
      11.220000       0.832642       0.019249       0.950456
      11.230000       0.826404       0.041448       0.932484
      11.240000       0.819560       0.061771       0.912198
      11.250000       0.812878       0.079684       0.889100
      11.260000       0.807013       0.094817       0.862598
      11.270000       0.802386       0.107000       0.831960
      11.280000       0.799135       0.116272       0.796297
      11.290000       0.797134       0.122869       0.754631
      11.300000       0.796070       0.127158       0.706065
      11.310000       0.795554       0.129551       0.650011
      11.320000       0.795226       0.130416       0.586388
      11.330000       0.794802       0.130037       0.515710
      11.340000       0.794088       0.128621       0.439062
      11.350000       0.792955       0.126354       0.357983
      11.360000       0.791319       0.123458       0.274292
      11.370000       0.789134       0.120219       0.189914
      11.380000       0.786407       0.116985       0.106716
      11.390000       0.783231       0.114118       0.026370
      11.400000       0.779817       0.111942      -0.049747
      11.410000       0.776498       0.110679      -0.120606
      11.420000       0.773713       0.110376      -0.185539
      11.430000       0.771946       0.110861      -0.244186
      11.440000       0.771660       0.111731      -0.296401
      11.450000       0.773221       0.112422      -0.342146
      11.460000       0.776843       0.112341      -0.381423
      11.470000       0.782561       0.111037      -0.414265
      11.480000       0.790226       0.108350      -0.440748
      11.490000       0.799515       0.104491      -0.461023
      11.500000       0.809951       0.100027      -0.475325
      11.510000       0.820942       0.095756      -0.483989
      11.520000       0.831827       0.092539      -0.487445
      11.530000       0.841941       0.091115      -0.486227
      11.540000       0.850701       0.091979      -0.480961
      11.550000       0.857694       0.095339      -0.472358
      11.560000       0.862740       0.101158      -0.461193
      11.570000       0.865916       0.109226      -0.448291
      11.580000       0.867505       0.119232      -0.434477
      11.590000       0.867887       0.130816      -0.420522
      11.600000       0.867410       0.143593      -0.407059
      11.610000       0.866267       0.157163      -0.394516
      11.620000       0.864461       0.171125      -0.383054
      11.630000       0.861840       0.185084      -0.372551
      11.640000       0.858208       0.198664      -0.362627
      11.650000       0.853441       0.211506      -0.352729
      11.660000       0.847576       0.223272      -0.342266
      11.670000       0.840841       0.233641      -0.330746
      11.680000       0.833658       0.242308      -0.317893
      11.690000       0.826610       0.249012      -0.303683
      11.700000       0.820398       0.253588      -0.288306
      11.710000       0.815767       0.256038      -0.272070
      11.720000       0.813411       0.256583      -0.255306
      11.730000       0.813864       0.255654      -0.238301
      11.740000       0.817409       0.253809      -0.221288
      11.750000       0.824044       0.251592      -0.204471
      11.760000       0.833494       0.249409      -0.188076
      11.770000       0.845296       0.247474      -0.172397
      11.780000       0.858908       0.245836      -0.157830
      11.790000       0.873826       0.244478      -0.144876
      11.800000       0.889649       0.243424      -0.134101
      11.810000       0.906109       0.242811      -0.126052
      11.820000       0.923044       0.242899      -0.121127
      11.830000       0.940358       0.244035      -0.119439
      11.840000       0.957976       0.246581      -0.120729
      11.850000       0.975812       0.250856      -0.124374
      11.860000       0.993738       0.257079      -0.129504
      11.870000       1.011557       0.265350      -0.135193
      11.880000       1.029001       0.275641      -0.140643
      11.890000       1.045750       0.287820      -0.145324
      11.900000       1.061486       0.301669      -0.149025
      11.910000       1.075959       0.316914      -0.151838
      11.920000       1.089041       0.333252      -0.154084
      11.930000       1.100731       0.350377      -0.156235
      11.940000       1.111112       0.368020      -0.158821
      11.950000       1.120266       0.385965      -0.162363
      11.960000       1.128214       0.404069      -0.167325
      11.970000       1.134894       0.422242      -0.174090
      11.980000       1.140218       0.440426      -0.182932
      11.990000       1.144158       0.458554      -0.193989
      12.000000       1.146834       0.476535      -0.207229
      12.010000       1.148543       0.494246      -0.222437
      12.020000       1.149710       0.511542      -0.239232
      12.030000       1.150774       0.528285      -0.257109
      12.040000       1.152045       0.544361      -0.275491
      12.050000       1.153579       0.559708      -0.293768
      12.060000       1.155120       0.574324      -0.311343
      12.070000       1.156128       0.588269      -0.327670
      12.080000       1.155871       0.601645      -0.342306
      12.090000       1.153568       0.614575      -0.354953
      12.100000       1.148540       0.627173      -0.365476
      12.110000       1.140356       0.639516      -0.373894
      12.120000       1.128939       0.651619      -0.380341
      12.130000       1.114614       0.663411      -0.385009
      12.140000       1.098090       0.674713      -0.388098
      12.150000       1.080348       0.685254      -0.389784
      12.160000       1.062470       0.694693      -0.390213
      12.170000       1.045431       0.702675      -0.389534
      12.180000       1.029903       0.708885      -0.387939
      12.190000       1.016133       0.713099      -0.385708
      12.200000       1.003911       0.715201      -0.383200
      12.210000       0.992641       0.715187      -0.380826
      12.220000       0.981481       0.713126      -0.378966
      12.230000       0.969523       0.709128      -0.377912
      12.240000       0.955957       0.703329      -0.377806
      12.250000       0.940201       0.695918      -0.378619
      12.260000       0.921958       0.687203      -0.380147
      12.270000       0.901221       0.677666      -0.382022
      12.280000       0.878238       0.667968      -0.383756
      12.290000       0.853458       0.658871      -0.384792
      12.300000       0.827453       0.651110      -0.384584
      12.310000       0.800792       0.645260      -0.382677
      12.320000       0.773873       0.641668      -0.378785
      12.330000       0.746746       0.640452      -0.372828
      12.340000       0.718991       0.641562      -0.364936
      12.350000       0.689731       0.644838      -0.355405
      12.360000       0.657800       0.650065      -0.344640
      12.370000       0.622054       0.656991      -0.333084
      12.380000       0.581719       0.665318      -0.321177
      12.390000       0.536701       0.674692      -0.309333
      12.400000       0.487748       0.684696      -0.297929
      12.410000       0.436433       0.694859      -0.287297
      12.420000       0.384955       0.704679      -0.277703
      12.430000       0.335818       0.713643      -0.269325
      12.440000       0.291451       0.721273      -0.262244
      12.450000       0.253849       0.727167      -0.256466
      12.460000       0.224323       0.731059      -0.251946
      12.470000       0.203402       0.732871      -0.248611
      12.480000       0.190883       0.732726      -0.246359
      12.490000       0.185996       0.730925      -0.245051
      12.500000       0.187618       0.727869      -0.244509
      12.510000       0.194495       0.723982      -0.244520
      12.520000       0.205421       0.719631      -0.244860
      12.530000       0.219367       0.715096      -0.245318
      12.540000       0.235535       0.710547      -0.245731
      12.550000       0.253355       0.706051      -0.246016
      12.560000       0.272433       0.701579      -0.246187
      12.570000       0.292505       0.697023      -0.246341
      12.580000       0.313377       0.692222      -0.246613
      12.590000       0.334885       0.686997      -0.247112
      12.600000       0.356849       0.681183      -0.247859
      12.610000       0.379043       0.674656      -0.248757
      12.620000       0.401165       0.667362      -0.249598
      12.630000       0.422825       0.659335      -0.250106
      12.640000       0.443539       0.650691      -0.250002
      12.650000       0.462729       0.641605      -0.249060
      12.660000       0.479721       0.632264      -0.247147
      12.670000       0.493747       0.622818      -0.244250
      12.680000       0.503929       0.613350      -0.240465
      12.690000       0.509272       0.603854      -0.235975
      12.700000       0.508665       0.594235      -0.231006
      12.710000       0.500934       0.584317      -0.225770
      12.720000       0.484982       0.573880      -0.220408
      12.730000       0.460033       0.562709      -0.214970
      12.740000       0.425952       0.550634      -0.209412
      12.750000       0.383552       0.537543      -0.203631
      12.760000       0.334743       0.523379      -0.197507
      12.770000       0.282421       0.508127      -0.190939
      12.780000       0.230029       0.491836      -0.183860
      12.790000       0.180928       0.474650      -0.176236
      12.800000       0.137779       0.456842      -0.168059
      12.810000       0.102165       0.438822      -0.159323
      12.820000       0.074557       0.421107      -0.150013
      12.830000       0.054553       0.404260      -0.140109
      12.840000       0.041255       0.388816      -0.129602
      12.850000       0.033625       0.375212      -0.118525
      12.860000       0.030717       0.363750      -0.106983
      12.870000       0.031767       0.354584      -0.095155
      12.880000       0.036178       0.347746      -0.083276
      12.890000       0.043443       0.343184      -0.071594
      12.900000       0.053085       0.340788      -0.060322
      12.910000       0.064619       0.340406      -0.049607
      12.920000       0.077559       0.341838      -0.039522
      12.930000       0.091455       0.344833      -0.030087
      12.940000       0.105929       0.349099      -0.021299
      12.950000       0.120699       0.354317      -0.013162
      12.960000       0.135589       0.360151      -0.005694
      12.970000       0.150518       0.366258       0.001075
      12.980000       0.165477       0.372305       0.007127
      12.990000       0.180517       0.377996       0.012477
      13.000000       0.195731       0.383097       0.017206
      13.010000       0.211236       0.387461       0.021469
      13.020000       0.227158       0.391032       0.025494
      13.030000       0.243611       0.393827       0.029554
      13.040000       0.260671       0.395909       0.033920
      13.050000       0.278361       0.397346       0.038822
      13.060000       0.296634       0.398192       0.044408
      13.070000       0.315371       0.398463       0.050723
      13.080000       0.334383       0.398125       0.057699
      13.090000       0.353425       0.397098       0.065164
      13.100000       0.372219       0.395261       0.072856
      13.110000       0.390481       0.392495       0.080462
      13.120000       0.407958       0.388748       0.087661
      13.130000       0.424451       0.384120       0.094171
      13.140000       0.439817       0.378919       0.099779
      13.150000       0.453948       0.373673       0.104361
      13.160000       0.466732       0.369064       0.107862
      13.170000       0.478007       0.365808       0.110272
      13.180000       0.487525       0.364519       0.111593
      13.190000       0.494936       0.365596       0.111844
      13.200000       0.499791       0.369156       0.111078
      13.210000       0.501572       0.375034       0.109432
      13.220000       0.499724       0.382823       0.107152
      13.230000       0.493701       0.391950       0.104595
      13.240000       0.483047       0.401755       0.102184
      13.250000       0.467519       0.411569       0.100354
      13.260000       0.447253       0.420781       0.099489
      13.270000       0.422928       0.428890       0.099868
      13.280000       0.395828       0.435534       0.101638
      13.290000       0.367737       0.440510       0.104797
      13.300000       0.340654       0.443757       0.109200
      13.310000       0.316413       0.445328       0.114596
      13.320000       0.296367       0.445366       0.120665
      13.330000       0.281236       0.444077       0.127067
      13.340000       0.271147       0.441716       0.133492
      13.350000       0.265789       0.438571       0.139691
      13.360000       0.264608       0.434940       0.145503
      13.370000       0.266954       0.431093       0.150862
      13.380000       0.272175       0.427235       0.155795
      13.390000       0.279666       0.423474       0.160398
      13.400000       0.288884       0.419823       0.164793
      13.410000       0.299356       0.416216       0.169091
      13.420000       0.310657       0.412566       0.173353
      13.430000       0.322381       0.408812       0.177578
      13.440000       0.334107       0.404956       0.181708
      13.450000       0.345366       0.401073       0.185660
      13.460000       0.355654       0.397315       0.189350
      13.470000       0.364466       0.393890       0.192739
      13.480000       0.371381       0.391051       0.195849
      13.490000       0.376154       0.389055       0.198776
      13.500000       0.378801       0.388119       0.201678
      13.510000       0.379637       0.388364       0.204745
      13.520000       0.379247       0.389770       0.208158
      13.530000       0.378393       0.392184       0.212050
      13.540000       0.377876       0.395356       0.216488
      13.550000       0.378405       0.398998       0.221478
      13.560000       0.380498       0.402842       0.226990
      13.570000       0.384429       0.406678       0.232992
      13.580000       0.390225       0.410372       0.239473
      13.590000       0.397697       0.413867       0.246445
      13.600000       0.406501       0.417187       0.253926
      13.610000       0.416209       0.420433       0.261919
      13.620000       0.426387       0.423766       0.270387
      13.630000       0.436666       0.427386       0.279244
      13.640000       0.446784       0.431497       0.288353
      13.650000       0.456615       0.436257       0.297540
      13.660000       0.466164       0.441733       0.306608
      13.670000       0.475535       0.447854       0.315355
      13.680000       0.484894       0.454393       0.323587
      13.690000       0.494436       0.460980       0.331126
      13.700000       0.504352       0.467160       0.337814
      13.710000       0.514808       0.472479       0.343511
      13.720000       0.525916       0.476586       0.348103
      13.730000       0.537713       0.479307       0.351508
      13.740000       0.550146       0.480679       0.353686
      13.750000       0.563076       0.480919       0.354650
      13.760000       0.576295       0.480347       0.354484
      13.770000       0.589530       0.479292       0.353360
      13.780000       0.602448       0.478012       0.351550
      13.790000       0.614651       0.476656       0.349426
      13.800000       0.625670       0.475267       0.347425
      13.810000       0.634970       0.473803       0.345997
      13.820000       0.641974       0.472171       0.345525
      13.830000       0.646103       0.470259       0.346263
      13.840000       0.646826       0.467959       0.348306
      13.850000       0.643724       0.465209       0.351594
      13.860000       0.636550       0.462017       0.355953
      13.870000       0.625277       0.458483       0.361158
      13.880000       0.610138       0.454788       0.366984
      13.890000       0.591661       0.451162       0.373242
      13.900000       0.570683       0.447828       0.379787
      13.910000       0.548326       0.444955       0.386510
      13.920000       0.525904       0.442612       0.393312
      13.930000       0.504758       0.440752       0.400091
      13.940000       0.486058       0.439219       0.406730
      13.950000       0.470636       0.437800       0.413099
      13.960000       0.458897       0.436287       0.419068
      13.970000       0.450827       0.434540       0.424524
      13.980000       0.446078       0.432531       0.429384
      13.990000       0.444103       0.430340       0.433612
      14.000000       0.444311       0.428118       0.437218
      14.010000       0.446200       0.426034       0.440256
      14.020000       0.449444       0.424238       0.442808
      14.030000       0.453896       0.422840       0.444968
      14.040000       0.459538       0.421906       0.446831
      14.050000       0.466380       0.421451       0.448488
      14.060000       0.474370       0.421438       0.450028
      14.070000       0.483330       0.421765       0.451545
      14.080000       0.492938       0.422269       0.453141
      14.090000       0.502749       0.422735       0.454921
      14.100000       0.512243       0.422927       0.456973
      14.110000       0.520878       0.422638       0.459344
      14.120000       0.528156       0.421731       0.462026
      14.130000       0.533680       0.420165       0.464947
      14.140000       0.537204       0.417981       0.467986
      14.150000       0.538655       0.415274       0.470989
      14.160000       0.538123       0.412151       0.473799
      14.170000       0.535817       0.408718       0.476273
      14.180000       0.531995       0.405082       0.478308
      14.190000       0.526902       0.401371       0.479856
      14.200000       0.520743       0.397740       0.480931
      14.210000       0.513705       0.394366       0.481609
      14.220000       0.506015       0.391408       0.482015
      14.230000       0.498003       0.388981       0.482305
      14.240000       0.490134       0.387121       0.482635
      14.250000       0.482981       0.385787       0.483132
      14.260000       0.477137       0.384889       0.483877
      14.270000       0.473122       0.384319       0.484889
      14.280000       0.471304       0.383986       0.486124
      14.290000       0.471873       0.383821       0.487492
      14.300000       0.474855       0.383789       0.488880
      14.310000       0.480146       0.383880       0.490182
      14.320000       0.487550       0.384129       0.491337
      14.330000       0.496799       0.384617       0.492342
      14.340000       0.507557       0.385475       0.493258
      14.350000       0.519415       0.386858       0.494189
      14.360000       0.531880       0.388908       0.495259
      14.370000       0.544381       0.391724       0.496592
      14.380000       0.556282       0.395332       0.498301
      14.390000       0.566916       0.399682       0.500481
      14.400000       0.575627       0.404645       0.503196
      14.410000       0.581824       0.410026       0.506471
      14.420000       0.585043       0.415579       0.510276
      14.430000       0.585023       0.421042       0.514529
      14.440000       0.581770       0.426169       0.519105
      14.450000       0.575600       0.430771       0.523864
      14.460000       0.567112       0.434742       0.528673
      14.470000       0.557103       0.438071       0.533427
      14.480000       0.546413       0.440835       0.538059
      14.490000       0.535748       0.443171       0.542551
      14.500000       0.525541       0.445259       0.546924
      14.510000       0.515870       0.447286       0.551233
      14.520000       0.506479       0.449430       0.555542
      14.530000       0.496868       0.451825       0.559909
      14.540000       0.486430       0.454536       0.564355
      14.550000       0.474612       0.457541       0.568848
      14.560000       0.461047       0.460737       0.573296
      14.570000       0.445652       0.463969       0.577547
      14.580000       0.428667       0.467074       0.581408
      14.590000       0.410638       0.469916       0.584677
      14.600000       0.392362       0.472409       0.587185
      14.610000       0.374783       0.474500       0.588829
      14.620000       0.358866       0.476136       0.589592
      14.630000       0.345449       0.477232       0.589543
      14.640000       0.335109       0.477657       0.588816
      14.650000       0.328092       0.477254       0.587576
      14.660000       0.324304       0.475881       0.585989
      14.670000       0.323377       0.473458       0.584207
      14.680000       0.324762       0.470012       0.582363
      14.690000       0.327846       0.465699       0.580575
      14.700000       0.332048       0.460803       0.578946
      14.710000       0.336898       0.455705       0.577552
      14.720000       0.342076       0.450821       0.576422
      14.730000       0.347420       0.446524       0.575525
      14.740000       0.352900       0.443080       0.574776
      14.750000       0.358573       0.440613       0.574056
      14.760000       0.364524       0.439117       0.573237
      14.770000       0.370826       0.438509       0.572204
      14.780000       0.377516       0.438688       0.570875
      14.790000       0.384581       0.439587       0.569204
      14.800000       0.391949       0.441197       0.567180
      14.810000       0.399495       0.443548       0.564821
      14.820000       0.407035       0.446674       0.562148
      14.830000       0.414348       0.450564       0.559160
      14.840000       0.421207       0.455131       0.555812
      14.850000       0.427417       0.460197       0.552006
      14.860000       0.432843       0.465511       0.547620
      14.870000       0.437421       0.470780       0.542543
      14.880000       0.441153       0.475718       0.536725
      14.890000       0.444093       0.480094       0.530210
      14.900000       0.446328       0.483780       0.523134
      14.910000       0.447965       0.486773       0.515701
      14.920000       0.449114       0.489193       0.508149
      14.930000       0.449875       0.491249       0.500718
      14.940000       0.450341       0.493171       0.493640
      14.950000       0.450605       0.495154       0.487132
      14.960000       0.450785       0.497307       0.481399
      14.970000       0.451029       0.499646       0.476621
      14.980000       0.451498       0.502106       0.472927
      14.990000       0.452331       0.504574       0.470375
      15.000000       0.453608       0.506928       0.468922
      15.010000       0.455320       0.509077       0.468425
      15.020000       0.457381       0.510982       0.468658
      15.030000       0.459652       0.512666       0.469345
      15.040000       0.461994       0.514208       0.470215
      15.050000       0.464297       0.515719       0.471041
      15.060000       0.466506       0.517312       0.471679
      15.070000       0.468624       0.519069       0.472077
      15.080000       0.470706       0.521031       0.472265
      15.090000       0.472847       0.523198       0.472336
      15.100000       0.475174       0.525554       0.472419
      15.110000       0.477825       0.528096       0.472647
      15.120000       0.480922       0.530850       0.473144
      15.130000       0.484533       0.533879       0.474013
      15.140000       0.488645       0.537266       0.475337
      15.150000       0.493143       0.541090       0.477178
      15.160000       0.497826       0.545399       0.479578
      15.170000       0.502444       0.550192       0.482550
      15.180000       0.506763       0.555411       0.486073
      15.190000       0.510624       0.560947       0.490094
      15.200000       0.513982       0.566655       0.494535
      15.210000       0.516904       0.572366       0.499317
      15.220000       0.519510       0.577896       0.504379
      15.230000       0.521905       0.583051       0.509684
      15.240000       0.524103       0.587627       0.515223
      15.250000       0.525991       0.591425       0.520996
      15.260000       0.527335       0.594271       0.526998
      15.270000       0.527818       0.596029       0.533206
      15.280000       0.527097       0.596628       0.539567
      15.290000       0.524861       0.596064       0.546003
      15.300000       0.520872       0.594398       0.552417
      15.310000       0.515000       0.591735       0.558719
      15.320000       0.507220       0.588204       0.564843
      15.330000       0.497608       0.583938       0.570781
      15.340000       0.486322       0.579078       0.576592
      15.350000       0.473604       0.573775       0.582402
      15.360000       0.459787       0.568200       0.588372
      15.370000       0.445304       0.562542       0.594652
      15.380000       0.430679       0.556993       0.601342
      15.390000       0.416477       0.551735       0.608459
      15.400000       0.403234       0.546926       0.615938
      15.410000       0.391394       0.542702       0.623648
      15.420000       0.381269       0.539182       0.631422
      15.430000       0.373041       0.536469       0.639093
      15.440000       0.366778       0.534655       0.646520
      15.450000       0.362464       0.533818       0.653615
      15.460000       0.360018       0.534007       0.660352
      15.470000       0.359329       0.535227       0.666750
      15.480000       0.360276       0.537431       0.672859
      15.490000       0.362749       0.540508       0.678722
      15.500000       0.366653       0.544304       0.684344
      15.510000       0.371896       0.548630       0.689676
      15.520000       0.378370       0.553297       0.694606
      15.530000       0.385935       0.558139       0.698963
      15.540000       0.394412       0.563023       0.702537
      15.550000       0.403586       0.567862       0.705095
      15.560000       0.413215       0.572597       0.706400
      15.570000       0.423042       0.577184       0.706234
      15.580000       0.432803       0.581584       0.704415
      15.590000       0.442246       0.585757       0.700819
      15.600000       0.451143       0.589677       0.695397
      15.610000       0.459306       0.593340       0.688203
      15.620000       0.466603       0.596778       0.679410
      15.630000       0.472964       0.600059       0.669301
      15.640000       0.478386       0.603275       0.658236
      15.650000       0.482924       0.606521       0.646596
      15.660000       0.486681       0.609860       0.634722
      15.670000       0.489790       0.613303       0.622874
      15.680000       0.492390       0.616797       0.611238
      15.690000       0.494600       0.620232       0.599956
      15.700000       0.496482       0.623467       0.589183
      15.710000       0.498029       0.626359       0.579113
      15.720000       0.499168       0.628797       0.569981
      15.730000       0.499791       0.630719       0.562020
      15.740000       0.499804       0.632124       0.555389
      15.750000       0.499169       0.633065       0.550121
      15.760000       0.497931       0.633629       0.546082
      15.770000       0.496200       0.633919       0.542974
      15.780000       0.494123       0.634043       0.540374
      15.790000       0.491832       0.634113       0.537777
      15.800000       0.489407       0.634250       0.534660
      15.810000       0.486863       0.634587       0.530548
      15.820000       0.484171       0.635255       0.525067
      15.830000       0.481292       0.636363       0.517998
      15.840000       0.478214       0.637974       0.509290
      15.850000       0.474984       0.640109       0.499067
      15.860000       0.471715       0.642754       0.487589
      15.870000       0.468568       0.645881       0.475206
      15.880000       0.465724       0.649472       0.462292
      15.890000       0.463338       0.653520       0.449192
      15.900000       0.461507       0.658029       0.436193
      15.910000       0.460261       0.663001       0.423506
      15.920000       0.459571       0.668424       0.411275
      15.930000       0.459375       0.674271       0.399588
      15.940000       0.459608       0.680499       0.388473
      15.950000       0.460225       0.687049       0.377910
      15.960000       0.461204       0.693850       0.367836
      15.970000       0.462557       0.700823       0.358184
      15.980000       0.464329       0.707889       0.348920
      15.990000       0.466599       0.714979       0.340079
      16.000000       0.469469       0.722044       0.331774
      16.010000       0.473054       0.729052       0.324182
      16.020000       0.477460       0.735986       0.317507
      16.030000       0.482757       0.742827       0.311924
      16.040000       0.488965       0.749537       0.307547
      16.050000       0.496037       0.756048       0.304400
      16.060000       0.503849       0.762246       0.302417
      16.070000       0.512215       0.767975       0.301459
      16.080000       0.520894       0.773037       0.301332
      16.090000       0.529620       0.777218       0.301823
      16.100000       0.538133       0.780312       0.302732
      16.110000       0.546211       0.782175       0.303910
      16.120000       0.553688       0.782760       0.305279
      16.130000       0.560467       0.782145       0.306836
      16.140000       0.566517       0.780538       0.308634
      16.150000       0.571856       0.778239       0.310734
      16.160000       0.576541       0.775590       0.313174
      16.170000       0.580659       0.772895       0.315934
      16.180000       0.584328       0.770371       0.318933
      16.190000       0.587696       0.768118       0.322040
      16.200000       0.590934       0.766129       0.325089
      16.210000       0.594214       0.764328       0.327899
      16.220000       0.597675       0.762608       0.330295
      16.230000       0.601386       0.760871       0.332122
      16.240000       0.605314       0.759046       0.333259
      16.250000       0.609305       0.757093       0.333633
      16.260000       0.613095       0.755000       0.333225
      16.270000       0.616333       0.752770       0.332072
      16.280000       0.618639       0.750402       0.330259
      16.290000       0.619661       0.747894       0.327907
      16.300000       0.619135       0.745237       0.325150
      16.310000       0.616940       0.742434       0.322107
      16.320000       0.613122       0.739512       0.318872
      16.330000       0.607895       0.736512       0.315494
      16.340000       0.601604       0.733477       0.311992
      16.350000       0.594652       0.730417       0.308367
      16.360000       0.587418       0.727292       0.304622
      16.370000       0.580190       0.724013       0.300791
      16.380000       0.573132       0.720466       0.296955
      16.390000       0.566290       0.716562       0.293252
      16.400000       0.559632       0.712289       0.289877
      16.410000       0.553094       0.707730       0.287061
      16.420000       0.546623       0.703063       0.285045
      16.430000       0.540212       0.698514       0.284031
      16.440000       0.533907       0.694298       0.284144
      16.450000       0.527802       0.690567       0.285420
      16.460000       0.522022       0.687373       0.287798
      16.470000       0.516684       0.684669       0.291155
      16.480000       0.511875       0.682330       0.295333
      16.490000       0.507632       0.680190       0.300174
      16.500000       0.503942       0.678074       0.305541
      16.510000       0.500757       0.675813       0.311330
      16.520000       0.498029       0.673258       0.317461
      16.530000       0.495744       0.670282       0.323872
      16.540000       0.493938       0.666794       0.330499
      16.550000       0.492685       0.662757       0.337279
      16.560000       0.492059       0.658208       0.344137
      16.570000       0.492088       0.653260       0.350997
      16.580000       0.492720       0.648078       0.357788
      16.590000       0.493833       0.642836       0.364450
      16.600000       0.495261       0.637668       0.370933
      16.610000       0.496831       0.632631       0.377206
      16.620000       0.498398       0.627694       0.383244
      16.630000       0.499853       0.622746       0.389036
      16.640000       0.501124       0.617616       0.394578
      16.650000       0.502155       0.612090       0.399877
      16.660000       0.502902       0.605951       0.404947
      16.670000       0.503326       0.599019       0.409808
      16.680000       0.503400       0.591209       0.414483
      16.690000       0.503115       0.582583       0.418997
      16.700000       0.502489       0.573363       0.423370
      16.710000       0.501577       0.563924       0.427622
      16.720000       0.500473       0.554728       0.431767
      16.730000       0.499310       0.546248       0.435814
      16.740000       0.498243       0.538875       0.439767
      16.750000       0.497427       0.532856       0.443630
      16.760000       0.496986       0.528247       0.447406
      16.770000       0.496997       0.524909       0.451103
      16.780000       0.497488       0.522540       0.454731
      16.790000       0.498446       0.520726       0.458303
      16.800000       0.499837       0.519019       0.461833
      16.810000       0.501603       0.517008       0.465336
      16.820000       0.503672       0.514372       0.468826
      16.830000       0.505950       0.510919       0.472319
      16.840000       0.508326       0.506588       0.475823
      16.850000       0.510696       0.501443       0.479339
      16.860000       0.512986       0.495648       0.482852
      16.870000       0.515179       0.489444       0.486338
      16.880000       0.517330       0.483111       0.489759
      16.890000       0.519555       0.476921       0.493072
      16.900000       0.522000       0.471104       0.496232
      16.910000       0.524800       0.465821       0.499193
      16.920000       0.528039       0.461157       0.501916
      16.930000       0.531726       0.457125       0.504374
      16.940000       0.535796       0.453681       0.506552
      16.950000       0.540124       0.450741       0.508461
      16.960000       0.544564       0.448192       0.510132
      16.970000       0.548986       0.445915       0.511621
      16.980000       0.553303       0.443791       0.513001
      16.990000       0.557488       0.441723       0.514348
      17.000000       0.561574       0.439634       0.515724
      17.010000       0.565638       0.437477       0.517171
      17.020000       0.569775       0.435233       0.518699
      17.030000       0.574082       0.432908       0.520295
      17.040000       0.578640       0.430534       0.521939
      17.050000       0.583499       0.428157       0.523614
      17.060000       0.588674       0.425832       0.525321
      17.070000       0.594138       0.423621       0.527080
      17.080000       0.599818       0.421586       0.528924
      17.090000       0.605590       0.419786       0.530889
      17.100000       0.611284       0.418274       0.533001
      17.110000       0.616681       0.417091       0.535275
      17.120000       0.621528       0.416260       0.537706
      17.130000       0.625560       0.415779       0.540273
      17.140000       0.628525       0.415612       0.542937
      17.150000       0.630222       0.415687       0.545648
      17.160000       0.630526       0.415897       0.548344
      17.170000       0.629417       0.416121       0.550957
      17.180000       0.626983       0.416253       0.553417
      17.190000       0.623418       0.416234       0.555664
      17.200000       0.618983       0.416077       0.557651
      17.210000       0.613966       0.415863       0.559356
      17.220000       0.608630       0.415718       0.560780
      17.230000       0.603181       0.415759       0.561949
      17.240000       0.597749       0.416064       0.562900
      17.250000       0.592394       0.416647       0.563671
      17.260000       0.587111       0.417465       0.564288
      17.270000       0.581852       0.418447       0.564765
      17.280000       0.576540       0.419513       0.565110
      17.290000       0.571096       0.420585       0.565330
      17.300000       0.565460       0.421593       0.565443
      17.310000       0.559627       0.422468       0.565482
      17.320000       0.553661       0.423147       0.565487
      17.330000       0.547701       0.423590       0.565497
      17.340000       0.541948       0.423804       0.565538
      17.350000       0.536624       0.423849       0.565619
      17.360000       0.531933       0.423835       0.565733
      17.370000       0.528030       0.423898       0.565865
      17.380000       0.524997       0.424167       0.565999
      17.390000       0.522844       0.424738       0.566127
      17.400000       0.521508       0.425653       0.566253
      17.410000       0.520865       0.426899       0.566386
      17.420000       0.520745       0.428408       0.566549
      17.430000       0.520959       0.430075       0.566773
      17.440000       0.521334       0.431777       0.567092
      17.450000       0.521740       0.433392       0.567544
      17.460000       0.522117       0.434820       0.568161
      17.470000       0.522474       0.435996       0.568961
      17.480000       0.522881       0.436895       0.569943
      17.490000       0.523442       0.437517       0.571090
      17.500000       0.524272       0.437865       0.572367
      17.510000       0.525466       0.437922       0.573734
      17.520000       0.527091       0.437640       0.575152
      17.530000       0.529174       0.436939       0.576588
      17.540000       0.531703       0.435734       0.578018
      17.550000       0.534626       0.433987       0.579424
      17.560000       0.537861       0.431745       0.580791
      17.570000       0.541297       0.429174       0.582110
      17.580000       0.544803       0.426543       0.583378
      17.590000       0.548245       0.424171       0.584605
      17.600000       0.551502       0.422355       0.585812
      17.610000       0.554482       0.421312       0.587025
      17.620000       0.557128       0.421150       0.588269
      17.630000       0.559417       0.421870       0.589559
      17.640000       0.561347       0.423390       0.590896
      17.650000       0.562923       0.425571       0.592266
      17.660000       0.564143       0.428239       0.593648
      17.670000       0.564989       0.431203       0.595016
      17.680000       0.565422       0.434272       0.596344
      17.690000       0.565393       0.437263       0.597609
      17.700000       0.564844       0.440015       0.598792
      17.710000       0.563740       0.442397       0.599881
      17.720000       0.562083       0.444310       0.600871
      17.730000       0.559936       0.445701       0.601767
      17.740000       0.557432       0.446556       0.602586
      17.750000       0.554764       0.446900       0.603351
      17.760000       0.552155       0.446782       0.604097
      17.770000       0.549814       0.446259       0.604857
      17.780000       0.547905       0.445389       0.605665
      17.790000       0.546523       0.444234       0.606544
      17.800000       0.545702       0.442875       0.607512
      17.810000       0.545436       0.441413       0.608577
      17.820000       0.545710       0.439968       0.609742
      17.830000       0.546520       0.438659       0.611006
      17.840000       0.547868       0.437578       0.612367
      17.850000       0.549751       0.436775       0.613824
      17.860000       0.552131       0.436253       0.615369
      17.870000       0.554916       0.435989       0.616993
      17.880000       0.557949       0.435953       0.618681
      17.890000       0.561016       0.436125       0.620406
      17.900000       0.563867       0.436504       0.622139
      17.910000       0.566249       0.437096       0.623844
      17.920000       0.567945       0.437900       0.625487
      17.930000       0.568810       0.438889       0.627042
      17.940000       0.568786       0.440004       0.628491
      17.950000       0.567902       0.441156       0.629829
      17.960000       0.566263       0.442240       0.631068
      17.970000       0.564026       0.443157       0.632240
      17.980000       0.561385       0.443844       0.633392
      17.990000       0.558557       0.444286       0.634580
      18.000000       0.555767       0.444524       0.635866
      18.010000       0.553232       0.444647       0.637298
      18.020000       0.551144       0.444761       0.638908
      18.030000       0.549656       0.444964       0.640705
      18.040000       0.548870       0.445320       0.642679
      18.050000       0.548836       0.445850       0.644801
      18.060000       0.549543       0.446533       0.647034
      18.070000       0.550920       0.447320       0.649335
      18.080000       0.552840       0.448158       0.651659
      18.090000       0.555131       0.449006       0.653965
      18.100000       0.557600       0.449856       0.656215
      18.110000       0.560061       0.450737       0.658381
      18.120000       0.562360       0.451702       0.660442
      18.130000       0.564392       0.452819       0.662386
      18.140000       0.566103       0.454144       0.664211
      18.150000       0.567483       0.455710       0.665923
      18.160000       0.568538       0.457517       0.667538
      18.170000       0.569276       0.459532       0.669081
      18.180000       0.569702       0.461695       0.670586
      18.190000       0.569816       0.463927       0.672093
      18.200000       0.569637       0.466143       0.673642
      18.210000       0.569212       0.468266       0.675266
      18.220000       0.568618       0.470241       0.676983
      18.230000       0.567946       0.472049       0.678793
      18.240000       0.567275       0.473708       0.680673
      18.250000       0.566647       0.475270       0.682583
      18.260000       0.566056       0.476811       0.684472
      18.270000       0.565450       0.478412       0.686284
      18.280000       0.564746       0.480136       0.687970
      18.290000       0.563862       0.482022       0.689495
      18.300000       0.562732       0.484070       0.690840
      18.310000       0.561328       0.486246       0.692002
      18.320000       0.559656       0.488492       0.692997
      18.330000       0.557752       0.490739       0.693848
      18.340000       0.555671       0.492920       0.694588
      18.350000       0.553484       0.494982       0.695255
      18.360000       0.551278       0.496899       0.695890
      18.370000       0.549152       0.498668       0.696538
      18.380000       0.547212       0.500308       0.697247
      18.390000       0.545545       0.501856       0.698059
      18.400000       0.544192       0.503351       0.699012
      18.410000       0.543128       0.504832       0.700136
      18.420000       0.542252       0.506333       0.701444
      18.430000       0.541396       0.507874       0.702942
      18.440000       0.540353       0.509467       0.704618
      18.450000       0.538920       0.511115       0.706453
      18.460000       0.536951       0.512810       0.708413
      18.470000       0.534395       0.514543       0.710456
      18.480000       0.531330       0.516298       0.712533
      18.490000       0.527947       0.518065       0.714597
      18.500000       0.524516       0.519831       0.716604
      18.510000       0.521316       0.521585       0.718523
      18.520000       0.518568       0.523312       0.720335
      18.530000       0.516394       0.524994       0.722038
      18.540000       0.514809       0.526604       0.723646
      18.550000       0.513739       0.528114       0.725180
      18.560000       0.513061       0.529493       0.726665
      18.570000       0.512641       0.530713       0.728124
      18.580000       0.512355       0.531756       0.729568
      18.590000       0.512106       0.532617       0.730996
      18.600000       0.511821       0.533306       0.732400
      18.610000       0.511446       0.533850       0.733769
      18.620000       0.510940       0.534292       0.735093
      18.630000       0.510259       0.534679       0.736370
      18.640000       0.509350       0.535065       0.737609
      18.650000       0.508146       0.535499       0.738828
      18.660000       0.506576       0.536024       0.740054
      18.670000       0.504578       0.536677       0.741319
      18.680000       0.502113       0.537480       0.742650
      18.690000       0.499182       0.538448       0.744063
      18.700000       0.495829       0.539578       0.745565
      18.710000       0.492145       0.540857       0.747147
      18.720000       0.488264       0.542262       0.748794
      18.730000       0.484358       0.543763       0.750483
      18.740000       0.480619       0.545326       0.752195
      18.750000       0.477227       0.546916       0.753906
      18.760000       0.474332       0.548493       0.755593
      18.770000       0.472024       0.550017       0.757233
      18.780000       0.470334       0.551445       0.758803
      18.790000       0.469241       0.552738       0.760285
      18.800000       0.468686       0.553859       0.761671
      18.810000       0.468591       0.554780       0.762965
      18.820000       0.468879       0.555484       0.764185
      18.830000       0.469487       0.555964       0.765358
      18.840000       0.470369       0.556226       0.766518
      18.850000       0.471496       0.556284       0.767700
      18.860000       0.472847       0.556160       0.768933
      18.870000       0.474406       0.555879       0.770241
      18.880000       0.476151       0.555475       0.771641
      18.890000       0.478050       0.554983       0.773139
      18.900000       0.480056       0.554445       0.774740
      18.910000       0.482113       0.553904       0.776442
      18.920000       0.484159       0.553405       0.778240
      18.930000       0.486141       0.552990       0.780126
      18.940000       0.488015       0.552699       0.782085
      18.950000       0.489766       0.552571       0.784094
      18.960000       0.491404       0.552634       0.786125
      18.970000       0.492972       0.552909       0.788143
      18.980000       0.494534       0.553406       0.790112
      18.990000       0.496167       0.554121       0.792001
      19.000000       0.497946       0.555040       0.793783
      19.010000       0.499931       0.556136       0.795438
      19.020000       0.502154       0.557376       0.796952
      19.030000       0.504618       0.558724       0.798316
      19.040000       0.507301       0.560140       0.799532
      19.050000       0.510166       0.561586       0.800610
      19.060000       0.513168       0.563030       0.801576
      19.070000       0.516269       0.564449       0.802469
      19.080000       0.519442       0.565835       0.803334
      19.090000       0.522679       0.567185       0.804222
      19.100000       0.525976       0.568504       0.805175
      19.110000       0.529334       0.569791       0.806227
      19.120000       0.532740       0.571037       0.807401
      19.130000       0.536170       0.572224       0.808712
      19.140000       0.539582       0.573324       0.810166
      19.150000       0.542920       0.574311       0.811766
      19.160000       0.546120       0.575160       0.813505
      19.170000       0.549113       0.575861       0.815376
      19.180000       0.551838       0.576419       0.817365
      19.190000       0.554240       0.576857       0.819460
      19.200000       0.556280       0.577217       0.821643
      19.210000       0.557932       0.577549       0.823891
      19.220000       0.559182       0.577901       0.826173
      19.230000       0.560029       0.578314       0.828450
      19.240000       0.560487       0.578814       0.830675
      19.250000       0.560597       0.579414       0.832804
      19.260000       0.560430       0.580113       0.834801
      19.270000       0.560090       0.580907       0.836643
      19.280000       0.559700       0.581790       0.838323
      19.290000       0.559376       0.582760       0.839855
      19.300000       0.559206       0.583824       0.841264
      19.310000       0.559227       0.584991       0.842591
      19.320000       0.559418       0.586274       0.843880
      19.330000       0.559700       0.587680       0.845174
      19.340000       0.559951       0.589197       0.846512
      19.350000       0.560011       0.590799       0.847923
      19.360000       0.559710       0.592435       0.849428
      19.370000       0.558881       0.594047       0.851040
      19.380000       0.557385       0.595575       0.852768
      19.390000       0.555131       0.596973       0.854617
      19.400000       0.552090       0.598221       0.856589
      19.410000       0.548308       0.599321       0.858678
      19.420000       0.543904       0.600298       0.860876
      19.430000       0.539069       0.601187       0.863165
      19.440000       0.534048       0.602020       0.865523
      19.450000       0.529112       0.602816       0.867919
      19.460000       0.524530       0.603575       0.870321
      19.470000       0.520532       0.604276       0.872697
      19.480000       0.517291       0.604887       0.875018
      19.490000       0.514903       0.605371       0.877261
      19.500000       0.513386       0.605700       0.879405
      19.510000       0.512697       0.605861       0.881429
      19.520000       0.512745       0.605862       0.883306
      19.530000       0.513416       0.605731       0.885000
      19.540000       0.514597       0.605509       0.886468
      19.550000       0.516177       0.605248       0.887668
      19.560000       0.518061       0.605000       0.888565
      19.570000       0.520162       0.604813       0.889146
      19.580000       0.522401       0.604722       0.889426
      19.590000       0.524700       0.604752       0.889443
      19.600000       0.526995       0.604911       0.889258
      19.610000       0.529234       0.605193       0.888935
      19.620000       0.531384       0.605573       0.888533
      19.630000       0.533435       0.606013       0.888086
      19.640000       0.535394       0.606456       0.887595
      19.650000       0.537279       0.606841       0.887032
      19.660000       0.539107       0.607101       0.886348
      19.670000       0.540891       0.607175       0.885498
      19.680000       0.542639       0.607015       0.884462
      19.690000       0.544354       0.606588       0.883256
      19.700000       0.546047       0.605888       0.881936
      19.710000       0.547737       0.604935       0.880584
      19.720000       0.549457       0.603783       0.879287
      19.730000       0.551253       0.602509       0.878109
      19.740000       0.553172       0.601211       0.877080
      19.750000       0.555259       0.599991       0.876195
      19.760000       0.557540       0.598942       0.875428
      19.770000       0.560021       0.598133       0.874751
      19.780000       0.562686       0.597604       0.874155
      19.790000       0.565503       0.597359       0.873658
      19.800000       0.568425       0.597374       0.873307
      19.810000       0.571401       0.597604       0.873168
      19.820000       0.574372       0.597991       0.873322
      19.830000       0.577277       0.598480       0.873848
      19.840000       0.580053       0.599018       0.874809
      19.850000       0.582642       0.599569       0.876237
      19.860000       0.584992       0.600116       0.878128
      19.870000       0.587059       0.600658       0.880450
      19.880000       0.588809       0.601206       0.883146
      19.890000       0.590210       0.601776       0.886147
      19.900000       0.591237       0.602380       0.889373
      19.910000       0.591862       0.603023       0.892733
      19.920000       0.592067       0.603702       0.896121
      19.930000       0.591850       0.604406       0.899416
      19.940000       0.591230       0.605121       0.902476
      19.950000       0.590256       0.605828       0.905153
      19.960000       0.589009       0.606509       0.907295
      19.970000       0.587596       0.607149       0.908763
      19.980000       0.586139       0.607737       0.909441
      19.990000       0.584759       0.608271       0.909243
      20.000000       0.583563       0.608760       0.908119
