  # energy grid [eV]     epsi_x  epsi_y  epsi_z
       0.000000            NaN            NaN            NaN
       0.010000       0.000176       0.000038       0.000161
       0.020000       0.000351       0.000076       0.000323
       0.030000       0.000527       0.000113       0.000484
       0.040000       0.000703       0.000151       0.000647
       0.050000       0.000879       0.000189       0.000810
       0.060000       0.001055       0.000227       0.000974
       0.070000       0.001231       0.000265       0.001140
       0.080000       0.001407       0.000303       0.001307
       0.090000       0.001584       0.000341       0.001475
       0.100000       0.001760       0.000378       0.001646
       0.110000       0.001937       0.000416       0.001819
       0.120000       0.002114       0.000454       0.001994
       0.130000       0.002291       0.000492       0.002172
       0.140000       0.002468       0.000530       0.002354
       0.150000       0.002645       0.000568       0.002538
       0.160000       0.002823       0.000606       0.002727
       0.170000       0.003001       0.000644       0.002920
       0.180000       0.003179       0.000682       0.003117
       0.190000       0.003358       0.000720       0.003319
       0.200000       0.003537       0.000758       0.003527
       0.210000       0.003716       0.000796       0.003741
       0.220000       0.003895       0.000834       0.003962
       0.230000       0.004075       0.000872       0.004190
       0.240000       0.004256       0.000910       0.004427
       0.250000       0.004436       0.000948       0.004672
       0.260000       0.004618       0.000987       0.004927
       0.270000       0.004799       0.001025       0.005192
       0.280000       0.004981       0.001063       0.005469
       0.290000       0.005164       0.001101       0.005760
       0.300000       0.005347       0.001140       0.006065
       0.310000       0.005530       0.001178       0.006386
       0.320000       0.005714       0.001216       0.006724
       0.330000       0.005899       0.001255       0.007083
       0.340000       0.006084       0.001293       0.007463
       0.350000       0.006270       0.001332       0.007868
       0.360000       0.006456       0.001370       0.008300
       0.370000       0.006643       0.001409       0.008762
       0.380000       0.006831       0.001448       0.009259
       0.390000       0.007020       0.001486       0.009795
       0.400000       0.007209       0.001525       0.010374
       0.410000       0.007398       0.001564       0.011002
       0.420000       0.007589       0.001603       0.011687
       0.430000       0.007780       0.001641       0.012435
       0.440000       0.007972       0.001680       0.013254
       0.450000       0.008165       0.001719       0.014156
       0.460000       0.008359       0.001758       0.015151
       0.470000       0.008554       0.001797       0.016252
       0.480000       0.008749       0.001837       0.017474
       0.490000       0.008945       0.001876       0.018834
       0.500000       0.009143       0.001915       0.020349
       0.510000       0.009341       0.001954       0.022038
       0.520000       0.009540       0.001994       0.023920
       0.530000       0.009740       0.002033       0.026013
       0.540000       0.009942       0.002073       0.028330
       0.550000       0.010144       0.002112       0.030878
       0.560000       0.010347       0.002152       0.033647
       0.570000       0.010552       0.002191       0.036607
       0.580000       0.010757       0.002231       0.039696
       0.590000       0.010964       0.002271       0.042814
       0.600000       0.011172       0.002311       0.045814
       0.610000       0.011381       0.002351       0.048513
       0.620000       0.011591       0.002391       0.050701
       0.630000       0.011803       0.002431       0.052183
       0.640000       0.012016       0.002471       0.052816
       0.650000       0.012230       0.002512       0.052547
       0.660000       0.012446       0.002552       0.051426
       0.670000       0.012663       0.002592       0.049595
       0.680000       0.012882       0.002633       0.047248
       0.690000       0.013101       0.002674       0.044593
       0.700000       0.013323       0.002714       0.041818
       0.710000       0.013546       0.002755       0.039070
       0.720000       0.013770       0.002796       0.036452
       0.730000       0.013997       0.002837       0.034027
       0.740000       0.014224       0.002878       0.031826
       0.750000       0.014454       0.002919       0.029860
       0.760000       0.014685       0.002961       0.028123
       0.770000       0.014918       0.003002       0.026604
       0.780000       0.015153       0.003043       0.025285
       0.790000       0.015390       0.003085       0.024147
       0.800000       0.015629       0.003127       0.023172
       0.810000       0.015869       0.003169       0.022344
       0.820000       0.016112       0.003210       0.021646
       0.830000       0.016356       0.003252       0.021065
       0.840000       0.016603       0.003295       0.020589
       0.850000       0.016852       0.003337       0.020207
       0.860000       0.017103       0.003379       0.019910
       0.870000       0.017356       0.003422       0.019692
       0.880000       0.017611       0.003464       0.019545
       0.890000       0.017869       0.003507       0.019466
       0.900000       0.018129       0.003550       0.019449
       0.910000       0.018392       0.003593       0.019493
       0.920000       0.018657       0.003636       0.019594
       0.930000       0.018925       0.003679       0.019751
       0.940000       0.019196       0.003722       0.019964
       0.950000       0.019469       0.003766       0.020233
       0.960000       0.019745       0.003809       0.020558
       0.970000       0.020023       0.003853       0.020941
       0.980000       0.020305       0.003897       0.021385
       0.990000       0.020589       0.003941       0.021893
       1.000000       0.020877       0.003985       0.022468
       1.010000       0.021168       0.004030       0.023116
       1.020000       0.021462       0.004074       0.023842
       1.030000       0.021759       0.004119       0.024654
       1.040000       0.022059       0.004164       0.025560
       1.050000       0.022363       0.004208       0.026570
       1.060000       0.022671       0.004254       0.027696
       1.070000       0.022982       0.004299       0.028952
       1.080000       0.023297       0.004344       0.030353
       1.090000       0.023615       0.004390       0.031918
       1.100000       0.023938       0.004436       0.033668
       1.110000       0.024264       0.004482       0.035628
       1.120000       0.024595       0.004528       0.037825
       1.130000       0.024930       0.004574       0.040290
       1.140000       0.025269       0.004620       0.043057
       1.150000       0.025613       0.004667       0.046163
       1.160000       0.025961       0.004714       0.049645
       1.170000       0.026313       0.004761       0.053538
       1.180000       0.026671       0.004808       0.057870
       1.190000       0.027034       0.004856       0.062657
       1.200000       0.027401       0.004903       0.067888
       1.210000       0.027774       0.004951       0.073515
       1.220000       0.028152       0.004999       0.079435
       1.230000       0.028536       0.005047       0.085476
       1.240000       0.028926       0.005096       0.091384
       1.250000       0.029321       0.005145       0.096831
       1.260000       0.029722       0.005193       0.101436
       1.270000       0.030130       0.005243       0.104825
       1.280000       0.030543       0.005292       0.106691
       1.290000       0.030964       0.005342       0.106866
       1.300000       0.031391       0.005391       0.105357
       1.310000       0.031825       0.005441       0.102342
       1.320000       0.032266       0.005492       0.098132
       1.330000       0.032715       0.005542       0.093103
       1.340000       0.033171       0.005593       0.087628
       1.350000       0.033635       0.005644       0.082031
       1.360000       0.034107       0.005696       0.076562
       1.370000       0.034588       0.005747       0.071392
       1.380000       0.035077       0.005799       0.066621
       1.390000       0.035575       0.005852       0.062299
       1.400000       0.036082       0.005904       0.058435
       1.410000       0.036599       0.005957       0.055016
       1.420000       0.037125       0.006010       0.052014
       1.430000       0.037662       0.006063       0.049396
       1.440000       0.038209       0.006117       0.047125
       1.450000       0.038768       0.006171       0.045166
       1.460000       0.039337       0.006226       0.043487
       1.470000       0.039918       0.006280       0.042057
       1.480000       0.040511       0.006335       0.040850
       1.490000       0.041117       0.006391       0.039844
       1.500000       0.041735       0.006447       0.039018
       1.510000       0.042367       0.006503       0.038357
       1.520000       0.043013       0.006559       0.037847
       1.530000       0.043673       0.006616       0.037475
       1.540000       0.044349       0.006673       0.037232
       1.550000       0.045040       0.006731       0.037112
       1.560000       0.045747       0.006789       0.037109
       1.570000       0.046471       0.006848       0.037218
       1.580000       0.047213       0.006907       0.037438
       1.590000       0.047973       0.006966       0.037768
       1.600000       0.048752       0.007026       0.038209
       1.610000       0.049551       0.007086       0.038762
       1.620000       0.050371       0.007147       0.039433
       1.630000       0.051212       0.007208       0.040226
       1.640000       0.052076       0.007270       0.041148
       1.650000       0.052963       0.007332       0.042210
       1.660000       0.053875       0.007395       0.043421
       1.670000       0.054812       0.007459       0.044795
       1.680000       0.055777       0.007523       0.046349
       1.690000       0.056769       0.007587       0.048101
       1.700000       0.057791       0.007652       0.050074
       1.710000       0.058844       0.007718       0.052293
       1.720000       0.059930       0.007785       0.054790
       1.730000       0.061049       0.007852       0.057598
       1.740000       0.062204       0.007920       0.060757
       1.750000       0.063397       0.007988       0.064310
       1.760000       0.064630       0.008057       0.068307
       1.770000       0.065904       0.008127       0.072797
       1.780000       0.067222       0.008198       0.077834
       1.790000       0.068587       0.008270       0.083465
       1.800000       0.070000       0.008342       0.089728
       1.810000       0.071466       0.008416       0.096641
       1.820000       0.072986       0.008490       0.104186
       1.830000       0.074564       0.008565       0.112292
       1.840000       0.076203       0.008642       0.120818
       1.850000       0.077908       0.008719       0.129531
       1.860000       0.079682       0.008797       0.138105
       1.870000       0.081530       0.008877       0.146127
       1.880000       0.083456       0.008958       0.153140
       1.890000       0.085466       0.009040       0.158698
       1.900000       0.087565       0.009123       0.162431
       1.910000       0.089759       0.009208       0.164109
       1.920000       0.092056       0.009294       0.163664
       1.930000       0.094462       0.009382       0.161198
       1.940000       0.096984       0.009471       0.156950
       1.950000       0.099633       0.009562       0.151258
       1.960000       0.102418       0.009655       0.144513
       1.970000       0.105349       0.009749       0.137112
       1.980000       0.108437       0.009846       0.129430
       1.990000       0.111696       0.009945       0.121783
       2.000000       0.115139       0.010046       0.114422
       2.010000       0.118783       0.010149       0.107520
       2.020000       0.122645       0.010255       0.101187
       2.030000       0.126744       0.010363       0.095473
       2.040000       0.131103       0.010475       0.090390
       2.050000       0.135744       0.010590       0.085920
       2.060000       0.140695       0.010707       0.082027
       2.070000       0.145988       0.010829       0.078668
       2.080000       0.151655       0.010954       0.075798
       2.090000       0.157736       0.011084       0.073372
       2.100000       0.164275       0.011218       0.071346
       2.110000       0.171320       0.011356       0.069684
       2.120000       0.178930       0.011500       0.068352
       2.130000       0.187167       0.011650       0.067322
       2.140000       0.196105       0.011806       0.066569
       2.150000       0.205827       0.011969       0.066075
       2.160000       0.216430       0.012139       0.065822
       2.170000       0.228022       0.012317       0.065800
       2.180000       0.240729       0.012504       0.065999
       2.190000       0.254696       0.012701       0.066414
       2.200000       0.270085       0.012908       0.067042
       2.210000       0.287082       0.013128       0.067885
       2.220000       0.305900       0.013361       0.068945
       2.230000       0.326773       0.013608       0.070230
       2.240000       0.349962       0.013873       0.071749
       2.250000       0.375745       0.014155       0.073516
       2.260000       0.404414       0.014459       0.075547
       2.270000       0.436250       0.014785       0.077862
       2.280000       0.471499       0.015138       0.080488
       2.290000       0.510325       0.015521       0.083453
       2.300000       0.552739       0.015937       0.086793
       2.310000       0.598515       0.016390       0.090548
       2.320000       0.647078       0.016888       0.094767
       2.330000       0.697408       0.017434       0.099502
       2.340000       0.747980       0.018036       0.104815
       2.350000       0.796816       0.018701       0.110773
       2.360000       0.841696       0.019437       0.117448
       2.370000       0.880557       0.020254       0.124914
       2.380000       0.911987       0.021161       0.133243
       2.390000       0.935652       0.022167       0.142497
       2.400000       0.952460       0.023280       0.152713
       2.410000       0.964382       0.024506       0.163891
       2.420000       0.973987       0.025846       0.175974
       2.430000       0.983891       0.027292       0.188821
       2.440000       0.996295       0.028827       0.202196
       2.450000       1.012678       0.030416       0.215762
       2.460000       1.033681       0.032008       0.229091
       2.470000       1.059114       0.033534       0.241710
       2.480000       1.088081       0.034911       0.253154
       2.490000       1.119167       0.036057       0.263026
       2.500000       1.150659       0.036900       0.271046
       2.510000       1.180702       0.037400       0.277068
       2.520000       1.207347       0.037548       0.281083
       2.530000       1.228489       0.037369       0.283204
       2.540000       1.241822       0.036906       0.283641
       2.550000       1.244973       0.036209       0.282683
       2.560000       1.235907       0.035324       0.280670
       2.570000       1.213496       0.034296       0.277960
       2.580000       1.177988       0.033167       0.274887
       2.590000       1.131115       0.031977       0.271729
       2.600000       1.075765       0.030770       0.268674
       2.610000       1.015369       0.029583       0.265820
       2.620000       0.953266       0.028450       0.263192
       2.630000       0.892259       0.027394       0.260789
       2.640000       0.834413       0.026431       0.258630
       2.650000       0.781060       0.025567       0.256784
       2.660000       0.732922       0.024804       0.255375
       2.670000       0.690270       0.024138       0.254550
       2.680000       0.653073       0.023565       0.254431
       2.690000       0.621123       0.023075       0.255078
       2.700000       0.594124       0.022664       0.256463
       2.710000       0.571751       0.022322       0.258483
       2.720000       0.553690       0.022045       0.260994
       2.730000       0.539659       0.021825       0.263858
       2.740000       0.529423       0.021658       0.266980
       2.750000       0.522798       0.021539       0.270316
       2.760000       0.519657       0.021464       0.273859
       2.770000       0.519928       0.021431       0.277602
       2.780000       0.523594       0.021438       0.281507
       2.790000       0.530688       0.021482       0.285500
       2.800000       0.541295       0.021562       0.289484
       2.810000       0.555540       0.021679       0.293365
       2.820000       0.573578       0.021831       0.297068
       2.830000       0.595577       0.022021       0.300546
       2.840000       0.621690       0.022248       0.303755
       2.850000       0.652012       0.022515       0.306630
       2.860000       0.686515       0.022825       0.309082
       2.870000       0.724973       0.023179       0.311016
       2.880000       0.766866       0.023583       0.312374
       2.890000       0.811289       0.024041       0.313188
       2.900000       0.856916       0.024557       0.313612
       2.910000       0.902039       0.025139       0.313925
       2.920000       0.944778       0.025791       0.314495
       2.930000       0.983416       0.026522       0.315717
       2.940000       1.016830       0.027338       0.317946
       2.950000       1.044822       0.028243       0.321446
       2.960000       1.068217       0.029242       0.326357
       2.970000       1.088637       0.030333       0.332691
       2.980000       1.108050       0.031509       0.340341
       2.990000       1.128259       0.032755       0.349092
       3.000000       1.150490       0.034042       0.358629
       3.010000       1.175189       0.035333       0.368541
       3.020000       1.202029       0.036578       0.378330
       3.030000       1.230096       0.037722       0.387451
       3.040000       1.258189       0.038711       0.395362
       3.050000       1.285078       0.039500       0.401598
       3.060000       1.309633       0.040061       0.405822
       3.070000       1.330737       0.040377       0.407848
       3.080000       1.347079       0.040449       0.407627
       3.090000       1.356967       0.040285       0.405213
       3.100000       1.358364       0.039906       0.400721
       3.110000       1.349204       0.039340       0.394292
       3.120000       1.327950       0.038621       0.386091
       3.130000       1.294155       0.037793       0.376305
       3.140000       1.248780       0.036897       0.365160
       3.150000       1.194096       0.035978       0.352932
       3.160000       1.133214       0.035072       0.339945
       3.170000       1.069466       0.034211       0.326561
       3.180000       1.005863       0.033418       0.313154
       3.190000       0.944778       0.032705       0.300081
       3.200000       0.887851       0.032080       0.287650
       3.210000       0.836057       0.031544       0.276105
       3.220000       0.789849       0.031096       0.265616
       3.230000       0.749316       0.030729       0.256268
       3.240000       0.714311       0.030439       0.248073
       3.250000       0.684563       0.030220       0.240977
       3.260000       0.659746       0.030066       0.234880
       3.270000       0.639530       0.029972       0.229669
       3.280000       0.623607       0.029932       0.225248
       3.290000       0.611712       0.029943       0.221563
       3.300000       0.603628       0.030002       0.218605
       3.310000       0.599195       0.030105       0.216401
       3.320000       0.598308       0.030251       0.214986
       3.330000       0.600921       0.030437       0.214386
       3.340000       0.607039       0.030664       0.214596
       3.350000       0.616723       0.030931       0.215581
       3.360000       0.630084       0.031238       0.217290
       3.370000       0.647276       0.031587       0.219677
       3.380000       0.668490       0.031977       0.222720
       3.390000       0.693935       0.032412       0.226438
       3.400000       0.723814       0.032893       0.230883
       3.410000       0.758287       0.033426       0.236127
       3.420000       0.797412       0.034012       0.242237
       3.430000       0.841082       0.034657       0.249269
       3.440000       0.888933       0.035368       0.257255
       3.450000       0.940275       0.036149       0.266212
       3.460000       0.994053       0.037009       0.276143
       3.470000       1.048906       0.037955       0.287029
       3.480000       1.103344       0.038997       0.298808
       3.490000       1.156056       0.040142       0.311350
       3.500000       1.206269       0.041398       0.324433
       3.510000       1.254002       0.042770       0.337734
       3.520000       1.300084       0.044262       0.350833
       3.530000       1.345880       0.045868       0.363242
       3.540000       1.392815       0.047576       0.374455
       3.550000       1.441863       0.049359       0.384009
       3.560000       1.493168       0.051180       0.391542
       3.570000       1.545909       0.052985       0.396837
       3.580000       1.598438       0.054714       0.399826
       3.590000       1.648667       0.056309       0.400574
       3.600000       1.694565       0.057722       0.399248
       3.610000       1.734564       0.058929       0.396079
       3.620000       1.767659       0.059933       0.391328
       3.630000       1.793174       0.060757       0.385267
       3.640000       1.810316       0.061437       0.378161
       3.650000       1.817853       0.062010       0.370258
       3.660000       1.814149       0.062507       0.361787
       3.670000       1.797634       0.062951       0.352957
       3.680000       1.767513       0.063358       0.343955
       3.690000       1.724370       0.063745       0.334949
       3.700000       1.670353       0.064126       0.326085
       3.710000       1.608833       0.064520       0.317493
       3.720000       1.543725       0.064950       0.309279
       3.730000       1.478738       0.065444       0.301527
       3.740000       1.416811       0.066033       0.294299
       3.750000       1.359828       0.066742       0.287628
       3.760000       1.308576       0.067594       0.281527
       3.770000       1.262901       0.068600       0.275992
       3.780000       1.221972       0.069762       0.271017
       3.790000       1.184638       0.071082       0.266613
       3.800000       1.149797       0.072564       0.262821
       3.810000       1.116721       0.074221       0.259718
       3.820000       1.085223       0.076085       0.257411
       3.830000       1.055663       0.078200       0.256015
       3.840000       1.028780       0.080619       0.255630
       3.850000       1.005483       0.083401       0.256330
       3.860000       0.986653       0.086597       0.258151
       3.870000       0.973031       0.090251       0.261104
       3.880000       0.965169       0.094384       0.265191
       3.890000       0.963440       0.098994       0.270426
       3.900000       0.968059       0.104035       0.276848
       3.910000       0.979098       0.109416       0.284525
       3.920000       0.996487       0.114980       0.293540
       3.930000       1.019989       0.120506       0.303972
       3.940000       1.049157       0.125718       0.315865
       3.950000       1.083289       0.130314       0.329213
       3.960000       1.121406       0.134014       0.343936
       3.970000       1.162267       0.136619       0.359865
       3.980000       1.204450       0.138044       0.376717
       3.990000       1.246479       0.138336       0.394076
       4.000000       1.286976       0.137643       0.411398
       4.010000       1.324804       0.136176       0.428032
       4.020000       1.359196       0.134161       0.443294
       4.030000       1.389894       0.131814       0.456552
       4.040000       1.417291       0.129329       0.467313
       4.050000       1.442530       0.126882       0.475282
       4.060000       1.467442       0.124627       0.480373
       4.070000       1.494319       0.122694       0.482695
       4.080000       1.525546       0.121183       0.482491
       4.090000       1.563202       0.120154       0.480089
       4.100000       1.608741       0.119622       0.475842
       4.110000       1.662758       0.119555       0.470095
       4.120000       1.724878       0.119880       0.463164
       4.130000       1.793749       0.120486       0.455325
       4.140000       1.867163       0.121249       0.446817
       4.150000       1.942311       0.122048       0.437844
       4.160000       2.016136       0.122795       0.428584
       4.170000       2.085682       0.123450       0.419190
       4.180000       2.148324       0.124024       0.409801
       4.190000       2.201809       0.124574       0.400545
       4.200000       2.244202       0.125173       0.391540
       4.210000       2.273846       0.125893       0.382896
       4.220000       2.289458       0.126786       0.374721
       4.230000       2.290289       0.127873       0.367121
       4.240000       2.276289       0.129153       0.360199
       4.250000       2.248197       0.130611       0.354057
       4.260000       2.207553       0.132240       0.348802
       4.270000       2.156628       0.134048       0.344545
       4.280000       2.098234       0.136069       0.341407
       4.290000       2.035397       0.138357       0.339526
       4.300000       1.970942       0.140969       0.339052
       4.310000       1.907136       0.143939       0.340148
       4.320000       1.845487       0.147254       0.342979
       4.330000       1.786759       0.150837       0.347702
       4.340000       1.731154       0.154534       0.354450
       4.350000       1.678571       0.158117       0.363322
       4.360000       1.628866       0.161318       0.374371
       4.370000       1.582051       0.163869       0.387583
       4.380000       1.538419       0.165565       0.402867
       4.390000       1.498580       0.166317       0.420033
       4.400000       1.463396       0.166178       0.438779
       4.410000       1.433826       0.165333       0.458685
       4.420000       1.410727       0.164051       0.479221
       4.430000       1.394686       0.162628       0.499774
       4.440000       1.385902       0.161340       0.519692
       4.450000       1.384152       0.160404       0.538350
       4.460000       1.388834       0.159979       0.555210
       4.470000       1.399066       0.160162       0.569871
       4.480000       1.413818       0.161011       0.582088
       4.490000       1.432014       0.162556       0.591773
       4.500000       1.452586       0.164810       0.598973
       4.510000       1.474444       0.167767       0.603843
       4.520000       1.496443       0.171402       0.606610
       4.530000       1.517422       0.175652       0.607540
       4.540000       1.536355       0.180417       0.606903
       4.550000       1.552601       0.185555       0.604943
       4.560000       1.566120       0.190904       0.601870
       4.570000       1.577582       0.196306       0.597853
       4.580000       1.588312       0.201638       0.593030
       4.590000       1.600097       0.206840       0.587516
       4.600000       1.614905       0.211901       0.581404
       4.610000       1.634559       0.216837       0.574773
       4.620000       1.660416       0.221636       0.567690
       4.630000       1.693075       0.226223       0.560221
       4.640000       1.732167       0.230449       0.552452
       4.650000       1.776234       0.234111       0.544506
       4.660000       1.822746       0.237018       0.536563
       4.670000       1.868278       0.239051       0.528871
       4.680000       1.908878       0.240219       0.521743
       4.690000       1.940617       0.240666       0.515547
       4.700000       1.960245       0.240645       0.510681
       4.710000       1.965834       0.240474       0.507547
       4.720000       1.957218       0.240491       0.506524
       4.730000       1.936071       0.241019       0.507941
       4.740000       1.905569       0.242347       0.512061
       4.750000       1.869733       0.244724       0.519064
       4.760000       1.832650       0.248344       0.529028
       4.770000       1.797815       0.253345       0.541918
       4.780000       1.767730       0.259803       0.557563
       4.790000       1.743778       0.267719       0.575636
       4.800000       1.726338       0.277003       0.595652
       4.810000       1.715034       0.287460       0.616978
       4.820000       1.709040       0.298769       0.638887
       4.830000       1.707352       0.310478       0.660627
       4.840000       1.708995       0.322028       0.681518
       4.850000       1.713155       0.332814       0.701019
       4.860000       1.719285       0.342294       0.718774
       4.870000       1.727193       0.350120       0.734619
       4.880000       1.737088       0.356234       0.748552
       4.890000       1.749529       0.360900       0.760699
       4.900000       1.765260       0.364650       0.771263
       4.910000       1.784978       0.368155       0.780489
       4.920000       1.809104       0.372090       0.788629
       4.930000       1.837616       0.377017       0.795914
       4.940000       1.869969       0.383314       0.802546
       4.950000       1.905088       0.391145       0.808684
       4.960000       1.941437       0.400460       0.814453
       4.970000       1.977141       0.411012       0.819953
       4.980000       2.010193       0.422399       0.825289
       4.990000       2.038749       0.434138       0.830599
       5.000000       2.061511       0.445753       0.836086
       5.010000       2.078136       0.456890       0.842047
       5.020000       2.089511       0.467410       0.848888
       5.030000       2.097753       0.477417       0.857121
       5.040000       2.105878       0.487191       0.867345
       5.050000       2.117256       0.497061       0.880204
       5.060000       2.135045       0.507238       0.896322
       5.070000       2.161764       0.517697       0.916239
       5.080000       2.199068       0.528124       0.940345
       5.090000       2.247718       0.537955       0.968834
       5.100000       2.307650       0.546485       1.001684
       5.110000       2.378099       0.553000       1.038659
       5.120000       2.457690       0.556904       1.079350
       5.130000       2.544488       0.557790       1.123241
       5.140000       2.636021       0.555484       1.169795
       5.150000       2.729352       0.550072       1.218552
       5.160000       2.821281       0.541911       1.269211
       5.170000       2.908739       0.531610       1.321674
       5.180000       2.989316       0.519958       1.376062
       5.190000       3.061788       0.507790       1.432705
       5.200000       3.126400       0.495860       1.492098
       5.210000       3.184756       0.484737       1.554849
       5.220000       3.239324       0.474766       1.621591
       5.230000       3.292752       0.466098       1.692871
       5.240000       3.347252       0.458757       1.769019
       5.250000       3.404218       0.452727       1.850006
       5.260000       3.464137       0.448023       1.935307
       5.270000       3.526691       0.444716       2.023792
       5.280000       3.590956       0.442927       2.113681
       5.290000       3.655601       0.442784       2.202599
       5.300000       3.719045       0.444370       2.287785
       5.310000       3.779588       0.447688       2.366448
       5.320000       3.835515       0.452636       2.436195
       5.330000       3.885205       0.459014       2.495421
       5.340000       3.927223       0.466558       2.543479
       5.350000       3.960384       0.474991       2.580610
       5.360000       3.983775       0.484080       2.607687
       5.370000       3.996760       0.493682       2.625946
       5.380000       3.999038       0.503768       2.636812
       5.390000       3.990794       0.514412       2.641786
       5.400000       3.972918       0.525787       2.642319
       5.410000       3.947167       0.538142       2.639594
       5.420000       3.916153       0.551796       2.634300
       5.430000       3.883067       0.567112       2.626515
       5.440000       3.851166       0.584463       2.615817
       5.450000       3.823161       0.604190       2.601623
       5.460000       3.800683       0.626571       2.583611
       5.470000       3.783977       0.651783       2.562067
       5.480000       3.771930       0.679884       2.537989
       5.490000       3.762417       0.710813       2.512947
       5.500000       3.752917       0.744415       2.488767
       5.510000       3.741247       0.780491       2.467180
       5.520000       3.726233       0.818877       2.449481
       5.530000       3.708111       0.859493       2.436248
       5.540000       3.688481       0.902337       2.427172
       5.550000       3.669836       0.947398       2.421040
       5.560000       3.654839       0.994524       2.415950
       5.570000       3.645659       1.043282       2.409706
       5.580000       3.643595       1.092885       2.400306
       5.590000       3.649064       1.142207       2.386325
       5.600000       3.661783       1.189886       2.367100
       5.610000       3.680940       1.234503       2.342683
       5.620000       3.705189       1.274805       2.313650
       5.630000       3.732544       1.309921       2.280899
       5.640000       3.760338       1.339494       2.245477
       5.650000       3.785410       1.363676       2.208438
       5.660000       3.804494       1.382960       2.170681
       5.670000       3.814644       1.397922       2.132734
       5.680000       3.813537       1.408989       2.094554
       5.690000       3.799616       1.416331       2.055420
       5.700000       3.772169       1.419937       2.014035
       5.710000       3.731415       1.419790       1.968862
       5.720000       3.678584       1.416089       1.918602
       5.730000       3.615888       1.409386       1.862679
       5.740000       3.546300       1.400616       1.801528
       5.750000       3.473136       1.390997       1.736611
       5.760000       3.399595       1.381868       1.670148
       5.770000       3.328394       1.374522       1.604693
       5.780000       3.261625       1.370110       1.542705
       5.790000       3.200842       1.369601       1.486241
       5.800000       3.147298       1.373780       1.436812
       5.810000       3.102188       1.383236       1.395375
       5.820000       3.066766       1.398308       1.362439
       5.830000       3.042291       1.419011       1.338188
       5.840000       3.029876       1.444972       1.322615
       5.850000       3.030325       1.475443       1.315610
       5.860000       3.044043       1.509393       1.316995
       5.870000       3.070997       1.545668       1.326509
       5.880000       3.110684       1.583139       1.343752
       5.890000       3.162044       1.620795       1.368114
       5.900000       3.223287       1.657760       1.398726
       5.910000       3.291712       1.693256       1.434461
       5.920000       3.363582       1.726555       1.474006
       5.930000       3.434173       1.756892       1.516032
       5.940000       3.498051       1.783320       1.559413
       5.950000       3.549590       1.804535       1.603451
       5.960000       3.583693       1.818790       1.648015
       5.970000       3.596600       1.824025       1.693532
       5.980000       3.586561       1.818280       1.740827
       5.990000       3.554189       1.800272       1.790873
       6.000000       3.502328       1.769921       1.844544
       6.010000       3.435495       1.728586       1.902435
       6.020000       3.358998       1.678924       1.964801
       6.030000       3.278007       1.624423       2.031564
       6.040000       3.196797       1.568801       2.102364
       6.050000       3.118373       1.515447       2.176610
       6.060000       3.044463       1.467044       2.253511
       6.070000       2.975786       1.425377       2.332100
       6.080000       2.912365       1.391321       2.411241
       6.090000       2.853785       1.364949       2.489621
       6.100000       2.799358       1.345704       2.565779
       6.110000       2.748309       1.332630       2.638158
       6.120000       2.700032       1.324599       2.705231
       6.130000       2.654384       1.320522       2.765632
       6.140000       2.611915       1.319494       2.818285
       6.150000       2.573897       1.320865       2.862495
       6.160000       2.542157       1.324244       2.897982
       6.170000       2.518786       1.329472       2.924875
       6.180000       2.505843       1.336562       2.943660
       6.190000       2.505140       1.345607       2.955095
       6.200000       2.518098       1.356675       2.960109
       6.210000       2.545654       1.369729       2.959650
       6.220000       2.588153       1.384631       2.954502
       6.230000       2.645214       1.401239       2.945132
       6.240000       2.715576       1.419512       2.931662
       6.250000       2.796975       1.439567       2.913982
       6.260000       2.886129       1.461594       2.892000
       6.270000       2.978888       1.485691       2.865882
       6.280000       3.070572       1.511702       2.836175
       6.290000       3.156433       1.539156       2.803759
       6.300000       3.232121       1.567323       2.769661
       6.310000       3.294034       1.595363       2.734841
       6.320000       3.339533       1.622476       2.700046
       6.330000       3.367077       1.647985       2.665791
       6.340000       3.376363       1.671321       2.632424
       6.350000       3.368402       1.691937       2.600217
       6.360000       3.345414       1.709194       2.569400
       6.370000       3.310433       1.722275       2.540144
       6.380000       3.266689       1.730173       2.512488
       6.390000       3.216972       1.731820       2.486276
       6.400000       3.163251       1.726362       2.461106
       6.410000       3.106726       1.713524       2.436296
       6.420000       3.048239       1.693920       2.410912
       6.430000       2.988854       1.669144       2.383878
       6.440000       2.930282       1.641585       2.354191
       6.450000       2.874972       1.614029       2.321208
       6.460000       2.825813       1.589184       2.284895
       6.470000       2.785630       1.569269       2.245919
       6.480000       2.756672       1.555719       2.205544
       6.490000       2.740252       1.549060       2.165332
       6.500000       2.736610       1.548902       2.126741
       6.510000       2.744970       1.554073       2.090744
       6.520000       2.763741       1.562853       2.057587
       6.530000       2.790807       1.573303       2.026756
       6.540000       2.823831       1.583640       1.997182
       6.550000       2.860591       1.592547       1.967615
       6.560000       2.899298       1.599352       1.937065
       6.570000       2.938911       1.603993       1.905175
       6.580000       2.979337       1.606797       1.872388
       6.590000       3.021442       1.608202       1.839860
       6.600000       3.066807       1.608529       1.809155
       6.610000       3.117295       1.607902       1.781812
       6.620000       3.174610       1.606332       1.758950
       6.630000       3.240001       1.603892       1.740985
       6.640000       3.314193       1.600909       1.727533
       6.650000       3.397485       1.598079       1.717477
       6.660000       3.489917       1.596437       1.709221
       6.670000       3.591339       1.597187       1.701057
       6.680000       3.701331       1.601456       1.691589
       6.690000       3.818911       1.610038       1.680078
       6.700000       3.942125       1.623220       1.666610
       6.710000       4.067680       1.640722       1.652035
       6.720000       4.190814       1.661747       1.637726
       6.730000       4.305566       1.685127       1.625232
       6.740000       4.405480       1.709525       1.615940
       6.750000       4.484565       1.733669       1.610799
       6.760000       4.538228       1.756596       1.610142
       6.770000       4.563886       1.777841       1.613581
       6.780000       4.561119       1.797529       1.619982
       6.790000       4.531396       1.816298       1.627513
       6.800000       4.477589       1.835047       1.633820
       6.810000       4.403441       1.854596       1.636371
       6.820000       4.313179       1.875357       1.632920
       6.830000       4.211289       1.897101       1.621984
       6.840000       4.102378       1.918872       1.603159
       6.850000       3.990959       1.939002       1.577172
       6.860000       3.881097       1.955256       1.545661
       6.870000       3.776017       1.965101       1.510802
       6.880000       3.677886       1.966131       1.474914
       6.890000       3.587902       1.956580       1.440159
       6.900000       3.506658       1.935804       1.408336
       6.910000       3.434624       1.904546       1.380767
       6.920000       3.372552       1.864845       1.358238
       6.930000       3.321669       1.819623       1.340959
       6.940000       3.283599       1.772091       1.328576
       6.950000       3.260045       1.725174       1.320209
       6.960000       3.252345       1.681113       1.314544
       6.970000       3.261007       1.641323       1.309985
       6.980000       3.285327       1.606488       1.304875
       6.990000       3.323181       1.576808       1.297752
       7.000000       3.371028       1.552288       1.287589
       7.010000       3.424200       1.532954       1.273962
       7.020000       3.477502       1.518936       1.257078
       7.030000       3.526033       1.510447       1.237676
       7.040000       3.566022       1.507707       1.216812
       7.050000       3.595389       1.510896       1.195611
       7.060000       3.613838       1.520146       1.175069
       7.070000       3.622485       1.535550       1.155940
       7.080000       3.623266       1.557136       1.138758
       7.090000       3.618392       1.584785       1.123934
       7.100000       3.610053       1.618116       1.111891
       7.110000       3.600403       1.656384       1.103141
       7.120000       3.591724       1.698468       1.098281
       7.130000       3.586577       1.742954       1.097895
       7.140000       3.587781       1.788286       1.102405
       7.150000       3.598178       1.832951       1.111909
       7.160000       3.620221       1.875629       1.126071
       7.170000       3.655520       1.915318       1.144059
       7.180000       3.704448       1.951405       1.164583
       7.190000       3.765908       1.983674       1.186010
       7.200000       3.837313       2.012234       1.206553
       7.210000       3.914824       2.037364       1.224484
       7.220000       3.993806       2.059306       1.238313
       7.230000       4.069433       2.078084       1.246898
       7.240000       4.137271       2.093398       1.249473
       7.250000       4.193730       2.104672       1.245655
       7.260000       4.236362       2.111246       1.235456
       7.270000       4.264057       2.112655       1.219312
       7.280000       4.277132       2.108864       1.198081
       7.290000       4.277254       2.100371       1.172964
       7.300000       4.267087       2.088178       1.145367
       7.310000       4.249699       2.073657       1.116733
       7.320000       4.227889       2.058364       1.088409
       7.330000       4.203663       2.043804       1.061575
       7.340000       4.178044       2.031198       1.037213
       7.350000       4.151238       2.021289       1.016090
       7.360000       4.123058       2.014247       0.998739
       7.370000       4.093426       2.009699       0.985434
       7.380000       4.062747       2.006848       0.976192
       7.390000       4.031997       2.004625       0.970783
       7.400000       4.002523       2.001836       0.968758
       7.410000       3.975682       1.997281       0.969464
       7.420000       3.952499       1.989878       0.972072
       7.430000       3.933499       1.978815       0.975599
       7.440000       3.918720       1.963705       0.978990
       7.450000       3.907815       1.944707       0.981223
       7.460000       3.900177       1.922571       0.981461
       7.470000       3.895062       1.898585       0.979172
       7.480000       3.891751       1.874436       0.974194
       7.490000       3.889737       1.852026       0.966710
       7.500000       3.888913       1.833246       0.957151
       7.510000       3.889691       1.819743       0.946076
       7.520000       3.893013       1.812702       0.934077
       7.530000       3.900220       1.812671       0.921740
       7.540000       3.912787       1.819472       0.909644
       7.550000       3.931956       1.832215       0.898368
       7.560000       3.958349       1.849437       0.888463
       7.570000       3.991664       1.869358       0.880398
       7.580000       4.030581       1.890223       0.874486
       7.590000       4.072954       1.910671       0.870844
       7.600000       4.116256       1.930009       0.869411
       7.610000       4.158139       1.948308       0.870021
       7.620000       4.196890       1.966268       0.872494
       7.630000       4.231628       1.984899       0.876715
       7.640000       4.262214       2.005166       0.882651
       7.650000       4.288980       2.027715       0.890317
       7.660000       4.312410       2.052778       0.899717
       7.670000       4.332910       2.080217       0.910774
       7.680000       4.350691       2.109656       0.923285
       7.690000       4.365767       2.140607       0.936894
       7.700000       4.378026       2.172583       0.951083
       7.710000       4.387315       2.205169       0.965187
       7.720000       4.393469       2.238039       0.978435
       7.730000       4.396266       2.270930       0.990028
       7.740000       4.395351       2.303565       0.999239
       7.750000       4.390170       2.335601       1.005520
       7.760000       4.379974       2.366610       1.008591
       7.770000       4.363856       2.396123       1.008472
       7.780000       4.340844       2.423673       1.005453
       7.790000       4.310000       2.448802       1.000000
       7.800000       4.270537       2.471008       0.992649
       7.810000       4.221935       2.489652       0.983932
       7.820000       4.164068       2.503887       0.974342
       7.830000       4.097358       2.512675       0.964333
       7.840000       4.022924       2.514926       0.954333
       7.850000       3.942638       2.509758       0.944729
       7.860000       3.858984       2.496785       0.935835
       7.870000       3.774684       2.476342       0.927855
       7.880000       3.692203       2.449564       0.920838
       7.890000       3.613311       2.418343       0.914670
       7.900000       3.538871       2.385167       0.909089
       7.910000       3.468913       2.352896       0.903736
       7.920000       3.402931       2.324481       0.898231
       7.930000       3.340298       2.302642       0.892251
       7.940000       3.280688       2.289541       0.885597
       7.950000       3.224360       2.286496       0.878220
       7.960000       3.172201       2.293801       0.870218
       7.970000       3.125513       2.310682       0.861799
       7.980000       3.085626       2.335418       0.853232
       7.990000       3.053528       2.365641       0.844794
       8.000000       3.029661       2.398783       0.836747
       8.010000       3.013940       2.432582       0.829346
       8.020000       3.005989       2.465503       0.822860
       8.030000       3.005454       2.496948       0.817592
       8.040000       3.012268       2.527162       0.813845
       8.050000       3.026731       2.556888       0.811875
       8.060000       3.049360       2.586904       0.811827
       8.070000       3.080547       2.617631       0.813709
       8.080000       3.120186       2.648937       0.817416
       8.090000       3.167410       2.680185       0.822790
       8.100000       3.220518       2.710436       0.829681
       8.110000       3.277103       2.738729       0.837983
       8.120000       3.334288       2.764335       0.847628
       8.130000       3.388990       2.786946       0.858547
       8.140000       3.438150       2.806771       0.870624
       8.150000       3.478938       2.824512       0.883655
       8.160000       3.508963       2.841210       0.897338
       8.170000       3.526459       2.857991       0.911296
       8.180000       3.530410       2.875796       0.925132
       8.190000       3.520585       2.895161       0.938495
       8.200000       3.497481       2.916107       0.951128
       8.210000       3.462224       2.938133       0.962861
       8.220000       3.416463       2.960304       0.973565
       8.230000       3.362247       2.981406       0.983078
       8.240000       3.301903       3.000134       0.991166
       8.250000       3.237900       3.015242       0.997522
       8.260000       3.172702       3.025684       1.001833
       8.270000       3.108620       3.030750       1.003882
       8.280000       3.047677       3.030256       1.003625
       8.290000       2.991513       3.024758       1.001244
       8.300000       2.941341       3.015691       0.997129
       8.310000       2.897999       3.005319       0.991838
       8.320000       2.862076       2.996507       0.986014
       8.330000       2.834077       2.992341       0.980299
       8.340000       2.814527       2.995722       0.975235
       8.350000       2.803967       3.008996       0.971182
       8.360000       2.802807       3.033689       0.968281
       8.370000       2.811116       3.070372       0.966468
       8.380000       2.828419       3.118663       0.965543
       8.390000       2.853564       3.177336       0.965254
       8.400000       2.884663       3.244470       0.965355
       8.410000       2.919137       3.317603       0.965626
       8.420000       2.953872       3.393884       0.965866
       8.430000       2.985525       3.470246       0.965880
       8.440000       3.010949       3.543644       0.965465
       8.450000       3.027663       3.611333       0.964429
       8.460000       3.034215       3.671168       0.962602
       8.470000       3.030354       3.721847       0.959873
       8.480000       3.016966       3.763023       0.956231
       8.490000       2.995832       3.795211       0.951824
       8.500000       2.969276       3.819452       0.946993
       8.510000       2.939790       3.836804       0.942274
       8.520000       2.909675       3.847823       0.938339
       8.530000       2.880739       3.852230       0.935886
       8.540000       2.854111       3.848933       0.935524
       8.550000       2.830196       3.836420       0.937679
       8.560000       2.808792       3.813383       0.942565
       8.570000       2.789319       3.779296       0.950213
       8.580000       2.771097       3.734705       0.960521
       8.590000       2.753603       3.681184       0.973303
       8.600000       2.736658       3.621049       0.988275
       8.610000       2.720480       3.557034       1.005021
       8.620000       2.705597       3.492005       1.022954
       8.630000       2.692640       3.428738       1.041327
       8.640000       2.682108       3.369721       1.059329
       8.650000       2.674198       3.316973       1.076223
       8.660000       2.668754       3.271885       1.091479
       8.670000       2.665314       3.235136       1.104845
       8.680000       2.663254       3.206697       1.116345
       8.690000       2.661960       3.185942       1.126208
       8.700000       2.660986       3.171843       1.134797
       8.710000       2.660112       3.163164       1.142543
       8.720000       2.659257       3.158595       1.149913
       8.730000       2.658306       3.156789       1.157384
       8.740000       2.656940       3.156358       1.165415
       8.750000       2.654603       3.155874       1.174410
       8.760000       2.650621       3.153925       1.184660
       8.770000       2.644389       3.149230       1.196293
       8.780000       2.635502       3.140784       1.209239
       8.790000       2.623768       3.127966       1.223235
       8.800000       2.609077       3.110582       1.237858
       8.810000       2.591251       3.088799       1.252586
       8.820000       2.569953       3.062991       1.266855
       8.830000       2.544737       3.033543       1.280123
       8.840000       2.515226       3.000698       1.291920
       8.850000       2.481368       2.964521       1.301892
       8.860000       2.443670       2.925037       1.309849
       8.870000       2.403314       2.882517       1.315805
       8.880000       2.362067       2.837761       1.320007
       8.890000       2.321995       2.792214       1.322944
       8.900000       2.285051       2.747801       1.325318
       8.910000       2.252685       2.706543       1.327957
       8.920000       2.225581       2.670128       1.331703
       8.930000       2.203585       2.639587       1.337269
       8.940000       2.185827       2.615191       1.345116
       8.950000       2.171024       2.596568       1.355372
       8.960000       2.157879       2.582975       1.367807
       8.970000       2.145475       2.573616       1.381904
       8.980000       2.133517       2.567848       1.397006
       8.990000       2.122339       2.565203       1.412514
       9.000000       2.112670       2.565209       1.428060
       9.010000       2.105262       2.567128       1.443585
       9.020000       2.100522       2.569762       1.459276
       9.030000       2.098250       2.571460       1.475405
       9.040000       2.097558       2.570345       1.492135
       9.050000       2.096950       2.564690       1.509386
       9.060000       2.094550       2.553283       1.526815
       9.070000       2.088423       2.535655       1.543920
       9.080000       2.076950       2.512152       1.560216
       9.090000       2.059198       2.483886       1.575423
       9.100000       2.035156       2.452616       1.589584
       9.110000       2.005763       2.420578       1.603078
       9.120000       1.972696       2.390216       1.616536
       9.130000       1.938012       2.363814       1.630716
       9.140000       1.903769       2.343100       1.646381
       9.150000       1.871717       2.328898       1.664211
       9.160000       1.843115       2.320944       1.684745
       9.170000       1.818643       2.317908       1.708334
       9.180000       1.798424       2.317605       1.735097
       9.190000       1.782138       2.317382       1.764902
       9.200000       1.769207       2.314596       1.797387
       9.210000       1.759006       2.307131       1.832028
       9.220000       1.751029       2.293822       1.868248
       9.230000       1.744948       2.274689       1.905543
       9.240000       1.740562       2.250876       1.943592
       9.250000       1.737661       2.224316       1.982310
       9.260000       1.735917       2.197211       2.021816
       9.270000       1.734859       2.171522       2.062323
       9.280000       1.733949       2.148596       2.103994
       9.290000       1.732718       2.129027       2.146857
       9.300000       1.730878       2.112693       2.190805
       9.310000       1.728318       2.098912       2.235703
       9.320000       1.725011       2.086638       2.281524
       9.330000       1.720879       2.074673       2.328469
       9.340000       1.715731       2.061871       2.377010
       9.350000       1.709305       2.047336       2.427841
       9.360000       1.701407       2.030592       2.481765
       9.370000       1.692056       2.011677       2.539546
       9.380000       1.681570       1.991143       2.601794
       9.390000       1.670560       1.969943       2.668910
       9.400000       1.659850       1.949272       2.741123
       9.410000       1.650376       1.930430       2.818567
       9.420000       1.643085       1.914732       2.901386
       9.430000       1.638824       1.903464       2.989791
       9.440000       1.638212       1.897823       3.084053
       9.450000       1.641506       1.898787       3.184453
       9.460000       1.648485       1.906935       3.291218
       9.470000       1.658433       1.922252       3.404504
       9.480000       1.670243       1.943999       3.524428
       9.490000       1.682655       1.970721       3.651169
       9.500000       1.694589       2.000395       3.785091
       9.510000       1.705434       2.030707       3.926865
       9.520000       1.715196       2.059372       4.077522
       9.530000       1.724413       2.084397       4.238387
       9.540000       1.733890       2.104246       4.410855
       9.550000       1.744362       2.117891       4.596057
       9.560000       1.756234       2.124761       4.794532
       9.570000       1.769468       2.124651       5.005989
       9.580000       1.783637       2.117631       5.229215
       9.590000       1.798068       2.104008       5.462087
       9.600000       1.812007       2.084362       5.701600
       9.610000       1.824732       2.059627       5.943816
       9.620000       1.835612       2.031139       6.183729
       9.630000       1.844123       2.000551       6.415171
       9.640000       1.849870       1.969610       6.630946
       9.650000       1.852601       1.939860       6.823357
       9.660000       1.852225       1.912406       6.985109
       9.670000       1.848814       1.887819       7.110372
       9.680000       1.842560       1.866194       7.195622
       9.690000       1.833698       1.847282       7.239964
       9.700000       1.822404       1.830655       7.244888
       9.710000       1.808716       1.815842       7.213652
       9.720000       1.792511       1.802449       7.150607
       9.730000       1.773551       1.790246       7.060678
       9.740000       1.751600       1.779206       6.949071
       9.750000       1.726592       1.769478       6.821085
       9.760000       1.698775       1.761273       6.681910
       9.770000       1.668772       1.754712       6.536310
       9.780000       1.637499       1.749674       6.388217
       9.790000       1.605968       1.745682       6.240383
       9.800000       1.575048       1.741880       6.094255
       9.810000       1.545311       1.737101       5.950192
       9.820000       1.516992       1.730078       5.807963
       9.830000       1.490072       1.719730       5.667327
       9.840000       1.464412       1.705487       5.528435
       9.850000       1.439867       1.687499       5.391889
       9.860000       1.416356       1.666633       5.258476
       9.870000       1.393859       1.644218       5.128708
       9.880000       1.372388       1.621640       5.002383
       9.890000       1.351933       1.599941       4.878349
       9.900000       1.332448       1.579587       4.754586
       9.910000       1.313834       1.560477       4.628619
       9.920000       1.295954       1.542159       4.498162
       9.930000       1.278636       1.524141       4.361788
       9.940000       1.261683       1.506167       4.219407
       9.950000       1.244876       1.488360       4.072412
       9.960000       1.227992       1.471213       3.923485
       9.970000       1.210840       1.455498       3.776141
       9.980000       1.193327       1.442116       3.634166
       9.990000       1.175517       1.431953       3.501076
      10.000000       1.157675       1.425741       3.379700
      10.010000       1.140232       1.423935       3.271902
      10.020000       1.123703       1.426629       3.178459
      10.030000       1.108577       1.433519       3.099037
      10.040000       1.095234       1.443925       3.032257
      10.050000       1.083898       1.456847       2.975825
      10.060000       1.074645       1.471038       2.926768
      10.070000       1.067420       1.485090       2.881770
      10.080000       1.062079       1.497554       2.837619
      10.090000       1.058443       1.507124       2.791675
      10.100000       1.056361       1.512867       2.742275
      10.110000       1.055764       1.514427       2.688951
      10.120000       1.056670       1.512092       2.632416
      10.130000       1.059147       1.506674       2.574327
      10.140000       1.063234       1.499242       2.516901
      10.150000       1.068864       1.490822       2.462510
      10.160000       1.075835       1.482204       2.413327
      10.170000       1.083830       1.473911       2.371085
      10.180000       1.092485       1.466305       2.336963
      10.190000       1.101459       1.459741       2.311551
      10.200000       1.110487       1.454667       2.294896
      10.210000       1.119401       1.451629       2.286539
      10.220000       1.128148       1.451175       2.285544
      10.230000       1.136795       1.453697       2.290502
      10.240000       1.145520       1.459268       2.299559
      10.250000       1.154583       1.467542       2.310520
      10.260000       1.164257       1.477766       2.321070
      10.270000       1.174742       1.488909       2.329097
      10.280000       1.186079       1.499847       2.333036
      10.290000       1.198085       1.509544       2.332126
      10.300000       1.210337       1.517158       2.326494
      10.310000       1.222216       1.522066       2.317032
      10.320000       1.232987       1.523835       2.305135
      10.330000       1.241936       1.522189       2.292396
      10.340000       1.248495       1.516980       2.280360
      10.350000       1.252355       1.508183       2.270390
      10.360000       1.253518       1.495896       2.263628
      10.370000       1.252299       1.480358       2.260990
      10.380000       1.249241       1.461965       2.263141
      10.390000       1.244965       1.441295       2.270434
      10.400000       1.239985       1.419122       2.282818
      10.410000       1.234537       1.396405       2.299770
      10.420000       1.228516       1.374236       2.320278
      10.430000       1.221544       1.353730       2.342882
      10.440000       1.213164       1.335866       2.365773
      10.450000       1.203086       1.321313       2.386924
      10.460000       1.191367       1.310306       2.404260
      10.470000       1.178448       1.302618       2.415833
      10.480000       1.165044       1.297617       2.420002
      10.490000       1.151933       1.294401       2.415576
      10.500000       1.139761       1.291959       2.401873
      10.510000       1.128925       1.289308       2.378709
      10.520000       1.119556       1.285613       2.346323
      10.530000       1.111603       1.280278       2.305284
      10.540000       1.104949       1.272987       2.256438
      10.550000       1.099506       1.263692       2.200887
      10.560000       1.095262       1.252550       2.139991
      10.570000       1.092266       1.239841       2.075342
      10.580000       1.090590       1.225913       2.008709
      10.590000       1.090302       1.211171       1.941926
      10.600000       1.091446       1.196074       1.876763
      10.610000       1.094032       1.181105       1.814782
      10.620000       1.097997       1.166701       1.757200
      10.630000       1.103145       1.153168       1.704784
      10.640000       1.109089       1.140633       1.657802
      10.650000       1.115240       1.129069       1.616060
      10.660000       1.120859       1.118362       1.579000
      10.670000       1.125159       1.108380       1.545853
      10.680000       1.127417       1.098991       1.515780
      10.690000       1.127050       1.090033       1.487999
      10.700000       1.123656       1.081280       1.461861
      10.710000       1.117034       1.072448       1.436904
      10.720000       1.107189       1.063255       1.412876
      10.730000       1.094326       1.053501       1.389749
      10.740000       1.078830       1.043122       1.367701
      10.750000       1.061201       1.032209       1.347070
      10.760000       1.041980       1.020979       1.328266
      10.770000       1.021666       1.009732       1.311646
      10.780000       1.000665       0.998807       1.297387
      10.790000       0.979269       0.988540       1.285373
      10.800000       0.957686       0.979230       1.275148
      10.810000       0.936095       0.971111       1.265943
      10.820000       0.914710       0.964327       1.256787
      10.830000       0.893826       0.958943       1.246678
      10.840000       0.873811       0.954969       1.234767
      10.850000       0.855075       0.952427       1.220500
      10.860000       0.838003       0.951418       1.203688
      10.870000       0.822897       0.952166       1.184487
      10.880000       0.809927       0.955015       1.163323
      10.890000       0.799106       0.960370       1.140799
      10.900000       0.790305       0.968629       1.117611
      10.910000       0.783290       0.980103       1.094483
      10.920000       0.777787       0.994971       1.072105
      10.930000       0.773545       1.013235       1.051053
      10.940000       0.770372       1.034677       1.031717
      10.950000       0.768131       1.058822       1.014237
      10.960000       0.766719       1.084917       0.998493
      10.970000       0.766052       1.111961       0.984134
      10.980000       0.766073       1.138768       0.970653
      10.990000       0.766776       1.164073       0.957471
      11.000000       0.768230       1.186642       0.944000
      11.010000       0.770569       1.205389       0.929700
      11.020000       0.773938       1.219481       0.914117
      11.030000       0.778432       1.228410       0.896930
      11.040000       0.784019       1.232030       0.878013
      11.050000       0.790507       1.230551       0.857478
      11.060000       0.797538       1.224467       0.835686
      11.070000       0.804626       1.214463       0.813198
      11.080000       0.811217       1.201294       0.790667
      11.090000       0.816746       1.185671       0.768726
      11.100000       0.820697       1.168190       0.747888
      11.110000       0.822657       1.149310       0.728509
      11.120000       0.822368       1.129398       0.710776
      11.130000       0.819771       1.108806       0.694745
      11.140000       0.815041       1.087948       0.680376
      11.150000       0.808569       1.067330       0.667588
      11.160000       0.800905       1.047529       0.656303
      11.170000       0.792658       1.029110       0.646495
      11.180000       0.784386       1.012520       0.638215
      11.190000       0.776524       0.997985       0.631605
      11.200000       0.769353       0.985467       0.626889
      11.210000       0.763005       0.974676       0.624342
      11.220000       0.757495       0.965163       0.624254
      11.230000       0.752756       0.956434       0.626888
      11.240000       0.748672       0.948056       0.632441
      11.250000       0.745117       0.939720       0.641017
      11.260000       0.741982       0.931257       0.652608
      11.270000       0.739177       0.922624       0.667074
      11.280000       0.736624       0.913890       0.684130
      11.290000       0.734230       0.905219       0.703336
      11.300000       0.731874       0.896861       0.724092
      11.310000       0.729426       0.889133       0.745643
      11.320000       0.726778       0.882385       0.767098
      11.330000       0.723877       0.876951       0.787468
      11.340000       0.720745       0.873096       0.805730
      11.350000       0.717458       0.870962       0.820888
      11.360000       0.714117       0.870508       0.832063
      11.370000       0.710813       0.871440       0.838570
      11.380000       0.707607       0.873158       0.840005
      11.390000       0.704540       0.874745       0.836304
      11.400000       0.701655       0.875048       0.827754
      11.410000       0.699021       0.872866       0.814958
      11.420000       0.696757       0.867204       0.798749
      11.430000       0.695026       0.857530       0.780089
      11.440000       0.694016       0.843932       0.759979
      11.450000       0.693907       0.827113       0.739378
      11.460000       0.694825       0.808239       0.719161
      11.470000       0.696820       0.788713       0.700074
      11.480000       0.699872       0.769933       0.682716
      11.490000       0.703916       0.753114       0.667522
      11.500000       0.708874       0.739183       0.654766
      11.510000       0.714674       0.728750       0.644576
      11.520000       0.721244       0.722128       0.636960
      11.530000       0.728498       0.719383       0.631849
      11.540000       0.736333       0.720396       0.629132
      11.550000       0.744639       0.724920       0.628689
      11.560000       0.753325       0.732624       0.630408
      11.570000       0.762348       0.743113       0.634188
      11.580000       0.771724       0.755926       0.639923
      11.590000       0.781504       0.770526       0.647496
      11.600000       0.791729       0.786285       0.656761
      11.610000       0.802363       0.802493       0.667544
      11.620000       0.813242       0.818393       0.679655
      11.630000       0.824057       0.833224       0.692902
      11.640000       0.834387       0.846267       0.707106
      11.650000       0.843773       0.856882       0.722105
      11.660000       0.851809       0.864533       0.737731
      11.670000       0.858211       0.868820       0.753786
      11.680000       0.862844       0.869522       0.770007
      11.690000       0.865698       0.866637       0.786063
      11.700000       0.866829       0.860406       0.801583
      11.710000       0.866300       0.851306       0.816215
      11.720000       0.864129       0.840000       0.829700
      11.730000       0.860272       0.827266       0.841939
      11.740000       0.854637       0.813914       0.853025
      11.750000       0.847133       0.800719       0.863244
      11.760000       0.837726       0.788362       0.873029
      11.770000       0.826499       0.777397       0.882907
      11.780000       0.813669       0.768225       0.893431
      11.790000       0.799557       0.761075       0.905119
      11.800000       0.784528       0.755997       0.918406
      11.810000       0.768916       0.752875       0.933603
      11.820000       0.752979       0.751457       0.950882
      11.830000       0.736887       0.751415       0.970292
      11.840000       0.720737       0.752431       0.991795
      11.850000       0.704590       0.754283       1.015317
      11.860000       0.688504       0.756905       1.040808
      11.870000       0.672573       0.760395       1.068276
      11.880000       0.656943       0.764958       1.097801
      11.890000       0.641818       0.770803       1.129508
      11.900000       0.627427       0.778017       1.163526
      11.910000       0.613982       0.786435       1.199930
      11.920000       0.601616       0.795550       1.238705
      11.930000       0.590349       0.804501       1.279716
      11.940000       0.580090       0.812165       1.322712
      11.950000       0.570666       0.817346       1.367343
      11.960000       0.561877       0.819030       1.413214
      11.970000       0.553539       0.816627       1.459957
      11.980000       0.545519       0.810116       1.507311
      11.990000       0.537733       0.800058       1.555193
      12.000000       0.530148       0.787471       1.603736
      12.010000       0.522770       0.773627       1.653278
      12.020000       0.515643       0.759839       1.704271
      12.030000       0.508859       0.747278       1.757165
      12.040000       0.502554       0.736864       1.812280
      12.050000       0.496893       0.729209       1.869711
      12.060000       0.492037       0.724609       1.929299
      12.070000       0.488106       0.723070       1.990633
      12.080000       0.485156       0.724365       2.053078
      12.090000       0.483172       0.728098       2.115807
      12.100000       0.482089       0.733791       2.177832
      12.110000       0.481835       0.740986       2.238020
      12.120000       0.482361       0.749336       2.295126
      12.130000       0.483666       0.758661       2.347838
      12.140000       0.485796       0.768952       2.394872
      12.150000       0.488812       0.780320       2.435121
      12.160000       0.492741       0.792913       2.467840
      12.170000       0.497533       0.806830       2.492808
      12.180000       0.503039       0.822073       2.510421
      12.190000       0.509014       0.838521       2.521660
      12.200000       0.515160       0.855917       2.527948
      12.210000       0.521189       0.873856       2.530938
      12.220000       0.526883       0.891767       2.532291
      12.230000       0.532138       0.908918       2.533498
      12.240000       0.536963       0.924457       2.535739
      12.250000       0.541459       0.937526       2.539795
      12.260000       0.545757       0.947415       2.545987
      12.270000       0.549963       0.953712       2.554169
      12.280000       0.554113       0.956399       2.563772
      12.290000       0.558139       0.955844       2.573914
      12.300000       0.561871       0.952696       2.583549
      12.310000       0.565058       0.947739       2.591610
      12.320000       0.567403       0.941736       2.597090
      12.330000       0.568606       0.935326       2.599046
      12.340000       0.568416       0.928972       2.596560
      12.350000       0.566665       0.922960       2.588707
      12.360000       0.563301       0.917422       2.574590
      12.370000       0.558405       0.912353       2.553464
      12.380000       0.552180       0.907630       2.524889
      12.390000       0.544931       0.903028       2.488853
      12.400000       0.537033       0.898244       2.445797
      12.410000       0.528900       0.892954       2.396538
      12.420000       0.520954       0.886879       2.342109
      12.430000       0.513583       0.879872       2.283618
      12.440000       0.507107       0.871979       2.222127
      12.450000       0.501743       0.863471       2.158612
      12.460000       0.497592       0.854825       2.093951
      12.470000       0.494646       0.846656       2.028949
      12.480000       0.492807       0.839613       1.964344
      12.490000       0.491933       0.834250       1.900813
      12.500000       0.491856       0.830917       1.838934
      12.510000       0.492400       0.829680       1.779133
      12.520000       0.493370       0.830301       1.721636
      12.530000       0.494545       0.832293       1.666461
      12.540000       0.495676       0.835022       1.613477
      12.550000       0.496512       0.837834       1.562504
      12.560000       0.496828       0.840169       1.513411
      12.570000       0.496462       0.841617       1.466178
      12.580000       0.495338       0.841919       1.420900
      12.590000       0.493487       0.840932       1.377748
      12.600000       0.491047       0.838587       1.336923
      12.610000       0.488256       0.834869       1.298617
      12.620000       0.485413       0.829821       1.263003
      12.630000       0.482824       0.823563       1.230251
      12.640000       0.480744       0.816310       1.200544
      12.650000       0.479333       0.808389       1.174091
      12.660000       0.478654       0.800229       1.151112
      12.670000       0.478686       0.792318       1.131801
      12.680000       0.479370       0.785130       1.116297
      12.690000       0.480648       0.779045       1.104658
      12.700000       0.482486       0.774287       1.096857
      12.710000       0.484875       0.770923       1.092781
      12.720000       0.487810       0.768895       1.092230
      12.730000       0.491268       0.768080       1.094906
      12.740000       0.495184       0.768340       1.100404
      12.750000       0.499443       0.769553       1.108200
      12.760000       0.503880       0.771627       1.117658
      12.770000       0.508292       0.774497       1.128045
      12.780000       0.512451       0.778127       1.138543
      12.790000       0.516121       0.782490       1.148272
      12.800000       0.519078       0.787548       1.156342
      12.810000       0.521134       0.793203       1.161941
      12.820000       0.522150       0.799261       1.164461
      12.830000       0.522061       0.805393       1.163617
      12.840000       0.520884       0.811124       1.159516
      12.850000       0.518711       0.815864       1.152633
      12.860000       0.515690       0.818986       1.143686
      12.870000       0.511972       0.819946       1.133474
      12.880000       0.507675       0.818415       1.122716
      12.890000       0.502859       0.814372       1.111940
      12.900000       0.497532       0.808113       1.101446
      12.910000       0.491684       0.800182       1.091313
      12.920000       0.485334       0.791243       1.081441
      12.930000       0.478560       0.781955       1.071603
      12.940000       0.471515       0.772886       1.061500
      12.950000       0.464406       0.764479       1.050801
      12.960000       0.457468       0.757050       1.039211
      12.970000       0.450917       0.750795       1.026523
      12.980000       0.444926       0.745818       1.012688
      12.990000       0.439610       0.742157       0.997842
      13.000000       0.435031       0.739818       0.982306
      13.010000       0.431206       0.738805       0.966540
      13.020000       0.428112       0.739118       0.951063
      13.030000       0.425671       0.740704       0.936371
      13.040000       0.423731       0.743399       0.922860
      13.050000       0.422065       0.746859       0.910778
      13.060000       0.420383       0.750547       0.900203
      13.070000       0.418387       0.753760       0.891054
      13.080000       0.415823       0.755720       0.883107
      13.090000       0.412540       0.755718       0.876050
      13.100000       0.408504       0.753247       0.869517
      13.110000       0.403791       0.748104       0.863151
      13.120000       0.398548       0.740405       0.856645
      13.130000       0.392963       0.730536       0.849790
      13.140000       0.387241       0.719051       0.842509
      13.150000       0.381592       0.706587       0.834867
      13.160000       0.376222       0.693788       0.827049
      13.170000       0.371326       0.681259       0.819322
      13.180000       0.367055       0.669509       0.811985
      13.190000       0.363487       0.658910       0.805337
      13.200000       0.360601       0.649663       0.799659
      13.210000       0.358275       0.641790       0.795211
      13.220000       0.356300       0.635153       0.792228
      13.230000       0.354425       0.629493       0.790912
      13.240000       0.352409       0.624475       0.791404
      13.250000       0.350074       0.619758       0.793744
      13.260000       0.347334       0.615049       0.797839
      13.270000       0.344207       0.610164       0.803422
      13.280000       0.340781       0.605046       0.810054
      13.290000       0.337180       0.599756       0.817155
      13.300000       0.333533       0.594433       0.824067
      13.310000       0.329949       0.589245       0.830138
      13.320000       0.326533       0.584361       0.834800
      13.330000       0.323392       0.579930       0.837624
      13.340000       0.320649       0.576070       0.838343
      13.350000       0.318439       0.572867       0.836865
      13.360000       0.316893       0.570373       0.833272
      13.370000       0.316109       0.568609       0.827804
      13.380000       0.316129       0.567563       0.820831
      13.390000       0.316925       0.567183       0.812800
      13.400000       0.318399       0.567367       0.804162
      13.410000       0.320400       0.567967       0.795294
      13.420000       0.322755       0.568804       0.786436
      13.430000       0.325301       0.569703       0.777665
      13.440000       0.327922       0.570532       0.768910
      13.450000       0.330562       0.571228       0.759990
      13.460000       0.333220       0.571800       0.750671
      13.470000       0.335926       0.572304       0.740720
      13.480000       0.338705       0.572810       0.729945
      13.490000       0.341544       0.573369       0.718239
      13.500000       0.344374       0.574006       0.705604
      13.510000       0.347067       0.574720       0.692166
      13.520000       0.349454       0.575498       0.678172
      13.530000       0.351341       0.576333       0.663943
      13.540000       0.352533       0.577231       0.649827
      13.550000       0.352846       0.578218       0.636131
      13.560000       0.352120       0.579334       0.623086
      13.570000       0.350234       0.580634       0.610834
      13.580000       0.347125       0.582189       0.599440
      13.590000       0.342813       0.584086       0.588918
      13.600000       0.337406       0.586433       0.579254
      13.610000       0.331102       0.589362       0.570415
      13.620000       0.324160       0.593022       0.562358
      13.630000       0.316877       0.597582       0.555033
      13.640000       0.309560       0.603199       0.548382
      13.650000       0.302503       0.610000       0.542355
      13.660000       0.295970       0.618041       0.536905
      13.670000       0.290179       0.627286       0.532003
      13.680000       0.285290       0.637573       0.527643
      13.690000       0.281396       0.648593       0.523853
      13.700000       0.278519       0.659878       0.520697
      13.710000       0.276618       0.670798       0.518281
      13.720000       0.275592       0.680611       0.516738
      13.730000       0.275305       0.688542       0.516215
      13.740000       0.275603       0.693923       0.516864
      13.750000       0.276337       0.696328       0.518825
      13.760000       0.277389       0.695673       0.522230
      13.770000       0.278681       0.692231       0.527198
      13.780000       0.280181       0.686562       0.533850
      13.790000       0.281892       0.679363       0.542312
      13.800000       0.283835       0.671317       0.552718
      13.810000       0.286028       0.662953       0.565213
      13.820000       0.288474       0.654585       0.579944
      13.830000       0.291150       0.646313       0.597051
      13.840000       0.294012       0.638070       0.616659
      13.850000       0.296997       0.629696       0.638861
      13.860000       0.300032       0.620995       0.663686
      13.870000       0.303051       0.611791       0.691058
      13.880000       0.306008       0.601953       0.720752
      13.890000       0.308888       0.591426       0.752335
      13.900000       0.311701       0.580249       0.785136
      13.910000       0.314479       0.568573       0.818229
      13.920000       0.317258       0.556646       0.850454
      13.930000       0.320065       0.544776       0.880480
      13.940000       0.322902       0.533275       0.906920
      13.950000       0.325740       0.522398       0.928489
      13.960000       0.328509       0.512303       0.944184
      13.970000       0.331112       0.503045       0.953454
      13.980000       0.333431       0.494588       0.956309
      13.990000       0.335353       0.486847       0.953310
      14.000000       0.336797       0.479728       0.945431
      14.010000       0.337731       0.473170       0.933844
      14.020000       0.338178       0.467174       0.919707
      14.030000       0.338210       0.461819       0.904009
      14.040000       0.337928       0.457256       0.887514
      14.050000       0.337449       0.453693       0.870782
      14.060000       0.336887       0.451362       0.854213
      14.070000       0.336342       0.450476       0.838109
      14.080000       0.335895       0.451182       0.822707
      14.090000       0.335588       0.453510       0.808187
      14.100000       0.335418       0.457343       0.794675
      14.110000       0.335313       0.462396       0.782216
      14.120000       0.335133       0.468238       0.770765
      14.130000       0.334673       0.474331       0.760186
      14.140000       0.333695       0.480103       0.750266
      14.150000       0.331965       0.485032       0.740759
      14.160000       0.329305       0.488712       0.731435
      14.170000       0.325624       0.490897       0.722139
      14.180000       0.320937       0.491496       0.712826
      14.190000       0.315359       0.490553       0.703569
      14.200000       0.309079       0.488216       0.694523
      14.210000       0.302326       0.484708       0.685877
      14.220000       0.295342       0.480289       0.677784
      14.230000       0.288353       0.475232       0.670320
      14.240000       0.281548       0.469797       0.663457
      14.250000       0.275070       0.464230       0.657066
      14.260000       0.269005       0.458766       0.650950
      14.270000       0.263389       0.453648       0.644882
      14.280000       0.258218       0.449130       0.638662
      14.290000       0.253457       0.445469       0.632159
      14.300000       0.249055       0.442911       0.625338
      14.310000       0.244962       0.441666       0.618255
      14.320000       0.241134       0.441892       0.611034
      14.330000       0.237544       0.443669       0.603838
      14.340000       0.234182       0.446980       0.596841
      14.350000       0.231052       0.451700       0.590203
      14.360000       0.228172       0.457589       0.584067
      14.370000       0.225563       0.464304       0.578557
      14.380000       0.223246       0.471429       0.573784
      14.390000       0.221234       0.478511       0.569850
      14.400000       0.219522       0.485123       0.566843
      14.410000       0.218091       0.490927       0.564824
      14.420000       0.216910       0.495719       0.563815
      14.430000       0.215936       0.499446       0.563779
      14.440000       0.215120       0.502174       0.564605
      14.450000       0.214405       0.504031       0.566097
      14.460000       0.213721       0.505146       0.567987
      14.470000       0.212987       0.505612       0.569952
      14.480000       0.212118       0.505481       0.571663
      14.490000       0.211030       0.504777       0.572831
      14.500000       0.209656       0.503512       0.573261
      14.510000       0.207955       0.501688       0.572883
      14.520000       0.205923       0.499292       0.571757
      14.530000       0.203589       0.496307       0.570053
      14.540000       0.201011       0.492724       0.568004
      14.550000       0.198257       0.488579       0.565848
      14.560000       0.195402       0.483962       0.563781
      14.570000       0.192513       0.479021       0.561914
      14.580000       0.189648       0.473919       0.560263
      14.590000       0.186848       0.468787       0.558747
      14.600000       0.184130       0.463684       0.557220
      14.610000       0.181493       0.458584       0.555503
      14.620000       0.178907       0.453408       0.553434
      14.630000       0.176334       0.448071       0.550911
      14.640000       0.173732       0.442526       0.547924
      14.650000       0.171080       0.436787       0.544558
      14.660000       0.168383       0.430925       0.540971
      14.670000       0.165682       0.425043       0.537350
      14.680000       0.163046       0.419255       0.533859
      14.690000       0.160566       0.413671       0.530602
      14.700000       0.158334       0.408391       0.527605
      14.710000       0.156430       0.403500       0.524812
      14.720000       0.154912       0.399058       0.522112
      14.730000       0.153810       0.395076       0.519355
      14.740000       0.153128       0.391509       0.516380
      14.750000       0.152850       0.388243       0.513029
      14.760000       0.152954       0.385125       0.509154
      14.770000       0.153418       0.381988       0.504625
      14.780000       0.154233       0.378706       0.499334
      14.790000       0.155404       0.375225       0.493202
      14.800000       0.156948       0.371590       0.486190
      14.810000       0.158893       0.367935       0.478311
      14.820000       0.161264       0.364457       0.469651
      14.830000       0.164086       0.361375       0.460376
      14.840000       0.167369       0.358894       0.450732
      14.850000       0.171107       0.357175       0.441016
      14.860000       0.175273       0.356322       0.431541
      14.870000       0.179813       0.356371       0.422583
      14.880000       0.184646       0.357290       0.414341
      14.890000       0.189665       0.358976       0.406915
      14.900000       0.194744       0.361273       0.400306
      14.910000       0.199755       0.363996       0.394442
      14.920000       0.204579       0.366963       0.389209
      14.930000       0.209123       0.370024       0.384491
      14.940000       0.213326       0.373065       0.380203
      14.950000       0.217160       0.376008       0.376299
      14.960000       0.220624       0.378784       0.372787
      14.970000       0.223733       0.381314       0.369706
      14.980000       0.226510       0.383498       0.367118
      14.990000       0.228983       0.385221       0.365083
      15.000000       0.231172       0.386369       0.363644
      15.010000       0.233096       0.386854       0.362819
      15.020000       0.234758       0.386631       0.362604
      15.030000       0.236148       0.385703       0.362980
      15.040000       0.237244       0.384121       0.363915
      15.050000       0.238029       0.381966       0.365376
      15.060000       0.238500       0.379333       0.367328
      15.070000       0.238684       0.376330       0.369731
      15.080000       0.238643       0.373086       0.372519
      15.090000       0.238469       0.369762       0.375592
      15.100000       0.238264       0.366559       0.378794
      15.110000       0.238121       0.363713       0.381925
      15.120000       0.238109       0.361467       0.384757
      15.130000       0.238259       0.360034       0.387079
      15.140000       0.238580       0.359561       0.388726
      15.150000       0.239070       0.360104       0.389613
      15.160000       0.239723       0.361619       0.389737
      15.170000       0.240536       0.363959       0.389164
      15.180000       0.241497       0.366895       0.388019
      15.190000       0.242580       0.370139       0.386450
      15.200000       0.243747       0.373391       0.384615
      15.210000       0.244954       0.376368       0.382656
      15.220000       0.246170       0.378843       0.380682
      15.230000       0.247384       0.380663       0.378762
      15.240000       0.248600       0.381767       0.376921
      15.250000       0.249836       0.382180       0.375142
      15.260000       0.251103       0.382009       0.373379
      15.270000       0.252399       0.381416       0.371566
      15.280000       0.253699       0.380578       0.369620
      15.290000       0.254948       0.379640       0.367449
      15.300000       0.256057       0.378667       0.364947
      15.310000       0.256896       0.377610       0.362006
      15.320000       0.257299       0.376312       0.358523
      15.330000       0.257070       0.374541       0.354415
      15.340000       0.256004       0.372055       0.349639
      15.350000       0.253921       0.368682       0.344198
      15.360000       0.250688       0.364368       0.338145
      15.370000       0.246258       0.359193       0.331576
      15.380000       0.240680       0.353341       0.324617
      15.390000       0.234111       0.347049       0.317407
      15.400000       0.226794       0.340550       0.310080
      15.410000       0.219026       0.334047       0.302755
      15.420000       0.211122       0.327700       0.295526
      15.430000       0.203375       0.321641       0.288470
      15.440000       0.196034       0.315990       0.281646
      15.450000       0.189291       0.310873       0.275104
      15.460000       0.183280       0.306431       0.268889
      15.470000       0.178076       0.302808       0.263044
      15.480000       0.173704       0.300136       0.257611
      15.490000       0.170142       0.298511       0.252627
      15.500000       0.167331       0.297975       0.248125
      15.510000       0.165185       0.298504       0.244131
      15.520000       0.163602       0.300007       0.240665
      15.530000       0.162475       0.302329       0.237747
      15.540000       0.161706       0.305268       0.235398
      15.550000       0.161207       0.308595       0.233639
      15.560000       0.160910       0.312085       0.232487
      15.570000       0.160759       0.315546       0.231953
      15.580000       0.160709       0.318836       0.232033
      15.590000       0.160727       0.321870       0.232705
      15.600000       0.160791       0.324604       0.233930
      15.610000       0.160893       0.327021       0.235665
      15.620000       0.161039       0.329115       0.237868
      15.630000       0.161243       0.330880       0.240512
      15.640000       0.161525       0.332301       0.243590
      15.650000       0.161896       0.333357       0.247111
      15.660000       0.162362       0.334018       0.251089
      15.670000       0.162916       0.334260       0.255526
      15.680000       0.163547       0.334074       0.260389
      15.690000       0.164235       0.333484       0.265581
      15.700000       0.164958       0.332547       0.270936
      15.710000       0.165686       0.331353       0.276217
      15.720000       0.166390       0.330005       0.281139
      15.730000       0.167042       0.328610       0.285411
      15.740000       0.167630       0.327259       0.288777
      15.750000       0.168156       0.326019       0.291055
      15.760000       0.168639       0.324921       0.292152
      15.770000       0.169103       0.323964       0.292065
      15.780000       0.169565       0.323108       0.290877
      15.790000       0.170027       0.322285       0.288740
      15.800000       0.170473       0.321410       0.285856
      15.810000       0.170880       0.320397       0.282460
      15.820000       0.171225       0.319175       0.278788
      15.830000       0.171493       0.317689       0.275058
      15.840000       0.171676       0.315895       0.271441
      15.850000       0.171766       0.313758       0.268053
      15.860000       0.171747       0.311252       0.264950
      15.870000       0.171594       0.308369       0.262136
      15.880000       0.171274       0.305132       0.259578
      15.890000       0.170756       0.301600       0.257225
      15.900000       0.170018       0.297867       0.255017
      15.910000       0.169057       0.294043       0.252894
      15.920000       0.167888       0.290238       0.250789
      15.930000       0.166537       0.286550       0.248626
      15.940000       0.165036       0.283067       0.246324
      15.950000       0.163420       0.279868       0.243801
      15.960000       0.161721       0.277025       0.240991
      15.970000       0.159970       0.274604       0.237855
      15.980000       0.158194       0.272650       0.234395
      15.990000       0.156416       0.271170       0.230652
      16.000000       0.154650       0.270133       0.226699
      16.010000       0.152912       0.269465       0.222639
      16.020000       0.151215       0.269061       0.218580
      16.030000       0.149585       0.268812       0.214633
      16.040000       0.148058       0.268626       0.210893
      16.050000       0.146685       0.268451       0.207436
      16.060000       0.145522       0.268286       0.204313
      16.070000       0.144620       0.268164       0.201554
      16.080000       0.144017       0.268122       0.199162
      16.090000       0.143716       0.268159       0.197117
      16.100000       0.143691       0.268206       0.195377
      16.110000       0.143880       0.268121       0.193881
      16.120000       0.144199       0.267705       0.192556
      16.130000       0.144559       0.266746       0.191324
      16.140000       0.144880       0.265066       0.190107
      16.150000       0.145108       0.262562       0.188831
      16.160000       0.145219       0.259235       0.187437
      16.170000       0.145215       0.255191       0.185884
      16.180000       0.145121       0.250631       0.184157
      16.190000       0.144970       0.245807       0.182278
      16.200000       0.144801       0.240994       0.180301
      16.210000       0.144644       0.236447       0.178314
      16.220000       0.144523       0.232375       0.176424
      16.230000       0.144450       0.228933       0.174745
      16.240000       0.144432       0.226213       0.173385
      16.250000       0.144477       0.224249       0.172431
      16.260000       0.144601       0.223017       0.171946
      16.270000       0.144828       0.222440       0.171969
      16.280000       0.145188       0.222389       0.172511
      16.290000       0.145701       0.222698       0.173570
      16.300000       0.146373       0.223178       0.175126
      16.310000       0.147190       0.223646       0.177156
      16.320000       0.148120       0.223940       0.179627
      16.330000       0.149123       0.223935       0.182503
      16.340000       0.150166       0.223537       0.185738
      16.350000       0.151235       0.222684       0.189274
      16.360000       0.152337       0.221340       0.193039
      16.370000       0.153505       0.219502       0.196937
      16.380000       0.154785       0.217216       0.200856
      16.390000       0.156223       0.214581       0.204669
      16.400000       0.157852       0.211748       0.208239
      16.410000       0.159685       0.208898       0.211435
      16.420000       0.161714       0.206217       0.214143
      16.430000       0.163911       0.203879       0.216280
      16.440000       0.166234       0.202024       0.217807
      16.450000       0.168631       0.200752       0.218734
      16.460000       0.171038       0.200122       0.219114
      16.470000       0.173386       0.200149       0.219039
      16.480000       0.175603       0.200803       0.218626
      16.490000       0.177627       0.202018       0.217998
      16.500000       0.179407       0.203696       0.217279
      16.510000       0.180904       0.205714       0.216579
      16.520000       0.182080       0.207931       0.215988
      16.530000       0.182895       0.210198       0.215573
      16.540000       0.183292       0.212355       0.215374
      16.550000       0.183207       0.214252       0.215404
      16.560000       0.182572       0.215758       0.215644
      16.570000       0.181329       0.216788       0.216046
      16.580000       0.179447       0.217319       0.216535
      16.590000       0.176928       0.217385       0.217019
      16.600000       0.173811       0.217054       0.217405
      16.610000       0.170172       0.216398       0.217612
      16.620000       0.166113       0.215471       0.217582
      16.630000       0.161747       0.214304       0.217287
      16.640000       0.157187       0.212923       0.216732
      16.650000       0.152528       0.211360       0.215946
      16.660000       0.147838       0.209664       0.214976
      16.670000       0.143158       0.207890       0.213883
      16.680000       0.138505       0.206076       0.212739
      16.690000       0.133888       0.204235       0.211623
      16.700000       0.129326       0.202349       0.210626
      16.710000       0.124855       0.200372       0.209835
      16.720000       0.120531       0.198246       0.209326
      16.730000       0.116425       0.195915       0.209156
      16.740000       0.112604       0.193348       0.209356
      16.750000       0.109126       0.190553       0.209933
      16.760000       0.106032       0.187591       0.210873
      16.770000       0.103346       0.184565       0.212146
      16.780000       0.101079       0.181606       0.213704
      16.790000       0.099234       0.178845       0.215480
      16.800000       0.097807       0.176395       0.217391
      16.810000       0.096792       0.174335       0.219333
      16.820000       0.096173       0.172707       0.221192
      16.830000       0.095934       0.171523       0.222849
      16.840000       0.096047       0.170773       0.224189
      16.850000       0.096484       0.170445       0.225112
      16.860000       0.097207       0.170533       0.225541
      16.870000       0.098173       0.171043       0.225432
      16.880000       0.099334       0.171990       0.224790
      16.890000       0.100628       0.173387       0.223676
      16.900000       0.101987       0.175231       0.222197
      16.910000       0.103337       0.177495       0.220494
      16.920000       0.104605       0.180115       0.218712
      16.930000       0.105730       0.182999       0.216974
      16.940000       0.106669       0.186028       0.215373
      16.950000       0.107400       0.189067       0.213960
      16.960000       0.107923       0.191977       0.212754
      16.970000       0.108255       0.194620       0.211748
      16.980000       0.108423       0.196873       0.210924
      16.990000       0.108457       0.198628       0.210262
      17.000000       0.108394       0.199816       0.209751
      17.010000       0.108274       0.200414       0.209391
      17.020000       0.108140       0.200459       0.209187
      17.030000       0.108042       0.200044       0.209131
      17.040000       0.108028       0.199296       0.209197
      17.050000       0.108136       0.198348       0.209336
      17.060000       0.108390       0.197303       0.209486
      17.070000       0.108784       0.196219       0.209586
      17.080000       0.109281       0.195094       0.209588
      17.090000       0.109812       0.193881       0.209459
      17.100000       0.110286       0.192504       0.209184
      17.110000       0.110606       0.190890       0.208758
      17.120000       0.110693       0.188982       0.208190
      17.130000       0.110502       0.186764       0.207498
      17.140000       0.110030       0.184257       0.206709
      17.150000       0.109317       0.181513       0.205863
      17.160000       0.108431       0.178606       0.205012
      17.170000       0.107453       0.175623       0.204221
      17.180000       0.106464       0.172655       0.203564
      17.190000       0.105543       0.169801       0.203121
      17.200000       0.104758       0.167165       0.202969
      17.210000       0.104160       0.164853       0.203171
      17.220000       0.103786       0.162962       0.203770
      17.230000       0.103641       0.161558       0.204792
      17.240000       0.103705       0.160674       0.206250
      17.250000       0.103934       0.160300       0.208152
      17.260000       0.104269       0.160397       0.210509
      17.270000       0.104648       0.160903       0.213332
      17.280000       0.105016       0.161751       0.216631
      17.290000       0.105327       0.162886       0.220399
      17.300000       0.105542       0.164261       0.224618
      17.310000       0.105629       0.165844       0.229247
      17.320000       0.105566       0.167611       0.234234
      17.330000       0.105348       0.169544       0.239512
      17.340000       0.104995       0.171634       0.245005
      17.350000       0.104549       0.173879       0.250634
      17.360000       0.104064       0.176279       0.256312
      17.370000       0.103600       0.178830       0.261945
      17.380000       0.103199       0.181509       0.267424
      17.390000       0.102889       0.184264       0.272630
      17.400000       0.102677       0.187004       0.277435
      17.410000       0.102557       0.189601       0.281719
      17.420000       0.102520       0.191904       0.285384
      17.430000       0.102550       0.193748       0.288370
      17.440000       0.102632       0.194967       0.290672
      17.450000       0.102742       0.195412       0.292335
      17.460000       0.102852       0.194955       0.293452
      17.470000       0.102932       0.193516       0.294138
      17.480000       0.102955       0.191079       0.294510
      17.490000       0.102907       0.187708       0.294670
      17.500000       0.102792       0.183552       0.294690
      17.510000       0.102632       0.178827       0.294627
      17.520000       0.102468       0.173785       0.294522
      17.530000       0.102350       0.168673       0.294420
      17.540000       0.102329       0.163696       0.294371
      17.550000       0.102442       0.159003       0.294421
      17.560000       0.102711       0.154684       0.294591
      17.570000       0.103136       0.150783       0.294862
      17.580000       0.103699       0.147315       0.295164
      17.590000       0.104375       0.144275       0.295385
      17.600000       0.105136       0.141647       0.295396
      17.610000       0.105965       0.139400       0.295086
      17.620000       0.106858       0.137496       0.294392
      17.630000       0.107819       0.135892       0.293320
      17.640000       0.108853       0.134544       0.291944
      17.650000       0.109960       0.133422       0.290393
      17.660000       0.111134       0.132508       0.288821
      17.670000       0.112370       0.131811       0.287379
      17.680000       0.113667       0.131363       0.286201
      17.690000       0.115035       0.131209       0.285390
      17.700000       0.116484       0.131401       0.285021
      17.710000       0.118016       0.131981       0.285143
      17.720000       0.119605       0.132965       0.285779
      17.730000       0.121195       0.134344       0.286926
      17.740000       0.122700       0.136078       0.288545
      17.750000       0.124008       0.138104       0.290556
      17.760000       0.124995       0.140345       0.292833
      17.770000       0.125544       0.142718       0.295201
      17.780000       0.125566       0.145135       0.297448
      17.790000       0.125016       0.147511       0.299337
      17.800000       0.123906       0.149769       0.300631
      17.810000       0.122306       0.151843       0.301130
      17.820000       0.120324       0.153690       0.300699
      17.830000       0.118091       0.155292       0.299301
      17.840000       0.115736       0.156654       0.297001
      17.850000       0.113361       0.157789       0.293970
      17.860000       0.111033       0.158698       0.290449
      17.870000       0.108781       0.159356       0.286719
      17.880000       0.106601       0.159704       0.283047
      17.890000       0.104473       0.159660       0.279657
      17.900000       0.102378       0.159145       0.276693
      17.910000       0.100305       0.158107       0.274214
      17.920000       0.098261       0.156554       0.272194
      17.930000       0.096269       0.154550       0.270550
      17.940000       0.094362       0.152213       0.269167
      17.950000       0.092582       0.149688       0.267934
      17.960000       0.090969       0.147121       0.266768
      17.970000       0.089560       0.144630       0.265624
      17.980000       0.088386       0.142294       0.264494
      17.990000       0.087471       0.140146       0.263404
      18.000000       0.086825       0.138185       0.262394
      18.010000       0.086446       0.136391       0.261516
      18.020000       0.086314       0.134745       0.260820
      18.030000       0.086393       0.133240       0.260342
      18.040000       0.086627       0.131886       0.260097
      18.050000       0.086937       0.130695       0.260065
      18.060000       0.087229       0.129668       0.260186
      18.070000       0.087403       0.128785       0.260360
      18.080000       0.087372       0.127995       0.260454
      18.090000       0.087078       0.127229       0.260328
      18.100000       0.086507       0.126415       0.259853
      18.110000       0.085693       0.125497       0.258944
      18.120000       0.084708       0.124452       0.257576
      18.130000       0.083645       0.123303       0.255795
      18.140000       0.082601       0.122115       0.253707
      18.150000       0.081658       0.120987       0.251456
      18.160000       0.080874       0.120026       0.249198
      18.170000       0.080282       0.119331       0.247084
      18.180000       0.079891       0.118976       0.245248
      18.190000       0.079693       0.118994       0.243806
      18.200000       0.079673       0.119385       0.242850
      18.210000       0.079812       0.120114       0.242443
      18.220000       0.080096       0.121127       0.242608
      18.230000       0.080516       0.122357       0.243316
      18.240000       0.081061       0.123732       0.244490
      18.250000       0.081720       0.125183       0.246017
      18.260000       0.082471       0.126643       0.247773
      18.270000       0.083280       0.128039       0.249650
      18.280000       0.084101       0.129291       0.251577
      18.290000       0.084884       0.130304       0.253523
      18.300000       0.085583       0.130974       0.255486
      18.310000       0.086168       0.131207       0.257473
      18.320000       0.086629       0.130937       0.259478
      18.330000       0.086977       0.130147       0.261470
      18.340000       0.087238       0.128874       0.263388
      18.350000       0.087447       0.127211       0.265153
      18.360000       0.087643       0.125284       0.266682
      18.370000       0.087860       0.123231       0.267912
      18.380000       0.088126       0.121184       0.268813
      18.390000       0.088462       0.119250       0.269386
      18.400000       0.088874       0.117499       0.269659
      18.410000       0.089349       0.115970       0.269663
      18.420000       0.089860       0.114669       0.269411
      18.430000       0.090368       0.113584       0.268895
      18.440000       0.090830       0.112690       0.268078
      18.450000       0.091215       0.111956       0.266911
      18.460000       0.091512       0.111350       0.265343
      18.470000       0.091734       0.110846       0.263329
      18.480000       0.091917       0.110418       0.260841
      18.490000       0.092110       0.110049       0.257872
      18.500000       0.092364       0.109731       0.254439
      18.510000       0.092719       0.109466       0.250590
      18.520000       0.093196       0.109266       0.246399
      18.530000       0.093795       0.109150       0.241963
      18.540000       0.094502       0.109140       0.237391
      18.550000       0.095293       0.109255       0.232796
      18.560000       0.096146       0.109508       0.228287
      18.570000       0.097041       0.109907       0.223965
      18.580000       0.097959       0.110445       0.219910
      18.590000       0.098883       0.111105       0.216179
      18.600000       0.099791       0.111857       0.212792
      18.610000       0.100658       0.112655       0.209733
      18.620000       0.101454       0.113449       0.206945
      18.630000       0.102148       0.114186       0.204347
      18.640000       0.102701       0.114817       0.201848
      18.650000       0.103061       0.115296       0.199368
      18.660000       0.103169       0.115587       0.196864
      18.670000       0.102957       0.115664       0.194335
      18.680000       0.102365       0.115506       0.191828
      18.690000       0.101352       0.115100       0.189422
      18.700000       0.099908       0.114436       0.187217
      18.710000       0.098067       0.113501       0.185313
      18.720000       0.095906       0.112286       0.183790
      18.730000       0.093533       0.110799       0.182700
      18.740000       0.091072       0.109068       0.182060
      18.750000       0.088646       0.107155       0.181859
      18.760000       0.086355       0.105146       0.182063
      18.770000       0.084272       0.103140       0.182626
      18.780000       0.082434       0.101232       0.183505
      18.790000       0.080852       0.099497       0.184664
      18.800000       0.079511       0.097985       0.186080
      18.810000       0.078382       0.096712       0.187741
      18.820000       0.077429       0.095664       0.189637
      18.830000       0.076616       0.094801       0.191755
      18.840000       0.075908       0.094067       0.194079
      18.850000       0.075276       0.093403       0.196588
      18.860000       0.074698       0.092756       0.199256
      18.870000       0.074161       0.092100       0.202049
      18.880000       0.073654       0.091435       0.204926
      18.890000       0.073172       0.090794       0.207837
      18.900000       0.072713       0.090227       0.210719
      18.910000       0.072273       0.089791       0.213497
      18.920000       0.071855       0.089528       0.216075
      18.930000       0.071461       0.089463       0.218332
      18.940000       0.071097       0.089590       0.220128
      18.950000       0.070766       0.089877       0.221315
      18.960000       0.070469       0.090275       0.221768
      18.970000       0.070205       0.090725       0.221416
      18.980000       0.069974       0.091169       0.220263
      18.990000       0.069774       0.091559       0.218395
      19.000000       0.069607       0.091859       0.215956
      19.010000       0.069474       0.092048       0.213117
      19.020000       0.069377       0.092118       0.210041
      19.030000       0.069318       0.092065       0.206866
      19.040000       0.069299       0.091887       0.203695
      19.050000       0.069325       0.091570       0.200602
      19.060000       0.069394       0.091092       0.197646
      19.070000       0.069496       0.090422       0.194882
      19.080000       0.069612       0.089535       0.192370
      19.090000       0.069711       0.088417       0.190178
      19.100000       0.069751       0.087077       0.188378
      19.110000       0.069692       0.085548       0.187036
      19.120000       0.069501       0.083880       0.186206
      19.130000       0.069160       0.082141       0.185913
      19.140000       0.068672       0.080398       0.186156
      19.150000       0.068055       0.078716       0.186908
      19.160000       0.067342       0.077150       0.188122
      19.170000       0.066572       0.075745       0.189741
      19.180000       0.065791       0.074535       0.191702
      19.190000       0.065045       0.073544       0.193945
      19.200000       0.064380       0.072785       0.196410
      19.210000       0.063836       0.072257       0.199037
      19.220000       0.063445       0.071948       0.201764
      19.230000       0.063226       0.071829       0.204511
      19.240000       0.063182       0.071859       0.207186
      19.250000       0.063301       0.071991       0.209678
      19.260000       0.063562       0.072182       0.211877
      19.270000       0.063930       0.072392       0.213681
      19.280000       0.064368       0.072598       0.215010
      19.290000       0.064840       0.072784       0.215816
      19.300000       0.065319       0.072953       0.216074
      19.310000       0.065793       0.073117       0.215787
      19.320000       0.066265       0.073300       0.214972
      19.330000       0.066755       0.073530       0.213670
      19.340000       0.067290       0.073832       0.211939
      19.350000       0.067894       0.074221       0.209862
      19.360000       0.068583       0.074696       0.207540
      19.370000       0.069361       0.075237       0.205086
      19.380000       0.070221       0.075811       0.202613
      19.390000       0.071147       0.076383       0.200220
      19.400000       0.072124       0.076921       0.197993
      19.410000       0.073138       0.077407       0.195997
      19.420000       0.074188       0.077835       0.194286
      19.430000       0.075278       0.078203       0.192902
      19.440000       0.076417       0.078507       0.191876
      19.450000       0.077613       0.078730       0.191222
      19.460000       0.078865       0.078851       0.190935
      19.470000       0.080163       0.078842       0.190980
      19.480000       0.081480       0.078689       0.191303
      19.490000       0.082781       0.078391       0.191832
      19.500000       0.084019       0.077975       0.192497
      19.510000       0.085146       0.077487       0.193240
      19.520000       0.086111       0.076990       0.194013
      19.530000       0.086871       0.076548       0.194777
      19.540000       0.087393       0.076217       0.195483
      19.550000       0.087662       0.076037       0.196069
      19.560000       0.087683       0.076025       0.196463
      19.570000       0.087482       0.076178       0.196600
      19.580000       0.087100       0.076469       0.196439
      19.590000       0.086589       0.076853       0.195976
      19.600000       0.086000       0.077279       0.195241
      19.610000       0.085378       0.077689       0.194288
      19.620000       0.084759       0.078035       0.193178
      19.630000       0.084169       0.078284       0.191963
      19.640000       0.083624       0.078422       0.190677
      19.650000       0.083135       0.078458       0.189336
      19.660000       0.082705       0.078418       0.187940
      19.670000       0.082333       0.078339       0.186478
      19.680000       0.082012       0.078259       0.184928
      19.690000       0.081731       0.078209       0.183262
      19.700000       0.081475       0.078208       0.181441
      19.710000       0.081233       0.078254       0.179424
      19.720000       0.080991       0.078328       0.177174
      19.730000       0.080735       0.078394       0.174679
      19.740000       0.080451       0.078411       0.171962
      19.750000       0.080124       0.078335       0.169089
      19.760000       0.079740       0.078133       0.166157
      19.770000       0.079293       0.077783       0.163275
      19.780000       0.078782       0.077271       0.160549
      19.790000       0.078214       0.076595       0.158065
      19.800000       0.077604       0.075757       0.155889
      19.810000       0.076967       0.074770       0.154072
      19.820000       0.076322       0.073656       0.152655
      19.830000       0.075687       0.072449       0.151673
      19.840000       0.075074       0.071189       0.151150
      19.850000       0.074487       0.069916       0.151092
      19.860000       0.073920       0.068667       0.151481
      19.870000       0.073355       0.067476       0.152270
      19.880000       0.072769       0.066368       0.153384
      19.890000       0.072144       0.065367       0.154725
      19.900000       0.071469       0.064497       0.156185
      19.910000       0.070742       0.063778       0.157659
      19.920000       0.069973       0.063228       0.159059
      19.930000       0.069172       0.062853       0.160332
      19.940000       0.068352       0.062651       0.161473
      19.950000       0.067517       0.062602       0.162519
      19.960000       0.066668       0.062673       0.163543
      19.970000       0.065807       0.062820       0.164626
      19.980000       0.064934       0.062995       0.165828
      19.990000       0.064058       0.063153       0.167170
      20.000000       0.063198       0.063262       0.168612
