  # energy grid [eV]     epsi_x  epsi_y  epsi_z
       0.000000            NaN            NaN            NaN
       0.010000       0.000086       0.000015       0.000143
       0.020000       0.000171       0.000029       0.000285
       0.030000       0.000257       0.000044       0.000428
       0.040000       0.000343       0.000059       0.000572
       0.050000       0.000429       0.000073       0.000716
       0.060000       0.000514       0.000088       0.000860
       0.070000       0.000600       0.000103       0.001006
       0.080000       0.000686       0.000117       0.001152
       0.090000       0.000772       0.000132       0.001300
       0.100000       0.000857       0.000146       0.001450
       0.110000       0.000943       0.000161       0.001600
       0.120000       0.001029       0.000176       0.001753
       0.130000       0.001115       0.000190       0.001907
       0.140000       0.001201       0.000205       0.002064
       0.150000       0.001287       0.000220       0.002223
       0.160000       0.001373       0.000234       0.002385
       0.170000       0.001459       0.000249       0.002549
       0.180000       0.001546       0.000264       0.002717
       0.190000       0.001632       0.000279       0.002887
       0.200000       0.001718       0.000293       0.003062
       0.210000       0.001804       0.000308       0.003241
       0.220000       0.001891       0.000323       0.003424
       0.230000       0.001977       0.000337       0.003611
       0.240000       0.002064       0.000352       0.003804
       0.250000       0.002151       0.000367       0.004003
       0.260000       0.002237       0.000382       0.004207
       0.270000       0.002324       0.000396       0.004419
       0.280000       0.002411       0.000411       0.004637
       0.290000       0.002498       0.000426       0.004864
       0.300000       0.002585       0.000441       0.005099
       0.310000       0.002672       0.000455       0.005343
       0.320000       0.002760       0.000470       0.005598
       0.330000       0.002847       0.000485       0.005863
       0.340000       0.002935       0.000500       0.006142
       0.350000       0.003022       0.000514       0.006433
       0.360000       0.003110       0.000529       0.006740
       0.370000       0.003198       0.000544       0.007063
       0.380000       0.003286       0.000559       0.007404
       0.390000       0.003374       0.000574       0.007765
       0.400000       0.003462       0.000589       0.008148
       0.410000       0.003551       0.000604       0.008556
       0.420000       0.003639       0.000618       0.008991
       0.430000       0.003728       0.000633       0.009456
       0.440000       0.003817       0.000648       0.009955
       0.450000       0.003906       0.000663       0.010493
       0.460000       0.003995       0.000678       0.011073
       0.470000       0.004085       0.000693       0.011701
       0.480000       0.004174       0.000708       0.012383
       0.490000       0.004264       0.000723       0.013126
       0.500000       0.004354       0.000738       0.013939
       0.510000       0.004444       0.000753       0.014830
       0.520000       0.004535       0.000768       0.015811
       0.530000       0.004625       0.000783       0.016893
       0.540000       0.004716       0.000798       0.018092
       0.550000       0.004807       0.000813       0.019422
       0.560000       0.004899       0.000828       0.020902
       0.570000       0.004991       0.000843       0.022553
       0.580000       0.005083       0.000858       0.024398
       0.590000       0.005175       0.000873       0.026459
       0.600000       0.005268       0.000889       0.028761
       0.610000       0.005361       0.000904       0.031327
       0.620000       0.005455       0.000919       0.034175
       0.630000       0.005549       0.000934       0.037314
       0.640000       0.005643       0.000949       0.040735
       0.650000       0.005738       0.000965       0.044405
       0.660000       0.005833       0.000980       0.048251
       0.670000       0.005928       0.000995       0.052152
       0.680000       0.006024       0.001010       0.055932
       0.690000       0.006119       0.001026       0.059361
       0.700000       0.006215       0.001041       0.062178
       0.710000       0.006310       0.001056       0.064128
       0.720000       0.006404       0.001072       0.065020
       0.730000       0.006498       0.001087       0.064769
       0.740000       0.006591       0.001102       0.063420
       0.750000       0.006684       0.001118       0.061139
       0.760000       0.006777       0.001133       0.058167
       0.770000       0.006869       0.001149       0.054769
       0.780000       0.006962       0.001164       0.051186
       0.790000       0.007055       0.001180       0.047613
       0.800000       0.007149       0.001195       0.044188
       0.810000       0.007243       0.001211       0.040997
       0.820000       0.007337       0.001226       0.038083
       0.830000       0.007432       0.001242       0.035464
       0.840000       0.007527       0.001258       0.033133
       0.850000       0.007623       0.001273       0.031077
       0.860000       0.007719       0.001289       0.029274
       0.870000       0.007816       0.001305       0.027700
       0.880000       0.007913       0.001321       0.026331
       0.890000       0.008011       0.001336       0.025145
       0.900000       0.008109       0.001352       0.024122
       0.910000       0.008207       0.001368       0.023243
       0.920000       0.008306       0.001384       0.022492
       0.930000       0.008405       0.001400       0.021856
       0.940000       0.008505       0.001416       0.021321
       0.950000       0.008605       0.001432       0.020878
       0.960000       0.008706       0.001447       0.020518
       0.970000       0.008807       0.001463       0.020232
       0.980000       0.008908       0.001479       0.020016
       0.990000       0.009010       0.001496       0.019863
       1.000000       0.009112       0.001512       0.019770
       1.010000       0.009214       0.001528       0.019732
       1.020000       0.009317       0.001544       0.019747
       1.030000       0.009420       0.001560       0.019813
       1.040000       0.009524       0.001576       0.019929
       1.050000       0.009628       0.001593       0.020094
       1.060000       0.009733       0.001609       0.020307
       1.070000       0.009838       0.001625       0.020568
       1.080000       0.009943       0.001641       0.020879
       1.090000       0.010049       0.001658       0.021242
       1.100000       0.010155       0.001674       0.021657
       1.110000       0.010262       0.001691       0.022127
       1.120000       0.010369       0.001707       0.022656
       1.130000       0.010476       0.001724       0.023248
       1.140000       0.010584       0.001740       0.023908
       1.150000       0.010693       0.001757       0.024640
       1.160000       0.010802       0.001774       0.025453
       1.170000       0.010911       0.001790       0.026352
       1.180000       0.011021       0.001807       0.027349
       1.190000       0.011131       0.001824       0.028452
       1.200000       0.011242       0.001841       0.029675
       1.210000       0.011353       0.001857       0.031032
       1.220000       0.011465       0.001874       0.032539
       1.230000       0.011578       0.001891       0.034215
       1.240000       0.011691       0.001908       0.036082
       1.250000       0.011804       0.001925       0.038167
       1.260000       0.011918       0.001942       0.040497
       1.270000       0.012033       0.001959       0.043106
       1.280000       0.012148       0.001976       0.046032
       1.290000       0.012263       0.001994       0.049317
       1.300000       0.012379       0.002011       0.053005
       1.310000       0.012496       0.002028       0.057144
       1.320000       0.012613       0.002045       0.061781
       1.330000       0.012731       0.002063       0.066958
       1.340000       0.012850       0.002080       0.072707
       1.350000       0.012969       0.002098       0.079033
       1.360000       0.013089       0.002115       0.085906
       1.370000       0.013209       0.002133       0.093237
       1.380000       0.013330       0.002150       0.100860
       1.390000       0.013452       0.002168       0.108511
       1.400000       0.013574       0.002186       0.115826
       1.410000       0.013697       0.002203       0.122352
       1.420000       0.013821       0.002221       0.127599
       1.430000       0.013945       0.002239       0.131115
       1.440000       0.014069       0.002257       0.132571
       1.450000       0.014194       0.002275       0.131835
       1.460000       0.014320       0.002293       0.129004
       1.470000       0.014447       0.002311       0.124380
       1.480000       0.014574       0.002329       0.118401
       1.490000       0.014701       0.002347       0.111557
       1.500000       0.014830       0.002365       0.104306
       1.510000       0.014959       0.002384       0.097031
       1.520000       0.015089       0.002402       0.090011
       1.530000       0.015220       0.002420       0.083429
       1.540000       0.015351       0.002439       0.077385
       1.550000       0.015483       0.002457       0.071920
       1.560000       0.015616       0.002476       0.067034
       1.570000       0.015750       0.002495       0.062699
       1.580000       0.015885       0.002513       0.058876
       1.590000       0.016020       0.002532       0.055519
       1.600000       0.016156       0.002551       0.052581
       1.610000       0.016294       0.002570       0.050016
       1.620000       0.016432       0.002589       0.047785
       1.630000       0.016571       0.002608       0.045848
       1.640000       0.016710       0.002627       0.044173
       1.650000       0.016851       0.002646       0.042732
       1.660000       0.016992       0.002665       0.041499
       1.670000       0.017135       0.002684       0.040453
       1.680000       0.017278       0.002704       0.039576
       1.690000       0.017423       0.002723       0.038852
       1.700000       0.017568       0.002743       0.038268
       1.710000       0.017714       0.002762       0.037812
       1.720000       0.017861       0.002782       0.037478
       1.730000       0.018009       0.002802       0.037256
       1.740000       0.018158       0.002821       0.037142
       1.750000       0.018309       0.002841       0.037130
       1.760000       0.018460       0.002861       0.037220
       1.770000       0.018612       0.002881       0.037408
       1.780000       0.018765       0.002901       0.037694
       1.790000       0.018920       0.002922       0.038080
       1.800000       0.019075       0.002942       0.038567
       1.810000       0.019231       0.002962       0.039158
       1.820000       0.019389       0.002983       0.039859
       1.830000       0.019548       0.003003       0.040674
       1.840000       0.019708       0.003024       0.041613
       1.850000       0.019869       0.003044       0.042683
       1.860000       0.020031       0.003065       0.043896
       1.870000       0.020194       0.003086       0.045264
       1.880000       0.020359       0.003107       0.046805
       1.890000       0.020525       0.003128       0.048535
       1.900000       0.020692       0.003149       0.050476
       1.910000       0.020860       0.003170       0.052654
       1.920000       0.021030       0.003192       0.055096
       1.930000       0.021201       0.003213       0.057837
       1.940000       0.021373       0.003234       0.060914
       1.950000       0.021547       0.003256       0.064371
       1.960000       0.021722       0.003278       0.068258
       1.970000       0.021898       0.003300       0.072629
       1.980000       0.022076       0.003321       0.077544
       1.990000       0.022255       0.003343       0.083064
       2.000000       0.022436       0.003366       0.089250
       2.010000       0.022618       0.003388       0.096158
       2.020000       0.022802       0.003410       0.103826
       2.030000       0.022987       0.003432       0.112262
       2.040000       0.023174       0.003455       0.121427
       2.050000       0.023362       0.003478       0.131213
       2.060000       0.023552       0.003500       0.141418
       2.070000       0.023743       0.003523       0.151734
       2.080000       0.023936       0.003546       0.161744
       2.090000       0.024131       0.003569       0.170945
       2.100000       0.024328       0.003592       0.178793
       2.110000       0.024526       0.003616       0.184777
       2.120000       0.024726       0.003639       0.188487
       2.130000       0.024927       0.003663       0.189671
       2.140000       0.025131       0.003686       0.188272
       2.150000       0.025336       0.003710       0.184428
       2.160000       0.025543       0.003734       0.178452
       2.170000       0.025752       0.003758       0.170791
       2.180000       0.025963       0.003782       0.161958
       2.190000       0.026176       0.003807       0.152473
       2.200000       0.026391       0.003831       0.142807
       2.210000       0.026608       0.003856       0.133341
       2.220000       0.026827       0.003881       0.124351
       2.230000       0.027048       0.003905       0.116014
       2.240000       0.027271       0.003930       0.108423
       2.250000       0.027496       0.003956       0.101609
       2.260000       0.027724       0.003981       0.095558
       2.270000       0.027954       0.004006       0.090232
       2.280000       0.028186       0.004032       0.085578
       2.290000       0.028421       0.004058       0.081537
       2.300000       0.028658       0.004084       0.078053
       2.310000       0.028897       0.004110       0.075069
       2.320000       0.029139       0.004136       0.072537
       2.330000       0.029383       0.004163       0.070413
       2.340000       0.029630       0.004189       0.068658
       2.350000       0.029879       0.004216       0.067238
       2.360000       0.030131       0.004243       0.066124
       2.370000       0.030386       0.004270       0.065289
       2.380000       0.030644       0.004297       0.064709
       2.390000       0.030904       0.004325       0.064360
       2.400000       0.031167       0.004352       0.064220
       2.410000       0.031434       0.004380       0.064264
       2.420000       0.031703       0.004408       0.064469
       2.430000       0.031975       0.004437       0.064812
       2.440000       0.032250       0.004465       0.065277
       2.450000       0.032529       0.004494       0.065857
       2.460000       0.032810       0.004522       0.066554
       2.470000       0.033095       0.004551       0.067382
       2.480000       0.033384       0.004581       0.068364
       2.490000       0.033675       0.004610       0.069528
       2.500000       0.033971       0.004640       0.070905
       2.510000       0.034269       0.004670       0.072527
       2.520000       0.034572       0.004700       0.074425
       2.530000       0.034878       0.004730       0.076631
       2.540000       0.035188       0.004761       0.079180
       2.550000       0.035502       0.004792       0.082110
       2.560000       0.035820       0.004823       0.085461
       2.570000       0.036142       0.004854       0.089281
       2.580000       0.036468       0.004886       0.093623
       2.590000       0.036799       0.004918       0.098548
       2.600000       0.037133       0.004950       0.104124
       2.610000       0.037472       0.004982       0.110423
       2.620000       0.037816       0.005015       0.117522
       2.630000       0.038165       0.005048       0.125497
       2.640000       0.038518       0.005081       0.134418
       2.650000       0.038876       0.005115       0.144332
       2.660000       0.039239       0.005149       0.155254
       2.670000       0.039607       0.005183       0.167144
       2.680000       0.039981       0.005217       0.179883
       2.690000       0.040360       0.005252       0.193253
       2.700000       0.040744       0.005287       0.206928
       2.710000       0.041135       0.005323       0.220479
       2.720000       0.041531       0.005358       0.233408
       2.730000       0.041932       0.005395       0.245195
       2.740000       0.042341       0.005431       0.255367
       2.750000       0.042755       0.005468       0.263540
       2.760000       0.043176       0.005505       0.269450
       2.770000       0.043603       0.005543       0.272954
       2.780000       0.044038       0.005581       0.274012
       2.790000       0.044479       0.005619       0.272663
       2.800000       0.044927       0.005658       0.269009
       2.810000       0.045383       0.005698       0.263205
       2.820000       0.045847       0.005737       0.255460
       2.830000       0.046318       0.005778       0.246049
       2.840000       0.046798       0.005818       0.235309
       2.850000       0.047286       0.005859       0.223635
       2.860000       0.047782       0.005901       0.211456
       2.870000       0.048288       0.005943       0.199194
       2.880000       0.048802       0.005986       0.187227
       2.890000       0.049326       0.006029       0.175858
       2.900000       0.049860       0.006073       0.165298
       2.910000       0.050403       0.006117       0.155677
       2.920000       0.050957       0.006162       0.147049
       2.930000       0.051522       0.006207       0.139416
       2.940000       0.052098       0.006253       0.132743
       2.950000       0.052686       0.006300       0.126978
       2.960000       0.053285       0.006347       0.122055
       2.970000       0.053897       0.006395       0.117910
       2.980000       0.054521       0.006444       0.114480
       2.990000       0.055159       0.006494       0.111709
       3.000000       0.055810       0.006544       0.109548
       3.010000       0.056476       0.006595       0.107957
       3.020000       0.057156       0.006647       0.106902
       3.030000       0.057852       0.006699       0.106355
       3.040000       0.058564       0.006753       0.106296
       3.050000       0.059292       0.006807       0.106706
       3.060000       0.060037       0.006863       0.107570
       3.070000       0.060801       0.006919       0.108871
       3.080000       0.061584       0.006976       0.110589
       3.090000       0.062386       0.007035       0.112702
       3.100000       0.063208       0.007094       0.115183
       3.110000       0.064052       0.007155       0.118004
       3.120000       0.064918       0.007216       0.121142
       3.130000       0.065807       0.007279       0.124589
       3.140000       0.066721       0.007344       0.128353
       3.150000       0.067661       0.007409       0.132473
       3.160000       0.068628       0.007477       0.137010
       3.170000       0.069623       0.007545       0.142053
       3.180000       0.070647       0.007615       0.147710
       3.190000       0.071703       0.007687       0.154098
       3.200000       0.072792       0.007760       0.161339
       3.210000       0.073915       0.007836       0.169547
       3.220000       0.075075       0.007913       0.178818
       3.230000       0.076274       0.007992       0.189215
       3.240000       0.077514       0.008074       0.200747
       3.250000       0.078797       0.008157       0.213353
       3.260000       0.080126       0.008243       0.226882
       3.270000       0.081504       0.008332       0.241075
       3.280000       0.082934       0.008423       0.255574
       3.290000       0.084420       0.008517       0.269943
       3.300000       0.085964       0.008614       0.283716
       3.310000       0.087571       0.008714       0.296453
       3.320000       0.089246       0.008818       0.307791
       3.330000       0.090993       0.008925       0.317473
       3.340000       0.092817       0.009037       0.325351
       3.350000       0.094725       0.009152       0.331372
       3.360000       0.096722       0.009272       0.335551
       3.370000       0.098816       0.009398       0.337942
       3.380000       0.101015       0.009528       0.338617
       3.390000       0.103327       0.009664       0.337645
       3.400000       0.105762       0.009807       0.335080
       3.410000       0.108331       0.009956       0.330961
       3.420000       0.111046       0.010113       0.325312
       3.430000       0.113920       0.010278       0.318159
       3.440000       0.116969       0.010452       0.309549
       3.450000       0.120209       0.010636       0.299579
       3.460000       0.123661       0.010830       0.288426
       3.470000       0.127345       0.011036       0.276354
       3.480000       0.131288       0.011256       0.263711
       3.490000       0.135515       0.011489       0.250893
       3.500000       0.140061       0.011740       0.238299
       3.510000       0.144962       0.012008       0.226284
       3.520000       0.150258       0.012296       0.215125
       3.530000       0.155999       0.012608       0.205010
       3.540000       0.162240       0.012945       0.196042
       3.550000       0.169043       0.013310       0.188258
       3.560000       0.176481       0.013708       0.181638
       3.570000       0.184637       0.014143       0.176131
       3.580000       0.193605       0.014620       0.171659
       3.590000       0.203492       0.015144       0.168131
       3.600000       0.214419       0.015722       0.165449
       3.610000       0.226520       0.016359       0.163514
       3.620000       0.239939       0.017065       0.162235
       3.630000       0.254829       0.017847       0.161535
       3.640000       0.271342       0.018711       0.161360
       3.650000       0.289615       0.019667       0.161683
       3.660000       0.309746       0.020717       0.162505
       3.670000       0.331763       0.021864       0.163851
       3.680000       0.355573       0.023102       0.165769
       3.690000       0.380900       0.024416       0.168322
       3.700000       0.407218       0.025776       0.171586
       3.710000       0.433693       0.027139       0.175643
       3.720000       0.459164       0.028442       0.180579
       3.730000       0.482210       0.029607       0.186481
       3.740000       0.501323       0.030555       0.193431
       3.750000       0.515193       0.031214       0.201498
       3.760000       0.523022       0.031540       0.210736
       3.770000       0.524744       0.031528       0.221169
       3.780000       0.521069       0.031213       0.232776
       3.790000       0.513305       0.030664       0.245481
       3.800000       0.503068       0.029963       0.259127
       3.810000       0.491976       0.029192       0.273475
       3.820000       0.481440       0.028425       0.288197
       3.830000       0.472564       0.027715       0.302902
       3.840000       0.466141       0.027101       0.317169
       3.850000       0.462702       0.026605       0.330608
       3.860000       0.462572       0.026242       0.342897
       3.870000       0.465931       0.026017       0.353815
       3.880000       0.472843       0.025929       0.363239
       3.890000       0.483270       0.025976       0.371132
       3.900000       0.497054       0.026151       0.377518
       3.910000       0.513876       0.026445       0.382456
       3.920000       0.533198       0.026846       0.386017
       3.930000       0.554199       0.027334       0.388266
       3.940000       0.575735       0.027886       0.389246
       3.950000       0.596356       0.028472       0.388970
       3.960000       0.614432       0.029062       0.387417
       3.970000       0.628390       0.029625       0.384530
       3.980000       0.637039       0.030139       0.380236
       3.990000       0.639859       0.030598       0.374462
       4.000000       0.637150       0.031011       0.367176
       4.010000       0.629954       0.031404       0.358432
       4.020000       0.619800       0.031811       0.348404
       4.030000       0.608375       0.032274       0.337404
       4.040000       0.597253       0.032832       0.325860
       4.050000       0.587735       0.033520       0.314260
       4.060000       0.580795       0.034367       0.303093
       4.070000       0.577112       0.035400       0.292788
       4.080000       0.577126       0.036638       0.283679
       4.090000       0.581103       0.038100       0.276000
       4.100000       0.589183       0.039798       0.269894
       4.110000       0.601403       0.041740       0.265436
       4.120000       0.617706       0.043927       0.262651
       4.130000       0.637915       0.046346       0.261536
       4.140000       0.661707       0.048968       0.262073
       4.150000       0.688581       0.051743       0.264240
       4.160000       0.717850       0.054598       0.268019
       4.170000       0.748677       0.057444       0.273401
       4.180000       0.780189       0.060184       0.280386
       4.190000       0.811629       0.062732       0.288985
       4.200000       0.842528       0.065031       0.299206
       4.210000       0.872783       0.067064       0.311037
       4.220000       0.902607       0.068844       0.324421
       4.230000       0.932336       0.070404       0.339221
       4.240000       0.962172       0.071762       0.355194
       4.250000       0.991983       0.072909       0.371973
       4.260000       1.021239       0.073797       0.389081
       4.270000       1.049124       0.074354       0.405975
       4.280000       1.074802       0.074508       0.422116
       4.290000       1.097732       0.074214       0.437052
       4.300000       1.117942       0.073479       0.450473
       4.310000       1.136131       0.072364       0.462229
       4.320000       1.153566       0.070980       0.472317
       4.330000       1.171787       0.069462       0.480840
       4.340000       1.192225       0.067948       0.487969
       4.350000       1.215842       0.066552       0.493898
       4.360000       1.242883       0.065356       0.498813
       4.370000       1.272778       0.064404       0.502876
       4.380000       1.304226       0.063703       0.506215
       4.390000       1.335430       0.063234       0.508915
       4.400000       1.364423       0.062960       0.511015
       4.410000       1.389405       0.062841       0.512506
       4.420000       1.408997       0.062844       0.513323
       4.430000       1.422346       0.062947       0.513349
       4.440000       1.429123       0.063140       0.512428
       4.450000       1.429432       0.063418       0.510384
       4.460000       1.423677       0.063773       0.507066
       4.470000       1.412410       0.064187       0.502406
       4.480000       1.396222       0.064631       0.496480
       4.490000       1.375732       0.065072       0.489555
       4.500000       1.351695       0.065487       0.482093
       4.510000       1.325162       0.065876       0.474708
       4.520000       1.297580       0.066272       0.468092
       4.530000       1.270722       0.066735       0.462922
       4.540000       1.246474       0.067346       0.459781
       4.550000       1.226565       0.068191       0.459118
       4.560000       1.212318       0.069351       0.461223
       4.570000       1.204507       0.070888       0.466226
       4.580000       1.203287       0.072849       0.474091
       4.590000       1.208219       0.075255       0.484626
       4.600000       1.218351       0.078107       0.497483
       4.610000       1.232372       0.081383       0.512175
       4.620000       1.248836       0.085037       0.528125
       4.630000       1.266401       0.088998       0.544721
       4.640000       1.284015       0.093170       0.561395
       4.650000       1.300990       0.097429       0.577677
       4.660000       1.316920       0.101621       0.593217
       4.670000       1.331520       0.105571       0.607785
       4.680000       1.344482       0.109095       0.621248
       4.690000       1.355397       0.112020       0.633551
       4.700000       1.363755       0.114203       0.644700
       4.710000       1.368988       0.115547       0.654747
       4.720000       1.370495       0.115997       0.663765
       4.730000       1.367694       0.115543       0.671848
       4.740000       1.360098       0.114210       0.679092
       4.750000       1.347474       0.112060       0.685591
       4.760000       1.330035       0.109198       0.691420
       4.770000       1.308585       0.105777       0.696616
       4.780000       1.284530       0.101988       0.701167
       4.790000       1.259726       0.098040       0.704998
       4.800000       1.236227       0.094137       0.707981
       4.810000       1.216020       0.090457       0.709960
       4.820000       1.200814       0.087134       0.710804
       4.830000       1.191929       0.084261       0.710474
       4.840000       1.190243       0.081888       0.709100
       4.850000       1.196187       0.080034       0.707035
       4.860000       1.209745       0.078687       0.704858
       4.870000       1.230431       0.077810       0.703323
       4.880000       1.257251       0.077346       0.703250
       4.890000       1.288666       0.077217       0.705391
       4.900000       1.322604       0.077332       0.710310
       4.910000       1.356582       0.077591       0.718316
       4.920000       1.387967       0.077903       0.729428
       4.930000       1.414402       0.078204       0.743399
       4.940000       1.434285       0.078468       0.759775
       4.950000       1.447179       0.078716       0.777980
       4.960000       1.453977       0.079014       0.797404
       4.970000       1.456748       0.079451       0.817483
       4.980000       1.458332       0.080130       0.837726
       4.990000       1.461837       0.081149       0.857722
       5.000000       1.470194       0.082596       0.877111
       5.010000       1.485891       0.084543       0.895562
       5.020000       1.510842       0.087049       0.912745
       5.030000       1.546380       0.090159       0.928311
       5.040000       1.593272       0.093901       0.941884
       5.050000       1.651730       0.098283       0.953077
       5.060000       1.721389       0.103289       0.961532
       5.070000       1.801271       0.108860       0.966975
       5.080000       1.889759       0.114893       0.969304
       5.090000       1.984607       0.121221       0.968660
       5.100000       2.083014       0.127616       0.965465
       5.110000       2.181732       0.133796       0.960380
       5.120000       2.277178       0.139440       0.954172
       5.130000       2.365532       0.144233       0.947539
       5.140000       2.442855       0.147902       0.940913
       5.150000       2.505290       0.150266       0.934333
       5.160000       2.549408       0.151264       0.927393
       5.170000       2.572704       0.150971       0.919287
       5.180000       2.574081       0.149584       0.908957
       5.190000       2.554157       0.147391       0.895296
       5.200000       2.515185       0.144721       0.877391
       5.210000       2.460630       0.141891       0.854739
       5.220000       2.394577       0.139175       0.827394
       5.230000       2.321212       0.136781       0.795985
       5.240000       2.244474       0.134848       0.761617
       5.250000       2.167847       0.133451       0.725668
       5.260000       2.094181       0.132592       0.689553
       5.270000       2.025528       0.132202       0.654527
       5.280000       1.963029       0.132144       0.621563
       5.290000       1.906895       0.132216       0.591320
       5.300000       1.856543       0.132180       0.564168
       5.310000       1.810845       0.131800       0.540245
       5.320000       1.768471       0.130889       0.519524
       5.330000       1.728210       0.129346       0.501863
       5.340000       1.689221       0.127176       0.487052
       5.350000       1.651135       0.124480       0.474844
       5.360000       1.614052       0.121427       0.464976
       5.370000       1.578477       0.118219       0.457192
       5.380000       1.545239       0.115057       0.451260
       5.390000       1.515406       0.112119       0.446991
       5.400000       1.490179       0.109554       0.444244
       5.410000       1.470766       0.107480       0.442930
       5.420000       1.458255       0.105981       0.442990
       5.430000       1.453521       0.105118       0.444376
       5.440000       1.457160       0.104931       0.447025
       5.450000       1.469449       0.105446       0.450853
       5.460000       1.490312       0.106676       0.455755
       5.470000       1.519263       0.108623       0.461629
       5.480000       1.555334       0.111276       0.468405
       5.490000       1.597015       0.114610       0.476088
       5.500000       1.642252       0.118582       0.484774
       5.510000       1.688570       0.123129       0.494654
       5.520000       1.733372       0.128171       0.505992
       5.530000       1.774388       0.133622       0.519092
       5.540000       1.810160       0.139393       0.534271
       5.550000       1.840354       0.145404       0.551835
       5.560000       1.865754       0.151576       0.572062
       5.570000       1.887908       0.157814       0.595195
       5.580000       1.908572       0.163975       0.621424
       5.590000       1.929186       0.169848       0.650863
       5.600000       1.950564       0.175157       0.683513
       5.610000       1.972865       0.179585       0.719220
       5.620000       1.995830       0.182836       0.757624
       5.630000       2.019131       0.184700       0.798129
       5.640000       2.042729       0.185106       0.839915
       5.650000       2.067092       0.184150       0.882011
       5.660000       2.093213       0.182079       0.923443
       5.670000       2.122446       0.179232       0.963439
       5.680000       2.156197       0.175979       1.001624
       5.690000       2.195567       0.172651       1.038148
       5.700000       2.241031       0.169488       1.073675
       5.710000       2.292216       0.166621       1.109226
       5.720000       2.347835       0.164072       1.145930
       5.730000       2.405831       0.161781       1.184734
       5.740000       2.463762       0.159658       1.226183
       5.750000       2.519362       0.157626       1.270306
       5.760000       2.571111       0.155664       1.316630
       5.770000       2.618605       0.153823       1.364300
       5.780000       2.662534       0.152206       1.412281
       5.790000       2.704348       0.150944       1.459580
       5.800000       2.745793       0.150158       1.505460
       5.810000       2.788589       0.149938       1.549588
       5.820000       2.834336       0.150327       1.592107
       5.830000       2.884556       0.151317       1.633591
       5.840000       2.940735       0.152850       1.674907
       5.850000       3.004248       0.154832       1.717025
       5.860000       3.076218       0.157137       1.760833
       5.870000       3.157443       0.159640       1.807025
       5.880000       3.248470       0.162239       1.856047
       5.890000       3.349798       0.164886       1.908087
       5.900000       3.462093       0.167587       1.963060
       5.910000       3.586282       0.170401       2.020584
       5.920000       3.723477       0.173409       2.079915
       5.930000       3.874791       0.176681       2.139890
       5.940000       4.041091       0.180258       2.198916
       5.950000       4.222750       0.184130       2.255081
       5.960000       4.419419       0.188229       2.306412
       5.970000       4.629852       0.192419       2.351214
       5.980000       4.851846       0.196497       2.388385
       5.990000       5.082359       0.200204       2.417553
       6.000000       5.317804       0.203258       2.439019
       6.010000       5.554453       0.205401       2.453559
       6.020000       5.788818       0.206449       2.462204
       6.030000       6.017893       0.206341       2.466082
       6.040000       6.239200       0.205161       2.466326
       6.050000       6.450683       0.203137       2.464012
       6.060000       6.650557       0.200608       2.460111
       6.070000       6.837162       0.197970       2.455465
       6.080000       7.008869       0.195612       2.450797
       6.090000       7.164005       0.193872       2.446745
       6.100000       7.300783       0.192990       2.443835
       6.110000       7.417274       0.193100       2.442373
       6.120000       7.511449       0.194219       2.442293
       6.130000       7.581296       0.196253       2.443054
       6.140000       7.625027       0.199001       2.443682
       6.150000       7.641349       0.202172       2.442941
       6.160000       7.629828       0.205404       2.439569
       6.170000       7.591323       0.208293       2.432482
       6.180000       7.528370       0.210436       2.420960
       6.190000       7.445327       0.211479       2.404807
       6.200000       7.348117       0.211171       2.384472
       6.210000       7.243554       0.209403       2.361064
       6.220000       7.138399       0.206230       2.336183
       6.230000       7.038393       0.201859       2.311630
       6.240000       6.947470       0.196610       2.289072
       6.250000       6.867286       0.190857       2.269789
       6.260000       6.797144       0.184972       2.254541
       6.270000       6.734311       0.179295       2.243555
       6.280000       6.674671       0.174104       2.236612
       6.290000       6.613551       0.169617       2.233173
       6.300000       6.546473       0.165990       2.232515
       6.310000       6.469669       0.163327       2.233834
       6.320000       6.380276       0.161685       2.236311
       6.330000       6.276326       0.161084       2.239180
       6.340000       6.156719       0.161505       2.241829
       6.350000       6.021329       0.162900       2.243908
       6.360000       5.871258       0.165180       2.245386
       6.370000       5.709114       0.168225       2.246528
       6.380000       5.539078       0.171874       2.247757
       6.390000       5.366590       0.175939       2.249489
       6.400000       5.197680       0.180222       2.251971
       6.410000       5.038143       0.184543       2.255225
       6.420000       4.892844       0.188776       2.259082
       6.430000       4.765307       0.192872       2.263276
       6.440000       4.657609       0.196866       2.267532
       6.450000       4.570489       0.200845       2.271610
       6.460000       4.503591       0.204909       2.275306
       6.470000       4.455765       0.209124       2.278460
       6.480000       4.425384       0.213491       2.280998
       6.490000       4.410630       0.217924       2.283026
       6.500000       4.409684       0.222246       2.284946
       6.510000       4.420787       0.226197       2.287542
       6.520000       4.442179       0.229463       2.291995
       6.530000       4.471983       0.231737       2.299782
       6.540000       4.508167       0.232787       2.312475
       6.550000       4.548620       0.232518       2.331478
       6.560000       4.591349       0.231002       2.357778
       6.570000       4.634657       0.228450       2.391761
       6.580000       4.677187       0.225159       2.433136
       6.590000       4.717764       0.221446       2.481004
       6.600000       4.755103       0.217599       2.534054
       6.610000       4.787509       0.213855       2.590852
       6.620000       4.812724       0.210410       2.650096
       6.630000       4.828012       0.207427       2.710768
       6.640000       4.830501       0.205057       2.772123
       6.650000       4.817723       0.203435       2.833579
       6.660000       4.788205       0.202678       2.894598
       6.670000       4.741918       0.202863       2.954631
       6.680000       4.680344       0.204020       3.013146
       6.690000       4.606100       0.206123       3.069729
       6.700000       4.522219       0.209099       3.124207
       6.710000       4.431378       0.212837       3.176782
       6.720000       4.335390       0.217207       3.228121
       6.730000       4.235107       0.222078       3.279362
       6.740000       4.130689       0.227330       3.331979
       6.750000       4.022075       0.232858       3.387492
       6.760000       3.909489       0.238565       3.447067
       6.770000       3.793825       0.244341       3.511109
       6.780000       3.676834       0.250049       3.578982
       6.790000       3.561022       0.255508       3.648972
       6.800000       3.449297       0.260505       3.718505
       6.810000       3.344485       0.264818       3.784574
       6.820000       3.248852       0.268248       3.844231
       6.830000       3.163781       0.270640       3.895027
       6.840000       3.089624       0.271906       3.935280
       6.850000       3.025738       0.272023       3.964130
       6.860000       2.970706       0.271043       3.981358
       6.870000       2.922703       0.269087       3.987043
       6.880000       2.879985       0.266339       3.981189
       6.890000       2.841369       0.263027       3.963491
       6.900000       2.806572       0.259389       3.933353
       6.910000       2.776270       0.255639       3.890164
       6.920000       2.751871       0.251936       3.833721
       6.930000       2.735120       0.248357       3.764621
       6.940000       2.727670       0.244914       3.684501
       6.950000       2.730770       0.241585       3.596017
       6.960000       2.745089       0.238367       3.502551
       6.970000       2.770660       0.235320       3.407696
       6.980000       2.806921       0.232586       3.314691
       6.990000       2.852787       0.230369       3.225955
       7.000000       2.906767       0.228896       3.142845
       7.010000       2.967057       0.228379       3.065640
       7.020000       3.031553       0.228976       2.993739
       7.030000       3.097751       0.230771       2.926008
       7.040000       3.162571       0.233759       2.861238
       7.050000       3.222238       0.237841       2.798619
       7.060000       3.272351       0.242822       2.738109
       7.070000       3.308273       0.248419       2.680577
       7.080000       3.325828       0.254281       2.627682
       7.090000       3.322181       0.260024       2.581525
       7.100000       3.296613       0.265288       2.544184
       7.110000       3.250886       0.269784       2.517285
       7.120000       3.188983       0.273339       2.501685
       7.130000       3.116295       0.275904       2.497297
       7.140000       3.038509       0.277533       2.503035
       7.150000       2.960547       0.278332       2.516839
       7.160000       2.885831       0.278422       2.535755
       7.170000       2.815994       0.277906       2.556086
       7.180000       2.751052       0.276882       2.573664
       7.190000       2.689941       0.275467       2.584258
       7.200000       2.631242       0.273809       2.584130
       7.210000       2.573854       0.272082       2.570616
       7.220000       2.517393       0.270448       2.542600
       7.230000       2.462216       0.269014       2.500713
       7.240000       2.409152       0.267795       2.447188
       7.250000       2.359155       0.266716       2.385430
       7.260000       2.313082       0.265646       2.319393
       7.270000       2.271646       0.264453       2.252966
       7.280000       2.235467       0.263073       2.189467
       7.290000       2.205079       0.261552       2.131345
       7.300000       2.180833       0.260053       2.080071
       7.310000       2.162707       0.258830       2.036182
       7.320000       2.150150       0.258168       1.999418
       7.330000       2.142054       0.258337       1.968890
       7.340000       2.136903       0.259546       1.943261
       7.350000       2.133064       0.261926       1.920920
       7.360000       2.129098       0.265519       1.900152
       7.370000       2.123997       0.270285       1.879316
       7.380000       2.117289       0.276107       1.857063
       7.390000       2.109046       0.282799       1.832572
       7.400000       2.099841       0.290113       1.805740
       7.410000       2.090664       0.297739       1.777242
       7.420000       2.082796       0.305316       1.748418
       7.430000       2.077652       0.312462       1.720993
       7.440000       2.076670       0.318822       1.696749
       7.450000       2.081274       0.324151       1.677253
       7.460000       2.092924       0.328384       1.663702
       7.470000       2.113168       0.331666       1.656898
       7.480000       2.143637       0.334331       1.657298
       7.490000       2.185951       0.336824       1.665075
       7.500000       2.241553       0.339597       1.680133
       7.510000       2.311494       0.343017       1.702073
       7.520000       2.396202       0.347289       1.730109
       7.530000       2.495244       0.352430       1.762963
       7.540000       2.607085       0.358268       1.798781
       7.550000       2.728901       0.364490       1.835130
       7.560000       2.856484       0.370716       1.869116
       7.570000       2.984343       0.376594       1.897683
       7.580000       3.106043       0.381884       1.918013
       7.590000       3.214795       0.386500       1.927911
       7.600000       3.304237       0.390504       1.926034
       7.610000       3.369320       0.394063       1.911905
       7.620000       3.407185       0.397389       1.885788
       7.630000       3.417837       0.400704       1.848575
       7.640000       3.404384       0.404222       1.801763
       7.650000       3.372618       0.408146       1.747455
       7.660000       3.329969       0.412657       1.688282
       7.670000       3.284135       0.417895       1.627162
       7.680000       3.241790       0.423947       1.566935
       7.690000       3.207698       0.430850       1.510002
       7.700000       3.184328       0.438616       1.458073
       7.710000       3.171884       0.447273       1.412075
       7.720000       3.168643       0.456893       1.372221
       7.730000       3.171470       0.467590       1.338167
       7.740000       3.176459       0.479497       1.309235
       7.750000       3.179611       0.492723       1.284635
       7.760000       3.177485       0.507315       1.263659
       7.770000       3.167709       0.523234       1.245830
       7.780000       3.149244       0.540356       1.230991
       7.790000       3.122330       0.558465       1.219320
       7.800000       3.088185       0.577241       1.211284
       7.810000       3.048595       0.596241       1.207531
       7.820000       3.005591       0.614915       1.208752
       7.830000       2.961283       0.632678       1.215537
       7.840000       2.917792       0.649050       1.228241
       7.850000       2.877169       0.663833       1.246900
       7.860000       2.841222       0.677238       1.271176
       7.870000       2.811264       0.689915       1.300356
       7.880000       2.787873       0.702845       1.333385
       7.890000       2.770749       0.717153       1.368916
       7.900000       2.758736       0.733883       1.405382
       7.910000       2.750045       0.753813       1.441083
       7.920000       2.742630       0.777318       1.474312
       7.930000       2.734607       0.804300       1.503521
       7.940000       2.724587       0.834172       1.527507
       7.950000       2.711800       0.865889       1.545551
       7.960000       2.696002       0.898030       1.557438
       7.970000       2.677285       0.928917       1.563339
       7.980000       2.655921       0.956757       1.563604
       7.990000       2.632311       0.979807       1.558596
       8.000000       2.607023       0.996547       1.548638
       8.010000       2.580874       1.005847       1.534077
       8.020000       2.554987       1.007122       1.515379
       8.030000       2.530822       1.000434       1.493173
       8.040000       2.510151       0.986515       1.468210
       8.050000       2.494979       0.966694       1.441270
       8.060000       2.487376       0.942738       1.413062
       8.070000       2.489235       0.916620       1.384160
       8.080000       2.502007       0.890269       1.355001
       8.090000       2.526482       0.865339       1.325936
       8.100000       2.562693       0.843049       1.297323
       8.110000       2.609993       0.824114       1.269613
       8.120000       2.667265       0.808778       1.243376
       8.130000       2.733246       0.796924       1.219251
       8.140000       2.806821       0.788239       1.197845
       8.150000       2.887156       0.782399       1.179630
       8.160000       2.973565       0.779207       1.164879
       8.170000       3.065114       0.778679       1.153656
       8.180000       3.160105       0.781014       1.145872
       8.190000       3.255649       0.786511       1.141381
       8.200000       3.347520       0.795429       1.140089
       8.210000       3.430390       0.807859       1.142046
       8.220000       3.498443       0.823630       1.147460
       8.230000       3.546228       0.842263       1.156641
       8.240000       3.569562       0.862998       1.169862
       8.250000       3.566247       0.884890       1.187177
       8.260000       3.536425       0.906945       1.208230
       8.270000       3.482494       0.928272       1.232090
       8.280000       3.408627       0.948182       1.257182
       8.290000       3.320046       0.966220       1.281355
       8.300000       3.222295       0.982133       1.302126
       8.310000       3.120669       0.995807       1.317101
       8.320000       3.019885       1.007223       1.324477
       8.330000       2.923962       1.016442       1.323481
       8.340000       2.836215       1.023616       1.314581
       8.350000       2.759291       1.028986       1.299377
       8.360000       2.695202       1.032856       1.280230
       8.370000       2.645340       1.035531       1.259764
       8.380000       2.610481       1.037251       1.240412
       8.390000       2.590788       1.038162       1.224104
       8.400000       2.585782       1.038322       1.212140
       8.410000       2.594285       1.037744       1.205214
       8.420000       2.614330       1.036426       1.203520
       8.430000       2.643099       1.034372       1.206904
       8.440000       2.676971       1.031592       1.214979
       8.450000       2.711764       1.028112       1.227162
       8.460000       2.743205       1.023996       1.242648
       8.470000       2.767556       1.019366       1.260341
       8.480000       2.782205       1.014401       1.278841
       8.490000       2.786035       1.009307       1.296525
       8.500000       2.779456       1.004295       1.311737
       8.510000       2.764152       0.999605       1.323043
       8.520000       2.742665       0.995557       1.329466
       8.530000       2.717933       0.992612       1.330619
       8.540000       2.692834       0.991371       1.326726
       8.550000       2.669791       0.992504       1.318530
       8.560000       2.650494       0.996613       1.307139
       8.570000       2.635796       1.004096       1.293849
       8.580000       2.625814       1.015024       1.279972
       8.590000       2.620184       1.029078       1.266696
       8.600000       2.618384       1.045541       1.254987
       8.610000       2.620024       1.063368       1.245548
       8.620000       2.624993       1.081333       1.238818
       8.630000       2.633402       1.098218       1.235018
       8.640000       2.645369       1.113003       1.234189
       8.650000       2.660722       1.124990       1.236238
       8.660000       2.678772       1.133840       1.240959
       8.670000       2.698260       1.139524       1.248042
       8.680000       2.717542       1.142219       1.257090
       8.690000       2.734974       1.142189       1.267617
       8.700000       2.749333       1.139685       1.279060
       8.710000       2.760125       1.134886       1.290801
       8.720000       2.767639       1.127919       1.302205
       8.730000       2.772817       1.118950       1.312670
       8.740000       2.777066       1.108291       1.321663
       8.750000       2.782089       1.096465       1.328737
       8.760000       2.789770       1.084197       1.333550
       8.770000       2.802013       1.072342       1.335882
       8.780000       2.820544       1.061783       1.335671
       8.790000       2.846672       1.053325       1.333030
       8.800000       2.881092       1.047612       1.328232
       8.810000       2.923769       1.045035       1.321662
       8.820000       2.973917       1.045657       1.313741
       8.830000       3.030106       1.049163       1.304851
       8.840000       3.090479       1.054859       1.295309
       8.850000       3.153068       1.061729       1.285388
       8.860000       3.216137       1.068558       1.275382
       8.870000       3.278426       1.074105       1.265672
       8.880000       3.339210       1.077302       1.256765
       8.890000       3.398121       1.077447       1.249256
       8.900000       3.454783       1.074336       1.243749
       8.910000       3.508416       1.068295       1.240746
       8.920000       3.557587       1.060106       1.240555
       8.930000       3.600215       1.050839       1.243243
       8.940000       3.633857       1.041644       1.248664
       8.950000       3.656173       1.033558       1.256533
       8.960000       3.665420       1.027375       1.266538
       8.970000       3.660833       1.023601       1.278442
       8.980000       3.642812       1.022492       1.292144
       8.990000       3.612896       1.024137       1.307691
       9.000000       3.573582       1.028525       1.325233
       9.010000       3.528044       1.035558       1.344943
       9.020000       3.479798       1.044994       1.366936
       9.030000       3.432337       1.056363       1.391202
       9.040000       3.388776       1.068914       1.417569
       9.050000       3.351566       1.081632       1.445692
       9.060000       3.322335       1.093358       1.475063
       9.070000       3.301894       1.102993       1.505042
       9.080000       3.290361       1.109731       1.534911
       9.090000       3.287340       1.113232       1.563954
       9.100000       3.292067       1.113659       1.591580
       9.110000       3.303480       1.111552       1.617435
       9.120000       3.320206       1.107599       1.641473
       9.130000       3.340491       1.102424       1.663937
       9.140000       3.362185       1.096469       1.685256
       9.150000       3.382884       1.090007       1.705914
       9.160000       3.400287       1.083246       1.726355
       9.170000       3.412700       1.076449       1.746968
       9.180000       3.419481       1.070029       1.768152
       9.190000       3.421219       1.064589       1.790390
       9.200000       3.419519       1.060923       1.814277
       9.210000       3.416449       1.059965       1.840460
       9.220000       3.413854       1.062711       1.869510
       9.230000       3.412750       1.070107       1.901797
       9.240000       3.412980       1.082941       1.937418
       9.250000       3.413185       1.101740       1.976198
       9.260000       3.411046       1.126688       2.017770
       9.270000       3.403704       1.157565       2.061685
       9.280000       3.388251       1.193693       2.107526
       9.290000       3.362200       1.233905       2.155015
       9.300000       3.323895       1.276559       2.204077
       9.310000       3.272816       1.319658       2.254867
       9.320000       3.209752       1.361071       2.307736
       9.330000       3.136741       1.398843       2.363174
       9.340000       3.056789       1.431501       2.421737
       9.350000       2.973374       1.458258       2.483992
       9.360000       2.889908       1.479028       2.550506
       9.370000       2.809292       1.494276       2.621844
       9.380000       2.733658       1.504743       2.698591
       9.390000       2.664330       1.511165       2.781365
       9.400000       2.601929       1.514072       2.870846
       9.410000       2.546583       1.513712       2.967804
       9.420000       2.498154       1.510080       3.073124
       9.430000       2.456410       1.503003       3.187831
       9.440000       2.421099       1.492201       3.313077
       9.450000       2.391922       1.477315       3.450103
       9.460000       2.368470       1.457942       3.600158
       9.470000       2.350224       1.433730       3.764399
       9.480000       2.336663       1.404561       3.943803
       9.490000       2.327464       1.370763       4.139066
       9.500000       2.322705       1.333234       4.350492
       9.510000       2.322968       1.293409       4.577833
       9.520000       2.329255       1.253062       4.820087
       9.530000       2.342724       1.214016       5.075279
       9.540000       2.364318       1.177861       5.340341
       9.550000       2.394420       1.145761       5.611165
       9.560000       2.432633       1.118397       5.882855
       9.570000       2.477765       1.096032       6.150126
       9.580000       2.528004       1.078659       6.407707
       9.590000       2.581253       1.066177       6.650610
       9.600000       2.635502       1.058523       6.874174
       9.610000       2.689110       1.055724       7.073952
       9.620000       2.740870       1.057864       7.245599
       9.630000       2.789867       1.064988       7.384996
       9.640000       2.835229       1.076990       7.488696
       9.650000       2.875931       1.093535       7.554602
       9.660000       2.910740       1.114017       7.582620
       9.670000       2.938304       1.137571       7.574984
       9.680000       2.957326       1.163147       7.536117
       9.690000       2.966744       1.189614       7.472004
       9.700000       2.965911       1.215914       7.389284
       9.710000       2.954708       1.241200       7.294318
       9.720000       2.933574       1.264951       7.192495
       9.730000       2.903393       1.286998       7.087873
       9.740000       2.865276       1.307487       6.983117
       9.750000       2.820314       1.326784       6.879594
       9.760000       2.769386       1.345354       6.777529
       9.770000       2.713092       1.363635       6.676208
       9.780000       2.651803       1.381913       6.574256
       9.790000       2.585812       1.400243       6.469990
       9.800000       2.515556       1.418404       6.361827
       9.810000       2.441822       1.435908       6.248672
       9.820000       2.365843       1.452052       6.130246
       9.830000       2.289204       1.466022       6.007320
       9.840000       2.213592       1.477066       5.881835
       9.850000       2.140466       1.484718       5.756836
       9.860000       2.070806       1.489004       5.636169
       9.870000       2.005016       1.490552       5.523940
       9.880000       1.942994       1.490530       5.423814
       9.890000       1.884333       1.490405       5.338323
       9.900000       1.828565       1.491628       5.268348
       9.910000       1.775387       1.495346       5.212874
       9.920000       1.724797       1.502261       5.169052
       9.930000       1.677137       1.512656       5.132534
       9.940000       1.633041       1.526525       5.098051
       9.950000       1.593321       1.543726       5.060146
       9.960000       1.558798       1.564035       5.013976
       9.970000       1.530144       1.587100       4.955987
       9.980000       1.507732       1.612325       4.884333
       9.990000       1.491562       1.638794       4.798953
      10.000000       1.481261       1.665296       4.701366
      10.010000       1.476170       1.690487       4.594308
      10.020000       1.475494       1.713111       4.481338
      10.030000       1.478481       1.732194       4.366481
      10.040000       1.484574       1.747177       4.253880
      10.050000       1.493508       1.757961       4.147433
      10.060000       1.505325       1.764898       4.050416
      10.070000       1.520286       1.768725       3.965187
      10.080000       1.538693       1.770420       3.893005
      10.090000       1.560663       1.770974       3.834007
      10.100000       1.585902       1.771156       3.787274
      10.110000       1.613557       1.771333       3.750987
      10.120000       1.642189       1.771402       3.722639
      10.130000       1.669897       1.770831       3.699317
      10.140000       1.694610       1.768814       3.678055
      10.150000       1.714478       1.764520       3.656215
      10.160000       1.728284       1.757388       3.631809
      10.170000       1.735709       1.747391       3.603648
      10.180000       1.737378       1.735147       3.571265
      10.190000       1.734647       1.721800       3.534647
      10.200000       1.729261       1.708702       3.493894
      10.210000       1.723006       1.697018       3.448965
      10.220000       1.717484       1.687400       3.399605
      10.230000       1.714014       1.679879       3.345460
      10.240000       1.713619       1.674014       3.286338
      10.250000       1.717019       1.669222       3.222475
      10.260000       1.724585       1.665163       3.154737
      10.270000       1.736268       1.661979       3.084638
      10.280000       1.751573       1.660294       3.014172
      10.290000       1.769607       1.660976       2.945479
      10.300000       1.789261       1.664795       2.880468
      10.310000       1.809468       1.672103       2.820519
      10.320000       1.829491       1.682673       2.766332
      10.330000       1.849103       1.695709       2.717954
      10.340000       1.868610       1.710022       2.674936
      10.350000       1.888690       1.724287       2.636558
      10.360000       1.910135       1.737322       2.602048
      10.370000       1.933587       1.748300       2.570756
      10.380000       1.959345       1.756885       2.542242
      10.390000       1.987308       1.763276       2.516294
      10.400000       2.017051       1.768174       2.492893
      10.410000       2.047977       1.772707       2.472152
      10.420000       2.079492       1.778302       2.454283
      10.430000       2.111089       1.786507       2.439562
      10.440000       2.142309       1.798753       2.428312
      10.450000       2.172620       1.816101       2.420855
      10.460000       2.201273       1.839019       2.417430
      10.470000       2.227236       1.867269       2.418086
      10.480000       2.249249       1.899917       2.422575
      10.490000       2.265988       1.935479       2.430300
      10.500000       2.276269       1.972180       2.440339
      10.510000       2.279217       2.008265       2.451560
      10.520000       2.274342       2.042346       2.462779
      10.530000       2.261555       2.073700       2.472927
      10.540000       2.241125       2.102434       2.481159
      10.550000       2.213590       2.129432       2.486905
      10.560000       2.179630       2.156075       2.489891
      10.570000       2.139920       2.183787       2.490162
      10.580000       2.095024       2.213544       2.488102
      10.590000       2.045381       2.245476       2.484435
      10.600000       1.991382       2.278679       2.480158
      10.610000       1.933500       2.311318       2.476418
      10.620000       1.872391       2.340995       2.474307
      10.630000       1.808958       2.365291       2.474662
      10.640000       1.744346       2.382330       2.477895
      10.650000       1.679889       2.391163       2.483936
      10.660000       1.616996       2.391876       2.492307
      10.670000       1.557033       2.385407       2.502322
      10.680000       1.501206       2.373199       2.513335
      10.690000       1.450493       2.356850       2.524976
      10.700000       1.405623       2.337868       2.537288
      10.710000       1.367071       2.317575       2.550721
      10.720000       1.335066       2.297107       2.566003
      10.730000       1.309582       2.277449       2.583914
      10.740000       1.290335       2.259436       2.605016
      10.750000       1.276792       2.243712       2.629432
      10.760000       1.268202       2.230662       2.656709
      10.770000       1.263654       2.220359       2.685827
      10.780000       1.262163       2.212576       2.715329
      10.790000       1.262774       2.206866       2.743531
      10.800000       1.264651       2.202709       2.768723
      10.810000       1.267138       2.199664       2.789330
      10.820000       1.269759       2.197466       2.803979
      10.830000       1.272178       2.196029       2.811483
      10.840000       1.274137       2.195351       2.810793
      10.850000       1.275428       2.195354       2.800974
      10.860000       1.275889       2.195726       2.781256
      10.870000       1.275442       2.195867       2.751189
      10.880000       1.274139       2.194991       2.710838
      10.890000       1.272169       2.192348       2.660942
      10.900000       1.269822       2.187459       2.602960
      10.910000       1.267383       2.180225       2.538983
      10.920000       1.265009       2.170858       2.471544
      10.930000       1.262633       2.159702       2.403386
      10.940000       1.259948       2.147034       2.337218
      10.950000       1.256496       2.132959       2.275485
      10.960000       1.251815       2.117440       2.220191
      10.970000       1.245604       2.100428       2.172795
      10.980000       1.237827       2.082021       2.134183
      10.990000       1.228724       2.062543       2.104721
      11.000000       1.218720       2.042483       2.084331
      11.010000       1.208283       2.022349       2.072579
      11.020000       1.197782       2.002503       2.068775
      11.030000       1.187391       1.983085       2.072095
      11.040000       1.177072       1.964026       2.081728
      11.050000       1.166621       1.945117       2.097033
      11.060000       1.155782       1.926100       2.117622
      11.070000       1.144391       1.906755       2.143356
      11.080000       1.132515       1.886996       2.174244
      11.090000       1.120541       1.866923       2.210301
      11.100000       1.109151       1.846818       2.251432
      11.110000       1.099215       1.827045       2.297378
      11.120000       1.091606       1.807893       2.347710
      11.130000       1.087035       1.789436       2.401862
      11.140000       1.085919       1.771474       2.459159
      11.150000       1.088336       1.753608       2.518823
      11.160000       1.094038       1.735381       2.579950
      11.170000       1.102525       1.716433       2.641464
      11.180000       1.113159       1.696580       2.702096
      11.190000       1.125302       1.675839       2.760415
      11.200000       1.138442       1.654406       2.814930
      11.210000       1.152275       1.632636       2.864245
      11.220000       1.166708       1.611034       2.907199
      11.230000       1.181774       1.590265       2.942950
      11.240000       1.197503       1.571138       2.970977
      11.250000       1.213789       1.554575       2.991039
      11.260000       1.230301       1.541521       3.003133
      11.270000       1.246444       1.532817       3.007493
      11.280000       1.261390       1.529081       3.004632
      11.290000       1.274157       1.530617       2.995401
      11.300000       1.283765       1.537431       2.981016
      11.310000       1.289439       1.549303       2.963003
      11.320000       1.290838       1.565919       2.943064
      11.330000       1.288198       1.586972       2.922885
      11.340000       1.282344       1.612215       2.903917
      11.350000       1.274534       1.641450       2.887210
      11.360000       1.266193       1.674504       2.873300
      11.370000       1.258633       1.711203       2.862207
      11.380000       1.252828       1.751352       2.853514
      11.390000       1.249319       1.794680       2.846534
      11.400000       1.248240       1.840732       2.840502
      11.410000       1.249433       1.888708       2.834758
      11.420000       1.252597       1.937311       2.828895
      11.430000       1.257399       1.984691       2.822823
      11.440000       1.263513       2.028561       2.816758
      11.450000       1.270581       2.066507       2.811103
      11.460000       1.278152       2.096406       2.806264
      11.470000       1.285649       2.116815       2.802417
      11.480000       1.292399       2.127181       2.799332
      11.490000       1.297718       2.127830       2.796298
      11.500000       1.301021       2.119748       2.792191
      11.510000       1.301888       2.104263       2.785672
      11.520000       1.300068       2.082737       2.775424
      11.530000       1.295406       2.056360       2.760373
      11.540000       1.287749       2.026062       2.739840
      11.550000       1.276878       1.992534       2.713602
      11.560000       1.262493       1.956307       2.681888
      11.570000       1.244282       1.917861       2.645320
      11.580000       1.222026       1.877735       2.604792
      11.590000       1.195715       1.836629       2.561345
      11.600000       1.165665       1.795477       2.516035
      11.610000       1.132582       1.755451       2.469844
      11.620000       1.097536       1.717928       2.423630
      11.630000       1.061841       1.684392       2.378086
      11.640000       1.026855       1.656302       2.333697
      11.650000       0.993775       1.634945       2.290693
      11.660000       0.963486       1.621293       2.249025
      11.670000       0.936496       1.615917       2.208401
      11.680000       0.912965       1.618952       2.168348
      11.690000       0.892785       1.630124       2.128294
      11.700000       0.875675       1.648824       2.087605
      11.710000       0.861265       1.674192       2.045596
      11.720000       0.849142       1.705172       2.001538
      11.730000       0.838870       1.740498       1.954729
      11.740000       0.829977       1.778639       1.904621
      11.750000       0.821951       1.817756       1.851018
      11.760000       0.814258       1.855754       1.794245
      11.770000       0.806404       1.890447       1.735235
      11.780000       0.798009       1.919790       1.675454
      11.790000       0.788873       1.942084       1.616683
      11.800000       0.778998       1.956098       1.560708
      11.810000       0.768554       1.961087       1.509021
      11.820000       0.757816       1.956747       1.462605
      11.830000       0.747084       1.943146       1.421862
      11.840000       0.736626       1.920668       1.386663
      11.850000       0.726645       1.889981       1.356502
      11.860000       0.717265       1.852034       1.330712
      11.870000       0.708549       1.808102       1.308682
      11.880000       0.700520       1.759838       1.290040
      11.890000       0.693187       1.709270       1.274739
      11.900000       0.686570       1.658688       1.263021
      11.910000       0.680728       1.610421       1.255297
      11.920000       0.675779       1.566583       1.251969
      11.930000       0.671922       1.528846       1.253274
      11.940000       0.669420       1.498328       1.259171
      11.950000       0.668573       1.475569       1.269277
      11.960000       0.669661       1.460583       1.282847
      11.970000       0.672890       1.452969       1.298779
      11.980000       0.678346       1.452053       1.315639
      11.990000       0.685986       1.457072       1.331727
      12.000000       0.695646       1.467370       1.345205
      12.010000       0.707073       1.482558       1.354292
      12.020000       0.719958       1.502580       1.357493
      12.030000       0.733946       1.527658       1.353827
      12.040000       0.748640       1.558112       1.342957
      12.050000       0.763608       1.594132       1.325219
      12.060000       0.778400       1.635576       1.301510
      12.070000       0.792596       1.681837       1.273100
      12.080000       0.805852       1.731831       1.241384
      12.090000       0.817936       1.784054       1.207661
      12.100000       0.828709       1.836689       1.172982
      12.110000       0.838088       1.887703       1.138099
      12.120000       0.845989       1.934930       1.103513
      12.130000       0.852278       1.976170       1.069569
      12.140000       0.856760       2.009349       1.036570
      12.150000       0.859202       2.032750       1.004849
      12.160000       0.859377       2.045255       0.974785
      12.170000       0.857114       2.046502       0.946779
      12.180000       0.852328       2.036893       0.921190
      12.190000       0.845030       2.017451       0.898291
      12.200000       0.835316       1.989619       0.878231
      12.210000       0.823357       1.955077       0.861039
      12.220000       0.809406       1.915616       0.846644
      12.230000       0.793821       1.873067       0.834913
      12.240000       0.777072       1.829228       0.825694
      12.250000       0.759742       1.785766       0.818858
      12.260000       0.742493       1.744099       0.814345
      12.270000       0.725995       1.705270       0.812189
      12.280000       0.710855       1.669860       0.812528
      12.290000       0.697540       1.637981       0.815589
      12.300000       0.686319       1.609385       0.821645
      12.310000       0.677253       1.583667       0.830945
      12.320000       0.670210       1.560513       0.843644
      12.330000       0.664919       1.539886       0.859727
      12.340000       0.661028       1.522058       0.878943
      12.350000       0.658178       1.507472       0.900764
      12.360000       0.656071       1.496483       0.924364
      12.370000       0.654523       1.489070       0.948628
      12.380000       0.653481       1.484635       0.972181
      12.390000       0.653003       1.481967       0.993446
      12.400000       0.653194       1.479402       1.010744
      12.410000       0.654147       1.475157       1.022443
      12.420000       0.655904       1.467768       1.027171
      12.430000       0.658450       1.456486       1.024037
      12.440000       0.661725       1.441510       1.012799
      12.450000       0.665641       1.423947       0.993900
      12.460000       0.670089       1.405522       0.968355
      12.470000       0.674944       1.388160       0.937544
      12.480000       0.680101       1.373576       0.902987
      12.490000       0.685512       1.363014       0.866168
      12.500000       0.691235       1.357140       0.828437
      12.510000       0.697444       1.356084       0.790948
      12.520000       0.704384       1.359559       0.754643
      12.530000       0.712300       1.367011       0.720249
      12.540000       0.721349       1.377769       0.688296
      12.550000       0.731533       1.391161       0.659139
      12.560000       0.742675       1.406604       0.632988
      12.570000       0.754446       1.423661       0.609938
      12.580000       0.766439       1.442064       0.589994
      12.590000       0.778276       1.461727       0.573079
      12.600000       0.789699       1.482735       0.559052
      12.610000       0.800614       1.505303       0.547703
      12.620000       0.811051       1.529716       0.538757
      12.630000       0.821081       1.556254       0.531887
      12.640000       0.830732       1.585125       0.526736
      12.650000       0.839945       1.616415       0.522957
      12.660000       0.848601       1.650038       0.520256
      12.670000       0.856563       1.685684       0.518432
      12.680000       0.863718       1.722785       0.517398
      12.690000       0.869957       1.760527       0.517177
      12.700000       0.875115       1.797939       0.517860
      12.710000       0.878900       1.834015       0.519565
      12.720000       0.880867       1.867812       0.522392
      12.730000       0.880446       1.898473       0.526395
      12.740000       0.877042       1.925147       0.531588
      12.750000       0.870139       1.946893       0.537956
      12.760000       0.859426       1.962630       0.545483
      12.770000       0.844879       1.971203       0.554166
      12.780000       0.826806       1.971553       0.564009
      12.790000       0.805817       1.962942       0.574997
      12.800000       0.782736       1.945119       0.587060
      12.810000       0.758470       1.918417       0.600029
      12.820000       0.733894       1.883741       0.613598
      12.830000       0.709770       1.842492       0.627336
      12.840000       0.686706       1.796431       0.640730
      12.850000       0.665146       1.747490       0.653277
      12.860000       0.645367       1.697552       0.664597
      12.870000       0.627486       1.648237       0.674499
      12.880000       0.611466       1.600775       0.682998
      12.890000       0.597147       1.556001       0.690255
      12.900000       0.584297       1.514461       0.696491
      12.910000       0.572667       1.476578       0.701902
      12.920000       0.562054       1.442764       0.706615
      12.930000       0.552327       1.413428       0.710684
      12.940000       0.543426       1.388893       0.714122
      12.950000       0.535329       1.369240       0.716946
      12.960000       0.528018       1.354181       0.719212
      12.970000       0.521440       1.342975       0.721034
      12.980000       0.515504       1.334470       0.722556
      12.990000       0.510097       1.327237       0.723929
      13.000000       0.505119       1.319812       0.725260
      13.010000       0.500528       1.310948       0.726580
      13.020000       0.496357       1.299829       0.727815
      13.030000       0.492710       1.286185       0.728775
      13.040000       0.489719       1.270295       0.729157
      13.050000       0.487499       1.252894       0.728579
      13.060000       0.486100       1.235026       0.726635
      13.070000       0.485476       1.217865       0.722963
      13.080000       0.485484       1.202558       0.717310
      13.090000       0.485899       1.190089       0.709576
      13.100000       0.486461       1.181172       0.699823
      13.110000       0.486918       1.176189       0.688255
      13.120000       0.487079       1.175173       0.675199
      13.130000       0.486840       1.177837       0.661082
      13.140000       0.486193       1.183669       0.646412
      13.150000       0.485208       1.192054       0.631745
      13.160000       0.484012       1.202390       0.617640
      13.170000       0.482760       1.214174       0.604602
      13.180000       0.481626       1.227042       0.593038
      13.190000       0.480803       1.240788       0.583228
      13.200000       0.480505       1.255379       0.575325
      13.210000       0.480964       1.270954       0.569384
      13.220000       0.482413       1.287780       0.565391
      13.230000       0.485049       1.306125       0.563304
      13.240000       0.488985       1.326073       0.563073
      13.250000       0.494203       1.347344       0.564657
      13.260000       0.500520       1.369199       0.568004
      13.270000       0.507575       1.390481       0.573033
      13.280000       0.514858       1.409793       0.579593
      13.290000       0.521770       1.425735       0.587421
      13.300000       0.527717       1.437132       0.596110
      13.310000       0.532225       1.443164       0.605102
      13.320000       0.535026       1.443399       0.613728
      13.330000       0.536108       1.437768       0.621283
      13.340000       0.535704       1.426531       0.627149
      13.350000       0.534241       1.410260       0.630898
      13.360000       0.532255       1.389843       0.632352
      13.370000       0.530322       1.366434       0.631594
      13.380000       0.528977       1.341364       0.628906
      13.390000       0.528654       1.315988       0.624696
      13.400000       0.529634       1.291517       0.619428
      13.410000       0.532017       1.268881       0.613571
      13.420000       0.535713       1.248637       0.607568
      13.430000       0.540453       1.230940       0.601819
      13.440000       0.545816       1.215579       0.596675
      13.450000       0.551273       1.202077       0.592433
      13.460000       0.556244       1.189814       0.589334
      13.470000       0.560174       1.178177       0.587561
      13.480000       0.562629       1.166660       0.587241
      13.490000       0.563378       1.154945       0.588438
      13.500000       0.562447       1.142918       0.591153
      13.510000       0.560122       1.130664       0.595314
      13.520000       0.556895       1.118397       0.600779
      13.530000       0.553374       1.106367       0.607347
      13.540000       0.550185       1.094758       0.614777
      13.550000       0.547887       1.083630       0.622831
      13.560000       0.546915       1.072948       0.631309
      13.570000       0.547556       1.062686       0.640075
      13.580000       0.549943       1.052951       0.649077
      13.590000       0.554060       1.044041       0.658354
      13.600000       0.559742       1.036406       0.668024
      13.610000       0.566688       1.030542       0.678261
      13.620000       0.574500       1.026867       0.689253
      13.630000       0.582740       1.025640       0.701153
      13.640000       0.591016       1.026931       0.714035
      13.650000       0.599052       1.030628       0.727880
      13.660000       0.606728       1.036447       0.742582
      13.670000       0.614066       1.043960       0.757988
      13.680000       0.621172       1.052636       0.773946
      13.690000       0.628159       1.061932       0.790349
      13.700000       0.635065       1.071403       0.807161
      13.710000       0.641803       1.080801       0.824412
      13.720000       0.648141       1.090122       0.842169
      13.730000       0.653728       1.099557       0.860494
      13.740000       0.658178       1.109385       0.879408
      13.750000       0.661179       1.119831       0.898857
      13.760000       0.662598       1.130929       0.918702
      13.770000       0.662538       1.142437       0.938705
      13.780000       0.661320       1.153798       0.958534
      13.790000       0.659410       1.164207       0.977765
      13.800000       0.657317       1.172745       0.995916
      13.810000       0.655489       1.178596       1.012498
      13.820000       0.654253       1.181250       1.027076
      13.830000       0.653776       1.180630       1.039323
      13.840000       0.654078       1.177074       1.049049
      13.850000       0.655067       1.171194       1.056207
      13.860000       0.656605       1.163694       1.060891
      13.870000       0.658565       1.155221       1.063331
      13.880000       0.660866       1.146332       1.063901
      13.890000       0.663468       1.137533       1.063110
      13.900000       0.666331       1.129321       1.061569
      13.910000       0.669363       1.122179       1.059930
      13.920000       0.672395       1.116478       1.058802
      13.930000       0.675174       1.112360       1.058670
      13.940000       0.677398       1.109647       1.059852
      13.950000       0.678753       1.107851       1.062482
      13.960000       0.678940       1.106266       1.066529
      13.970000       0.677681       1.104110       1.071843
      13.980000       0.674715       1.100672       1.078210
      13.990000       0.669791       1.095396       1.085411
      14.000000       0.662678       1.087918       1.093280
      14.010000       0.653205       1.078040       1.101747
      14.020000       0.641318       1.065691       1.110860
      14.030000       0.627147       1.050880       1.120768
      14.040000       0.611038       1.033676       1.131681
      14.050000       0.593524       1.014212       1.143797
      14.060000       0.575255       0.992703       1.157239
      14.070000       0.556885       0.969478       1.171998
      14.080000       0.538981       0.944988       1.187929
      14.090000       0.521967       0.919801       1.204760
      14.100000       0.506108       0.894552       1.222126
      14.110000       0.491525       0.869874       1.239596
      14.120000       0.478227       0.846315       1.256679
      14.130000       0.466153       0.824269       1.272853
      14.140000       0.455206       0.803956       1.287603
      14.150000       0.445292       0.785448       1.300478
      14.160000       0.436343       0.768742       1.311135
      14.170000       0.428337       0.753820       1.319349
      14.180000       0.421295       0.740681       1.324971
      14.190000       0.415269       0.729323       1.327868
      14.200000       0.410321       0.719691       1.327860
      14.210000       0.406503       0.711640       1.324688
      14.220000       0.403843       0.704927       1.317998
      14.230000       0.402347       0.699250       1.307381
      14.240000       0.401996       0.694333       1.292456
      14.250000       0.402738       0.689995       1.272997
      14.260000       0.404475       0.686193       1.249067
      14.270000       0.407036       0.682999       1.221092
      14.280000       0.410170       0.680548       1.189849
      14.290000       0.413565       0.678986       1.156383
      14.300000       0.416885       0.678444       1.121873
      14.310000       0.419829       0.679032       1.087504
      14.320000       0.422172       0.680846       1.054355
      14.330000       0.423790       0.683965       1.023322
      14.340000       0.424652       0.688436       0.995062
      14.350000       0.424799       0.694277       0.969989
      14.360000       0.424328       0.701463       0.948299
      14.370000       0.423362       0.709904       0.930035
      14.380000       0.422025       0.719395       0.915163
      14.390000       0.420405       0.729540       0.903626
      14.400000       0.418520       0.739692       0.895371
      14.410000       0.416313       0.748935       0.890331
      14.420000       0.413663       0.756162       0.888379
      14.430000       0.410438       0.760228       0.889275
      14.440000       0.406545       0.760162       0.892626
      14.450000       0.401970       0.755372       0.897859
      14.460000       0.396798       0.745792       0.904232
      14.470000       0.391195       0.731900       0.910872
      14.480000       0.385368       0.714616       0.916833
      14.490000       0.379522       0.695121       0.921173
      14.500000       0.373823       0.674662       0.923038
      14.510000       0.368384       0.654403       0.921751
      14.520000       0.363272       0.635340       0.916878
      14.530000       0.358530       0.618250       0.908277
      14.540000       0.354200       0.603681       0.896093
      14.550000       0.350348       0.591946       0.880713
      14.560000       0.347063       0.583140       0.862708
      14.570000       0.344458       0.577168       0.842765
      14.580000       0.342641       0.573797       0.821628
      14.590000       0.341699       0.572723       0.800049
      14.600000       0.341671       0.573643       0.778731
      14.610000       0.342536       0.576309       0.758285
      14.620000       0.344215       0.580561       0.739185
      14.630000       0.346576       0.586318       0.721748
      14.640000       0.349460       0.593556       0.706130
      14.650000       0.352704       0.602278       0.692343
      14.660000       0.356161       0.612505       0.680276
      14.670000       0.359717       0.624289       0.669741
      14.680000       0.363291       0.637724       0.660512
      14.690000       0.366823       0.652941       0.652370
      14.700000       0.370260       0.670068       0.645134
      14.710000       0.373527       0.689157       0.638665
      14.720000       0.376504       0.710087       0.632864
      14.730000       0.379021       0.732467       0.627648
      14.740000       0.380873       0.755560       0.622940
      14.750000       0.381849       0.778262       0.618667
      14.760000       0.381791       0.799158       0.614761
      14.770000       0.380639       0.816670       0.611171
      14.780000       0.378466       0.829303       0.607865
      14.790000       0.375486       0.835918       0.604843
      14.800000       0.372022       0.835977       0.602134
      14.810000       0.368462       0.829675       0.599789
      14.820000       0.365191       0.817914       0.597868
      14.830000       0.362533       0.802135       0.596418
      14.840000       0.360711       0.784060       0.595448
      14.850000       0.359836       0.765419       0.594920
      14.860000       0.359916       0.747722       0.594741
      14.870000       0.360894       0.732108       0.594777
      14.880000       0.362680       0.719279       0.594871
      14.890000       0.365178       0.709508       0.594868
      14.900000       0.368290       0.702701       0.594635
      14.910000       0.371906       0.698493       0.594073
      14.920000       0.375880       0.696368       0.593133
      14.930000       0.380029       0.695756       0.591824
      14.940000       0.384135       0.696096       0.590225
      14.950000       0.387981       0.696855       0.588473
      14.960000       0.391378       0.697521       0.586756
      14.970000       0.394184       0.697581       0.585280
      14.980000       0.396308       0.696517       0.584246
      14.990000       0.397687       0.693790       0.583821
      15.000000       0.398273       0.688854       0.584139
      15.010000       0.398025       0.681191       0.585296
      15.020000       0.396914       0.670395       0.587378
      15.030000       0.394940       0.656277       0.590471
      15.040000       0.392136       0.638947       0.594667
      15.050000       0.388577       0.618844       0.600054
      15.060000       0.384365       0.596667       0.606681
      15.070000       0.379627       0.573260       0.614523
      15.080000       0.374498       0.549477       0.623443
      15.090000       0.369121       0.526083       0.633172
      15.100000       0.363643       0.503697       0.643289
      15.110000       0.358224       0.482774       0.653224
      15.120000       0.353033       0.463621       0.662270
      15.130000       0.348249       0.446419       0.669636
      15.140000       0.344040       0.431248       0.674530
      15.150000       0.340534       0.418111       0.676289
      15.160000       0.337802       0.406943       0.674505
      15.170000       0.335837       0.397614       0.669104
      15.180000       0.334559       0.389942       0.660358
      15.190000       0.333820       0.383709       0.648813
      15.200000       0.333428       0.378695       0.635182
      15.210000       0.333179       0.374712       0.620220
      15.220000       0.332900       0.371643       0.604637
      15.230000       0.332492       0.369467       0.589033
      15.240000       0.331953       0.368247       0.573864
      15.250000       0.331385       0.368107       0.559433
      15.260000       0.330958       0.369181       0.545894
      15.270000       0.330860       0.371566       0.533268
      15.280000       0.331248       0.375281       0.521476
      15.290000       0.332206       0.380241       0.510380
      15.300000       0.333734       0.386253       0.499832
      15.310000       0.335759       0.393027       0.489710
      15.320000       0.338152       0.400214       0.479950
      15.330000       0.340763       0.407446       0.470541
      15.340000       0.343441       0.414386       0.461523
      15.350000       0.346055       0.420761       0.452947
      15.360000       0.348494       0.426391       0.444855
      15.370000       0.350661       0.431190       0.437261
      15.380000       0.352476       0.435177       0.430140
      15.390000       0.353880       0.438465       0.423449
      15.400000       0.354845       0.441250       0.417141
      15.410000       0.355378       0.443782       0.411183
      15.420000       0.355508       0.446326       0.405563
      15.430000       0.355276       0.449117       0.400285
      15.440000       0.354713       0.452339       0.395353
      15.450000       0.353836       0.456117       0.390756
      15.460000       0.352658       0.460542       0.386472
      15.470000       0.351193       0.465711       0.382476
      15.480000       0.349464       0.471761       0.378769
      15.490000       0.347511       0.478883       0.375389
      15.500000       0.345382       0.487296       0.372410
      15.510000       0.343133       0.497187       0.369930
      15.520000       0.340812       0.508647       0.368031
      15.530000       0.338436       0.521618       0.366762
      15.540000       0.335984       0.535883       0.366113
      15.550000       0.333393       0.551105       0.366022
      15.560000       0.330592       0.566902       0.366379
      15.570000       0.327533       0.582941       0.367056
      15.580000       0.324226       0.599003       0.367925
      15.590000       0.320736       0.615009       0.368871
      15.600000       0.317159       0.630985       0.369802
      15.610000       0.313583       0.647009       0.370641
      15.620000       0.310058       0.663155       0.371315
      15.630000       0.306578       0.679445       0.371749
      15.640000       0.303087       0.695822       0.371859
      15.650000       0.299489       0.712108       0.371564
      15.660000       0.295669       0.727958       0.370806
      15.670000       0.291526       0.742810       0.369585
      15.680000       0.286994       0.755861       0.367982
      15.690000       0.282075       0.766120       0.366169
      15.700000       0.276843       0.772532       0.364391
      15.710000       0.271430       0.774179       0.362932
      15.720000       0.265994       0.770486       0.362082
      15.730000       0.260683       0.761368       0.362100
      15.740000       0.255611       0.747262       0.363199
      15.750000       0.250848       0.729030       0.365538
      15.760000       0.246422       0.707775       0.369219
      15.770000       0.242330       0.684651       0.374285
      15.780000       0.238546       0.660719       0.380723
      15.790000       0.235027       0.636866       0.388454
      15.800000       0.231730       0.613774       0.397330
      15.810000       0.228626       0.591918       0.407126
      15.820000       0.225716       0.571589       0.417520
      15.830000       0.223036       0.552920       0.428085
      15.840000       0.220642       0.535928       0.438267
      15.850000       0.218599       0.520553       0.447392
      15.860000       0.216951       0.506705       0.454699
      15.870000       0.215714       0.494299       0.459423
      15.880000       0.214870       0.483276       0.460909
      15.890000       0.214371       0.473612       0.458748
      15.900000       0.214152       0.465309       0.452872
      15.910000       0.214153       0.458378       0.443589
      15.920000       0.214328       0.452820       0.431519
      15.930000       0.214663       0.448589       0.417469
      15.940000       0.215170       0.445580       0.402289
      15.950000       0.215884       0.443617       0.386752
      15.960000       0.216841       0.442486       0.371481
      15.970000       0.218065       0.441981       0.356920
      15.980000       0.219558       0.441963       0.343352
      15.990000       0.221303       0.442402       0.330918
      16.000000       0.223282       0.443383       0.319658
      16.010000       0.225483       0.445066       0.309542
      16.020000       0.227912       0.447630       0.300506
      16.030000       0.230585       0.451212       0.292473
      16.040000       0.233512       0.455857       0.285377
      16.050000       0.236677       0.461502       0.279169
      16.060000       0.240030       0.467982       0.273813
      16.070000       0.243483       0.475063       0.269281
      16.080000       0.246932       0.482482       0.265542
      16.090000       0.250276       0.489996       0.262549
      16.100000       0.253431       0.497411       0.260243
      16.110000       0.256330       0.504597       0.258544
      16.120000       0.258913       0.511475       0.257358
      16.130000       0.261116       0.517982       0.256581
      16.140000       0.262870       0.524035       0.256094
      16.150000       0.264116       0.529504       0.255774
      16.160000       0.264829       0.534206       0.255498
      16.170000       0.265035       0.537930       0.255157
      16.180000       0.264802       0.540482       0.254664
      16.190000       0.264216       0.541735       0.253967
      16.200000       0.263348       0.541673       0.253046
      16.210000       0.262228       0.540419       0.251914
      16.220000       0.260842       0.538235       0.250617
      16.230000       0.259146       0.535503       0.249233
      16.240000       0.257103       0.532677       0.247869
      16.250000       0.254710       0.530218       0.246651
      16.260000       0.252018       0.528511       0.245711
      16.270000       0.249136       0.527799       0.245159
      16.280000       0.246202       0.528141       0.245066
      16.290000       0.243365       0.529418       0.245452
      16.300000       0.240751       0.531373       0.246292
      16.310000       0.238444       0.533681       0.247522
      16.320000       0.236478       0.536023       0.249057
      16.330000       0.234833       0.538154       0.250807
      16.340000       0.233443       0.539948       0.252686
      16.350000       0.232208       0.541426       0.254622
      16.360000       0.231028       0.542761       0.256556
      16.370000       0.229827       0.544256       0.258442
      16.380000       0.228589       0.546306       0.260241
      16.390000       0.227359       0.549329       0.261916
      16.400000       0.226242       0.553698       0.263422
      16.410000       0.225366       0.559657       0.264701
      16.420000       0.224853       0.567268       0.265680
      16.430000       0.224782       0.576373       0.266286
      16.440000       0.225170       0.586602       0.266468
      16.450000       0.225974       0.597405       0.266226
      16.460000       0.227108       0.608126       0.265627
      16.470000       0.228486       0.618082       0.264803
      16.480000       0.230058       0.626648       0.263934
      16.490000       0.231837       0.633325       0.263225
      16.500000       0.233898       0.637796       0.262884
      16.510000       0.236350       0.639959       0.263109
      16.520000       0.239291       0.639929       0.264068
      16.530000       0.242765       0.638016       0.265897
      16.540000       0.246737       0.634672       0.268687
      16.550000       0.251092       0.630422       0.272490
      16.560000       0.255650       0.625787       0.277316
      16.570000       0.260194       0.621207       0.283142
      16.580000       0.264492       0.616994       0.289909
      16.590000       0.268313       0.613307       0.297521
      16.600000       0.271438       0.610172       0.305838
      16.610000       0.273659       0.607537       0.314667
      16.620000       0.274782       0.605337       0.323757
      16.630000       0.274642       0.603559       0.332806
      16.640000       0.273111       0.602273       0.341464
      16.650000       0.270127       0.601615       0.349351
      16.660000       0.265716       0.601744       0.356073
      16.670000       0.260006       0.602779       0.361249
      16.680000       0.253224       0.604761       0.364545
      16.690000       0.245656       0.607631       0.365720
      16.700000       0.237612       0.611256       0.364666
      16.710000       0.229387       0.615462       0.361445
      16.720000       0.221234       0.620080       0.356287
      16.730000       0.213358       0.624963       0.349557
      16.740000       0.205921       0.629992       0.341700
      16.750000       0.199046       0.635049       0.333168
      16.760000       0.192822       0.640008       0.324358
      16.770000       0.187309       0.644724       0.315577
      16.780000       0.182537       0.649054       0.307024
      16.790000       0.178514       0.652884       0.298800
      16.800000       0.175227       0.656170       0.290934
      16.810000       0.172649       0.658956       0.283407
      16.820000       0.170748       0.661364       0.276189
      16.830000       0.169485       0.663578       0.269257
      16.840000       0.168820       0.665812       0.262610
      16.850000       0.168701       0.668294       0.256270
      16.860000       0.169064       0.671248       0.250272
      16.870000       0.169818       0.674865       0.244652
      16.880000       0.170846       0.679260       0.239438
      16.890000       0.172010       0.684424       0.234642
      16.900000       0.173158       0.690189       0.230268
      16.910000       0.174151       0.696231       0.226308
      16.920000       0.174875       0.702101       0.222756
      16.930000       0.175259       0.707287       0.219605
      16.940000       0.175288       0.711288       0.216851
      16.950000       0.174997       0.713706       0.214495
      16.960000       0.174464       0.714320       0.212541
      16.970000       0.173798       0.713131       0.210992
      16.980000       0.173119       0.710353       0.209845
      16.990000       0.172548       0.706359       0.209092
      17.000000       0.172186       0.701602       0.208716
      17.010000       0.172106       0.696531       0.208690
      17.020000       0.172345       0.691525       0.208983
      17.030000       0.172897       0.686854       0.209564
      17.040000       0.173715       0.682649       0.210403
      17.050000       0.174709       0.678908       0.211470
      17.060000       0.175757       0.675514       0.212740
      17.070000       0.176727       0.672267       0.214179
      17.080000       0.177492       0.668929       0.215746
      17.090000       0.177962       0.665275       0.217381
      17.100000       0.178102       0.661149       0.219021
      17.110000       0.177942       0.656514       0.220598
      17.120000       0.177569       0.651474       0.222059
      17.130000       0.177113       0.646261       0.223368
      17.140000       0.176716       0.641199       0.224517
      17.150000       0.176507       0.636642       0.225521
      17.160000       0.176588       0.632935       0.226419
      17.170000       0.177016       0.630376       0.227273
      17.180000       0.177809       0.629191       0.228153
      17.190000       0.178940       0.629517       0.229140
      17.200000       0.180342       0.631375       0.230305
      17.210000       0.181917       0.634647       0.231702
      17.220000       0.183540       0.639070       0.233357
      17.230000       0.185075       0.644241       0.235259
      17.240000       0.186395       0.649639       0.237352
      17.250000       0.187401       0.654666       0.239542
      17.260000       0.188038       0.658699       0.241715
      17.270000       0.188295       0.661167       0.243766
      17.280000       0.188207       0.661637       0.245630
      17.290000       0.187843       0.659891       0.247301
      17.300000       0.187299       0.655974       0.248839
      17.310000       0.186684       0.650192       0.250351
      17.320000       0.186118       0.643059       0.251968
      17.330000       0.185713       0.635217       0.253813
      17.340000       0.185561       0.627336       0.255979
      17.350000       0.185715       0.620034       0.258505
      17.360000       0.186176       0.613815       0.261375
      17.370000       0.186881       0.609034       0.264529
      17.380000       0.187714       0.605890       0.267883
      17.390000       0.188511       0.604433       0.271359
      17.400000       0.189091       0.604592       0.274899
      17.410000       0.189288       0.606194       0.278476
      17.420000       0.188987       0.609001       0.282087
      17.430000       0.188149       0.612740       0.285734
      17.440000       0.186820       0.617126       0.289414
      17.450000       0.185110       0.621876       0.293101
      17.460000       0.183166       0.626704       0.296725
      17.470000       0.181129       0.631322       0.300159
      17.480000       0.179107       0.635448       0.303218
      17.490000       0.177164       0.638829       0.305676
      17.500000       0.175316       0.641281       0.307296
      17.510000       0.173555       0.642723       0.307868
      17.520000       0.171866       0.643192       0.307256
      17.530000       0.170250       0.642829       0.305426
      17.540000       0.168735       0.641833       0.302464
      17.550000       0.167377       0.640386       0.298570
      17.560000       0.166240       0.638600       0.294023
      17.570000       0.165383       0.636481       0.289128
      17.580000       0.164844       0.633954       0.284168
      17.590000       0.164632       0.630919       0.279352
      17.600000       0.164733       0.627311       0.274804
      17.610000       0.165117       0.623139       0.270563
      17.620000       0.165750       0.618487       0.266606
      17.630000       0.166606       0.613494       0.262884
      17.640000       0.167676       0.608320       0.259355
      17.650000       0.168960       0.603124       0.256007
      17.660000       0.170465       0.598044       0.252875
      17.670000       0.172184       0.593188       0.250034
      17.680000       0.174095       0.588626       0.247584
      17.690000       0.176151       0.584408       0.245625
      17.700000       0.178284       0.580578       0.244234
      17.710000       0.180407       0.577189       0.243456
      17.720000       0.182416       0.574302       0.243293
      17.730000       0.184187       0.571968       0.243709
      17.740000       0.185583       0.570195       0.244636
      17.750000       0.186467       0.568921       0.245982
      17.760000       0.186720       0.568005       0.247644
      17.770000       0.186267       0.567240       0.249523
      17.780000       0.185085       0.566401       0.251538
      17.790000       0.183209       0.565290       0.253645
      17.800000       0.180716       0.563787       0.255850
      17.810000       0.177713       0.561856       0.258216
      17.820000       0.174310       0.559526       0.260846
      17.830000       0.170610       0.556852       0.263867
      17.840000       0.166707       0.553875       0.267388
      17.850000       0.162694       0.550614       0.271475
      17.860000       0.158670       0.547064       0.276130
      17.870000       0.154749       0.543218       0.281296
      17.880000       0.151047       0.539076       0.286874
      17.890000       0.147679       0.534660       0.292756
      17.900000       0.144737       0.530027       0.298849
      17.910000       0.142287       0.525272       0.305100
      17.920000       0.140360       0.520532       0.311504
      17.930000       0.138953       0.515971       0.318088
      17.940000       0.138024       0.511744       0.324896
      17.950000       0.137495       0.507956       0.331954
      17.960000       0.137257       0.504625       0.339258
      17.970000       0.137176       0.501683       0.346764
      17.980000       0.137113       0.498996       0.354389
      17.990000       0.136944       0.496416       0.362019
      18.000000       0.136585       0.493814       0.369519
      18.010000       0.136005       0.491108       0.376732
      18.020000       0.135228       0.488267       0.383472
      18.030000       0.134328       0.485304       0.389529
      18.040000       0.133404       0.482257       0.394665
      18.050000       0.132561       0.479176       0.398630
      18.060000       0.131888       0.476098       0.401170
      18.070000       0.131444       0.473034       0.402052
      18.080000       0.131248       0.469965       0.401080
      18.090000       0.131282       0.466856       0.398128
      18.100000       0.131501       0.463675       0.393169
      18.110000       0.131852       0.460412       0.386300
      18.120000       0.132290       0.457097       0.377765
      18.130000       0.132797       0.453799       0.367945
      18.140000       0.133386       0.450620       0.357330
      18.150000       0.134088       0.447675       0.346454
      18.160000       0.134942       0.445059       0.335827
      18.170000       0.135963       0.442820       0.325868
      18.180000       0.137133       0.440938       0.316866
      18.190000       0.138391       0.439326       0.308976
      18.200000       0.139634       0.437850       0.302233
      18.210000       0.140736       0.436362       0.296585
      18.220000       0.141575       0.434728       0.291931
      18.230000       0.142059       0.432845       0.288146
      18.240000       0.142148       0.430645       0.285099
      18.250000       0.141858       0.428081       0.282662
      18.260000       0.141251       0.425106       0.280718
      18.270000       0.140416       0.421662       0.279168
      18.280000       0.139442       0.417681       0.277934
      18.290000       0.138409       0.413104       0.276963
      18.300000       0.137379       0.407908       0.276208
      18.310000       0.136404       0.402134       0.275615
      18.320000       0.135529       0.395901       0.275106
      18.330000       0.134797       0.389398       0.274582
      18.340000       0.134247       0.382861       0.273930
      18.350000       0.133917       0.376532       0.273045
      18.360000       0.133833       0.370627       0.271853
      18.370000       0.134012       0.365311       0.270324
      18.380000       0.134455       0.360675       0.268476
      18.390000       0.135151       0.356737       0.266366
      18.400000       0.136076       0.353440       0.264073
      18.410000       0.137190       0.350680       0.261672
      18.420000       0.138439       0.348330       0.259217
      18.430000       0.139758       0.346278       0.256733
      18.440000       0.141074       0.344441       0.254222
      18.450000       0.142318       0.342776       0.251664
      18.460000       0.143433       0.341257       0.249032
      18.470000       0.144379       0.339863       0.246297
      18.480000       0.145134       0.338550       0.243432
      18.490000       0.145687       0.337243       0.240413
      18.500000       0.146039       0.335834       0.237228
      18.510000       0.146192       0.334190       0.233877
      18.520000       0.146150       0.332178       0.230378
      18.530000       0.145922       0.329680       0.226768
      18.540000       0.145524       0.326626       0.223107
      18.550000       0.144988       0.323007       0.219473
      18.560000       0.144363       0.318894       0.215947
      18.570000       0.143713       0.314428       0.212604
      18.580000       0.143099       0.309808       0.209508
      18.590000       0.142570       0.305259       0.206700
      18.600000       0.142147       0.300997       0.204204
      18.610000       0.141825       0.297191       0.202025
      18.620000       0.141569       0.293931       0.200148
      18.630000       0.141329       0.291215       0.198542
      18.640000       0.141043       0.288941       0.197158
      18.650000       0.140652       0.286926       0.195923
      18.660000       0.140103       0.284939       0.194745
      18.670000       0.139356       0.282752       0.193507
      18.680000       0.138388       0.280188       0.192087
      18.690000       0.137203       0.277166       0.190371
      18.700000       0.135832       0.273712       0.188274
      18.710000       0.134335       0.269947       0.185765
      18.720000       0.132793       0.266046       0.182873
      18.730000       0.131290       0.262189       0.179689
      18.740000       0.129900       0.258522       0.176351
      18.750000       0.128670       0.255134       0.173023
      18.760000       0.127617       0.252064       0.169863
      18.770000       0.126720       0.249319       0.167007
      18.780000       0.125936       0.246906       0.164553
      18.790000       0.125204       0.244849       0.162554
      18.800000       0.124468       0.243193       0.161032
      18.810000       0.123684       0.241994       0.159983
      18.820000       0.122835       0.241286       0.159389
      18.830000       0.121934       0.241063       0.159234
      18.840000       0.121019       0.241263       0.159500
      18.850000       0.120141       0.241767       0.160169
      18.860000       0.119353       0.242428       0.161221
      18.870000       0.118694       0.243098       0.162620
      18.880000       0.118178       0.243663       0.164318
      18.890000       0.117787       0.244060       0.166247
      18.900000       0.117466       0.244276       0.168323
      18.910000       0.117137       0.244325       0.170451
      18.920000       0.116707       0.244213       0.172533
      18.930000       0.116092       0.243922       0.174481
      18.940000       0.115234       0.243394       0.176229
      18.950000       0.114108       0.242543       0.177740
      18.960000       0.112723       0.241275       0.179015
      18.970000       0.111110       0.239512       0.180087
      18.980000       0.109308       0.237207       0.181016
      18.990000       0.107355       0.234362       0.181878
      19.000000       0.105284       0.231021       0.182746
      19.010000       0.103124       0.227270       0.183684
      19.020000       0.100911       0.223218       0.184737
      19.030000       0.098687       0.218992       0.185926
      19.040000       0.096497       0.214715       0.187255
      19.050000       0.094391       0.210503       0.188715
      19.060000       0.092412       0.206452       0.190288
      19.070000       0.090594       0.202634       0.191955
      19.080000       0.088967       0.199099       0.193698
      19.090000       0.087552       0.195883       0.195488
      19.100000       0.086370       0.193014       0.197283
      19.110000       0.085439       0.190520       0.199013
      19.120000       0.084778       0.188423       0.200578
      19.130000       0.084405       0.186735       0.201853
      19.140000       0.084334       0.185443       0.202709
      19.150000       0.084571       0.184513       0.203028
      19.160000       0.085112       0.183885       0.202729
      19.170000       0.085934       0.183487       0.201779
      19.180000       0.086997       0.183248       0.200194
      19.190000       0.088233       0.183110       0.198039
      19.200000       0.089551       0.183027       0.195405
      19.210000       0.090840       0.182970       0.192391
      19.220000       0.091980       0.182913       0.189087
      19.230000       0.092866       0.182834       0.185556
      19.240000       0.093424       0.182723       0.181836
      19.250000       0.093635       0.182589       0.177947
      19.260000       0.093534       0.182466       0.173905
      19.270000       0.093208       0.182403       0.169738
      19.280000       0.092771       0.182456       0.165498
      19.290000       0.092340       0.182659       0.161266
      19.300000       0.092016       0.183021       0.157142
      19.310000       0.091870       0.183525       0.153238
      19.320000       0.091941       0.184136       0.149657
      19.330000       0.092240       0.184816       0.146486
      19.340000       0.092759       0.185543       0.143784
      19.350000       0.093480       0.186310       0.141584
      19.360000       0.094380       0.187132       0.139892
      19.370000       0.095434       0.188038       0.138691
      19.380000       0.096605       0.189059       0.137943
      19.390000       0.097847       0.190215       0.137594
      19.400000       0.099093       0.191505       0.137579
      19.410000       0.100259       0.192901       0.137829
      19.420000       0.101255       0.194355       0.138281
      19.430000       0.101997       0.195815       0.138880
      19.440000       0.102422       0.197240       0.139590
      19.450000       0.102501       0.198611       0.140387
      19.460000       0.102246       0.199937       0.141260
      19.470000       0.101704       0.201254       0.142208
      19.480000       0.100951       0.202619       0.143228
      19.490000       0.100078       0.204100       0.144324
      19.500000       0.099178       0.205777       0.145496
      19.510000       0.098332       0.207731       0.146751
      19.520000       0.097604       0.210036       0.148095
      19.530000       0.097028       0.212750       0.149534
      19.540000       0.096611       0.215902       0.151068
      19.550000       0.096331       0.219482       0.152685
      19.560000       0.096145       0.223434       0.154363
      19.570000       0.096004       0.227659       0.156073
      19.580000       0.095863       0.232010       0.157784
      19.590000       0.095688       0.236304       0.159460
      19.600000       0.095461       0.240329       0.161068
      19.610000       0.095176       0.243865       0.162563
      19.620000       0.094829       0.246702       0.163896
      19.630000       0.094412       0.248665       0.165019
      19.640000       0.093913       0.249629       0.165889
      19.650000       0.093315       0.249534       0.166487
      19.660000       0.092602       0.248395       0.166816
      19.670000       0.091766       0.246294       0.166899
      19.680000       0.090812       0.243369       0.166775
      19.690000       0.089761       0.239787       0.166478
      19.700000       0.088646       0.235722       0.166034
      19.710000       0.087502       0.231335       0.165450
      19.720000       0.086361       0.226769       0.164716
      19.730000       0.085235       0.222147       0.163808
      19.740000       0.084122       0.217578       0.162703
      19.750000       0.083007       0.213151       0.161389
      19.760000       0.081875       0.208941       0.159883
      19.770000       0.080718       0.205003       0.158237
      19.780000       0.079544       0.201377       0.156534
      19.790000       0.078369       0.198084       0.154873
      19.800000       0.077216       0.195131       0.153348
      19.810000       0.076106       0.192512       0.152029
      19.820000       0.075057       0.190219       0.150956
      19.830000       0.074087       0.188245       0.150128
      19.840000       0.073214       0.186603       0.149520
      19.850000       0.072463       0.185320       0.149087
      19.860000       0.071861       0.184437       0.148777
      19.870000       0.071433       0.183995       0.148545
      19.880000       0.071196       0.184020       0.148360
      19.890000       0.071157       0.184509       0.148202
      19.900000       0.071311       0.185431       0.148070
      19.910000       0.071642       0.186722       0.147965
      19.920000       0.072127       0.188294       0.147897
      19.930000       0.072741       0.190042       0.147869
      19.940000       0.073462       0.191853       0.147876
      19.950000       0.074268       0.193613       0.147899
      19.960000       0.075142       0.195224       0.147899
      19.970000       0.076074       0.196615       0.147828
      19.980000       0.077061       0.197754       0.147627
      19.990000       0.078104       0.198654       0.147251
      20.000000       0.079212       0.199362       0.146672
