  # energy grid [eV]     epsi_x  epsi_y  epsi_z
       0.000000            NaN            NaN            NaN
       0.010000       0.000135       0.000009       0.000149
       0.020000       0.000270       0.000018       0.000297
       0.030000       0.000404       0.000028       0.000447
       0.040000       0.000539       0.000037       0.000596
       0.050000       0.000674       0.000046       0.000747
       0.060000       0.000809       0.000055       0.000898
       0.070000       0.000944       0.000064       0.001051
       0.080000       0.001079       0.000074       0.001205
       0.090000       0.001213       0.000083       0.001360
       0.100000       0.001349       0.000092       0.001517
       0.110000       0.001484       0.000101       0.001677
       0.120000       0.001619       0.000110       0.001839
       0.130000       0.001754       0.000120       0.002003
       0.140000       0.001889       0.000129       0.002170
       0.150000       0.002025       0.000138       0.002340
       0.160000       0.002160       0.000147       0.002514
       0.170000       0.002296       0.000157       0.002692
       0.180000       0.002431       0.000166       0.002875
       0.190000       0.002567       0.000175       0.003062
       0.200000       0.002703       0.000184       0.003254
       0.210000       0.002839       0.000193       0.003453
       0.220000       0.002975       0.000203       0.003658
       0.230000       0.003111       0.000212       0.003870
       0.240000       0.003248       0.000221       0.004090
       0.250000       0.003384       0.000230       0.004319
       0.260000       0.003521       0.000240       0.004558
       0.270000       0.003657       0.000249       0.004807
       0.280000       0.003794       0.000258       0.005069
       0.290000       0.003932       0.000267       0.005344
       0.300000       0.004069       0.000277       0.005634
       0.310000       0.004206       0.000286       0.005941
       0.320000       0.004344       0.000295       0.006267
       0.330000       0.004482       0.000304       0.006614
       0.340000       0.004620       0.000314       0.006985
       0.350000       0.004758       0.000323       0.007383
       0.360000       0.004897       0.000332       0.007811
       0.370000       0.005035       0.000342       0.008273
       0.380000       0.005174       0.000351       0.008775
       0.390000       0.005313       0.000360       0.009321
       0.400000       0.005453       0.000369       0.009917
       0.410000       0.005592       0.000379       0.010570
       0.420000       0.005732       0.000388       0.011289
       0.430000       0.005872       0.000397       0.012082
       0.440000       0.006013       0.000407       0.012960
       0.450000       0.006153       0.000416       0.013932
       0.460000       0.006294       0.000425       0.015011
       0.470000       0.006435       0.000435       0.016206
       0.480000       0.006577       0.000444       0.017530
       0.490000       0.006719       0.000453       0.018987
       0.500000       0.006861       0.000463       0.020581
       0.510000       0.007003       0.000472       0.022302
       0.520000       0.007146       0.000482       0.024128
       0.530000       0.007289       0.000491       0.026018
       0.540000       0.007432       0.000500       0.027904
       0.550000       0.007576       0.000510       0.029694
       0.560000       0.007720       0.000519       0.031272
       0.570000       0.007864       0.000529       0.032518
       0.580000       0.008009       0.000538       0.033320
       0.590000       0.008154       0.000547       0.033609
       0.600000       0.008299       0.000557       0.033371
       0.610000       0.008445       0.000566       0.032653
       0.620000       0.008591       0.000576       0.031551
       0.630000       0.008738       0.000585       0.030184
       0.640000       0.008885       0.000595       0.028673
       0.650000       0.009032       0.000604       0.027123
       0.660000       0.009180       0.000614       0.025613
       0.670000       0.009328       0.000623       0.024196
       0.680000       0.009477       0.000633       0.022902
       0.690000       0.009626       0.000642       0.021747
       0.700000       0.009775       0.000652       0.020733
       0.710000       0.009925       0.000661       0.019857
       0.720000       0.010076       0.000671       0.019110
       0.730000       0.010227       0.000680       0.018482
       0.740000       0.010378       0.000690       0.017962
       0.750000       0.010530       0.000699       0.017541
       0.760000       0.010682       0.000709       0.017209
       0.770000       0.010835       0.000718       0.016957
       0.780000       0.010989       0.000728       0.016780
       0.790000       0.011143       0.000738       0.016670
       0.800000       0.011297       0.000747       0.016623
       0.810000       0.011452       0.000757       0.016635
       0.820000       0.011607       0.000766       0.016703
       0.830000       0.011764       0.000776       0.016823
       0.840000       0.011920       0.000786       0.016996
       0.850000       0.012077       0.000795       0.017220
       0.860000       0.012235       0.000805       0.017496
       0.870000       0.012393       0.000815       0.017824
       0.880000       0.012552       0.000825       0.018205
       0.890000       0.012712       0.000834       0.018643
       0.900000       0.012872       0.000844       0.019140
       0.910000       0.013033       0.000854       0.019700
       0.920000       0.013194       0.000863       0.020329
       0.930000       0.013356       0.000873       0.021031
       0.940000       0.013519       0.000883       0.021815
       0.950000       0.013683       0.000893       0.022689
       0.960000       0.013847       0.000903       0.023663
       0.970000       0.014011       0.000912       0.024749
       0.980000       0.014177       0.000922       0.025960
       0.990000       0.014343       0.000932       0.027313
       1.000000       0.014510       0.000942       0.028825
       1.010000       0.014678       0.000952       0.030518
       1.020000       0.014846       0.000962       0.032416
       1.030000       0.015015       0.000972       0.034545
       1.040000       0.015185       0.000981       0.036934
       1.050000       0.015356       0.000991       0.039613
       1.060000       0.015527       0.001001       0.042615
       1.070000       0.015699       0.001011       0.045966
       1.080000       0.015872       0.001021       0.049688
       1.090000       0.016046       0.001031       0.053787
       1.100000       0.016221       0.001041       0.058246
       1.110000       0.016396       0.001051       0.063010
       1.120000       0.016572       0.001061       0.067974
       1.130000       0.016750       0.001071       0.072966
       1.140000       0.016928       0.001081       0.077742
       1.150000       0.017107       0.001092       0.081997
       1.160000       0.017286       0.001102       0.085392
       1.170000       0.017467       0.001112       0.087615
       1.180000       0.017649       0.001122       0.088446
       1.190000       0.017832       0.001132       0.087811
       1.200000       0.018015       0.001142       0.085807
       1.210000       0.018200       0.001152       0.082669
       1.220000       0.018385       0.001163       0.078717
       1.230000       0.018572       0.001173       0.074288
       1.240000       0.018759       0.001183       0.069682
       1.250000       0.018948       0.001193       0.065133
       1.260000       0.019138       0.001204       0.060805
       1.270000       0.019328       0.001214       0.056797
       1.280000       0.019520       0.001224       0.053158
       1.290000       0.019713       0.001234       0.049902
       1.300000       0.019907       0.001245       0.047021
       1.310000       0.020102       0.001255       0.044493
       1.320000       0.020298       0.001266       0.042291
       1.330000       0.020495       0.001276       0.040385
       1.340000       0.020694       0.001286       0.038746
       1.350000       0.020893       0.001297       0.037344
       1.360000       0.021094       0.001307       0.036156
       1.370000       0.021296       0.001318       0.035160
       1.380000       0.021499       0.001328       0.034335
       1.390000       0.021704       0.001339       0.033667
       1.400000       0.021910       0.001349       0.033140
       1.410000       0.022117       0.001360       0.032744
       1.420000       0.022325       0.001371       0.032468
       1.430000       0.022535       0.001381       0.032307
       1.440000       0.022746       0.001392       0.032253
       1.450000       0.022958       0.001402       0.032304
       1.460000       0.023172       0.001413       0.032456
       1.470000       0.023387       0.001424       0.032710
       1.480000       0.023604       0.001435       0.033065
       1.490000       0.023822       0.001445       0.033524
       1.500000       0.024041       0.001456       0.034091
       1.510000       0.024262       0.001467       0.034771
       1.520000       0.024484       0.001478       0.035571
       1.530000       0.024708       0.001489       0.036500
       1.540000       0.024934       0.001499       0.037569
       1.550000       0.025161       0.001510       0.038792
       1.560000       0.025390       0.001521       0.040185
       1.570000       0.025620       0.001532       0.041766
       1.580000       0.025852       0.001543       0.043557
       1.590000       0.026085       0.001554       0.045584
       1.600000       0.026320       0.001565       0.047877
       1.610000       0.026557       0.001576       0.050466
       1.620000       0.026796       0.001587       0.053387
       1.630000       0.027036       0.001598       0.056677
       1.640000       0.027279       0.001609       0.060373
       1.650000       0.027523       0.001621       0.064508
       1.660000       0.027769       0.001632       0.069103
       1.670000       0.028016       0.001643       0.074162
       1.680000       0.028266       0.001654       0.079657
       1.690000       0.028517       0.001666       0.085511
       1.700000       0.028771       0.001677       0.091583
       1.710000       0.029026       0.001688       0.097652
       1.720000       0.029284       0.001699       0.103411
       1.730000       0.029543       0.001711       0.108482
       1.740000       0.029805       0.001722       0.112464
       1.750000       0.030069       0.001734       0.114993
       1.760000       0.030334       0.001745       0.115830
       1.770000       0.030602       0.001757       0.114912
       1.780000       0.030873       0.001768       0.112374
       1.790000       0.031145       0.001780       0.108511
       1.800000       0.031420       0.001791       0.103712
       1.810000       0.031697       0.001803       0.098377
       1.820000       0.031976       0.001815       0.092861
       1.830000       0.032258       0.001826       0.087441
       1.840000       0.032542       0.001838       0.082308
       1.850000       0.032828       0.001850       0.077578
       1.860000       0.033118       0.001862       0.073307
       1.870000       0.033409       0.001873       0.069512
       1.880000       0.033703       0.001885       0.066181
       1.890000       0.034000       0.001897       0.063290
       1.900000       0.034300       0.001909       0.060805
       1.910000       0.034602       0.001921       0.058690
       1.920000       0.034907       0.001933       0.056910
       1.930000       0.035214       0.001945       0.055434
       1.940000       0.035525       0.001957       0.054232
       1.950000       0.035838       0.001969       0.053279
       1.960000       0.036155       0.001981       0.052554
       1.970000       0.036474       0.001993       0.052038
       1.980000       0.036796       0.002006       0.051717
       1.990000       0.037122       0.002018       0.051580
       2.000000       0.037450       0.002030       0.051618
       2.010000       0.037782       0.002043       0.051826
       2.020000       0.038117       0.002055       0.052200
       2.030000       0.038456       0.002067       0.052739
       2.040000       0.038797       0.002080       0.053446
       2.050000       0.039142       0.002092       0.054325
       2.060000       0.039491       0.002105       0.055384
       2.070000       0.039843       0.002117       0.056631
       2.080000       0.040199       0.002130       0.058081
       2.090000       0.040558       0.002143       0.059749
       2.100000       0.040921       0.002155       0.061655
       2.110000       0.041288       0.002168       0.063823
       2.120000       0.041659       0.002181       0.066280
       2.130000       0.042033       0.002194       0.069059
       2.140000       0.042412       0.002206       0.072197
       2.150000       0.042794       0.002219       0.075738
       2.160000       0.043181       0.002232       0.079728
       2.170000       0.043572       0.002245       0.084219
       2.180000       0.043968       0.002258       0.089263
       2.190000       0.044368       0.002271       0.094911
       2.200000       0.044772       0.002285       0.101208
       2.210000       0.045180       0.002298       0.108178
       2.220000       0.045594       0.002311       0.115817
       2.230000       0.046012       0.002324       0.124072
       2.240000       0.046435       0.002338       0.132815
       2.250000       0.046863       0.002351       0.141830
       2.260000       0.047296       0.002364       0.150788
       2.270000       0.047734       0.002378       0.159257
       2.280000       0.048177       0.002391       0.166724
       2.290000       0.048625       0.002405       0.172659
       2.300000       0.049079       0.002419       0.176599
       2.310000       0.049538       0.002432       0.178238
       2.320000       0.050004       0.002446       0.177494
       2.330000       0.050474       0.002460       0.174532
       2.340000       0.050951       0.002474       0.169721
       2.350000       0.051434       0.002488       0.163567
       2.360000       0.051922       0.002502       0.156612
       2.370000       0.052417       0.002516       0.149357
       2.380000       0.052919       0.002530       0.142212
       2.390000       0.053427       0.002544       0.135474
       2.400000       0.053941       0.002558       0.129337
       2.410000       0.054462       0.002572       0.123907
       2.420000       0.054991       0.002587       0.119229
       2.430000       0.055526       0.002601       0.115305
       2.440000       0.056069       0.002615       0.112115
       2.450000       0.056619       0.002630       0.109624
       2.460000       0.057176       0.002645       0.107795
       2.470000       0.057742       0.002659       0.106594
       2.480000       0.058315       0.002674       0.105988
       2.490000       0.058896       0.002689       0.105955
       2.500000       0.059486       0.002703       0.106477
       2.510000       0.060084       0.002718       0.107548
       2.520000       0.060691       0.002733       0.109165
       2.530000       0.061307       0.002748       0.111338
       2.540000       0.061931       0.002763       0.114081
       2.550000       0.062566       0.002779       0.117415
       2.560000       0.063209       0.002794       0.121363
       2.570000       0.063863       0.002809       0.125954
       2.580000       0.064526       0.002825       0.131208
       2.590000       0.065200       0.002840       0.137143
       2.600000       0.065884       0.002856       0.143756
       2.610000       0.066579       0.002871       0.151026
       2.620000       0.067286       0.002887       0.158903
       2.630000       0.068003       0.002903       0.167312
       2.640000       0.068732       0.002918       0.176164
       2.650000       0.069473       0.002934       0.185374
       2.660000       0.070227       0.002950       0.194897
       2.670000       0.070993       0.002966       0.204740
       2.680000       0.071772       0.002983       0.214973
       2.690000       0.072564       0.002999       0.225703
       2.700000       0.073370       0.003015       0.237029
       2.710000       0.074190       0.003032       0.248993
       2.720000       0.075025       0.003048       0.261540
       2.730000       0.075874       0.003065       0.274511
       2.740000       0.076739       0.003082       0.287652
       2.750000       0.077619       0.003098       0.300663
       2.760000       0.078516       0.003115       0.313236
       2.770000       0.079429       0.003132       0.325081
       2.780000       0.080359       0.003149       0.335924
       2.790000       0.081307       0.003167       0.345491
       2.800000       0.082273       0.003184       0.353503
       2.810000       0.083258       0.003201       0.359682
       2.820000       0.084263       0.003219       0.363793
       2.830000       0.085287       0.003236       0.365690
       2.840000       0.086332       0.003254       0.365362
       2.850000       0.087398       0.003272       0.362960
       2.860000       0.088486       0.003290       0.358810
       2.870000       0.089597       0.003308       0.353382
       2.880000       0.090732       0.003326       0.347247
       2.890000       0.091890       0.003344       0.340996
       2.900000       0.093074       0.003363       0.335166
       2.910000       0.094284       0.003381       0.330164
       2.920000       0.095520       0.003400       0.326226
       2.930000       0.096784       0.003419       0.323401
       2.940000       0.098077       0.003438       0.321573
       2.950000       0.099400       0.003457       0.320514
       2.960000       0.100754       0.003476       0.319946
       2.970000       0.102140       0.003495       0.319603
       2.980000       0.103560       0.003515       0.319273
       2.990000       0.105014       0.003534       0.318799
       3.000000       0.106503       0.003554       0.318076
       3.010000       0.108031       0.003574       0.317046
       3.020000       0.109597       0.003594       0.315705
       3.030000       0.111204       0.003614       0.314118
       3.040000       0.112852       0.003635       0.312428
       3.050000       0.114545       0.003655       0.310841
       3.060000       0.116283       0.003676       0.309608
       3.070000       0.118069       0.003697       0.308994
       3.080000       0.119905       0.003718       0.309247
       3.090000       0.121793       0.003739       0.310562
       3.100000       0.123735       0.003760       0.313056
       3.110000       0.125733       0.003782       0.316753
       3.120000       0.127792       0.003803       0.321590
       3.130000       0.129912       0.003825       0.327447
       3.140000       0.132098       0.003848       0.334190
       3.150000       0.134352       0.003870       0.341723
       3.160000       0.136678       0.003893       0.350004
       3.170000       0.139080       0.003915       0.359039
       3.180000       0.141560       0.003938       0.368844
       3.190000       0.144125       0.003962       0.379403
       3.200000       0.146777       0.003985       0.390657
       3.210000       0.149522       0.004009       0.402513
       3.220000       0.152364       0.004033       0.414884
       3.230000       0.155310       0.004057       0.427718
       3.240000       0.158365       0.004081       0.440983
       3.250000       0.161536       0.004106       0.454612
       3.260000       0.164830       0.004131       0.468429
       3.270000       0.168253       0.004156       0.482097
       3.280000       0.171814       0.004182       0.495121
       3.290000       0.175523       0.004208       0.506904
       3.300000       0.179387       0.004234       0.516853
       3.310000       0.183418       0.004261       0.524493
       3.320000       0.187628       0.004288       0.529554
       3.330000       0.192027       0.004315       0.532018
       3.340000       0.196631       0.004343       0.532115
       3.350000       0.201452       0.004371       0.530271
       3.360000       0.206509       0.004399       0.527014
       3.370000       0.211818       0.004428       0.522864
       3.380000       0.217399       0.004457       0.518223
       3.390000       0.223275       0.004487       0.513318
       3.400000       0.229467       0.004517       0.508211
       3.410000       0.236005       0.004548       0.502858
       3.420000       0.242916       0.004579       0.497207
       3.430000       0.250235       0.004611       0.491288
       3.440000       0.257997       0.004644       0.485274
       3.450000       0.266244       0.004677       0.479484
       3.460000       0.275023       0.004710       0.474346
       3.470000       0.284385       0.004744       0.470326
       3.480000       0.294389       0.004779       0.467847
       3.490000       0.305102       0.004815       0.467209
       3.500000       0.316598       0.004852       0.468544
       3.510000       0.328962       0.004889       0.471793
       3.520000       0.342293       0.004927       0.476730
       3.530000       0.356699       0.004967       0.483023
       3.540000       0.372308       0.005007       0.490323
       3.550000       0.389262       0.005048       0.498353
       3.560000       0.407725       0.005091       0.506965
       3.570000       0.427883       0.005134       0.516137
       3.580000       0.449948       0.005179       0.525916
       3.590000       0.474156       0.005226       0.536340
       3.600000       0.500773       0.005274       0.547385
       3.610000       0.530090       0.005324       0.558960
       3.620000       0.562422       0.005375       0.570939
       3.630000       0.598094       0.005429       0.583208
       3.640000       0.637424       0.005485       0.595686
       3.650000       0.680694       0.005543       0.608296
       3.660000       0.728098       0.005604       0.620907
       3.670000       0.779675       0.005668       0.633279
       3.680000       0.835222       0.005735       0.645045
       3.690000       0.894188       0.005805       0.655741
       3.700000       0.955593       0.005880       0.664867
       3.710000       1.017990       0.005959       0.671958
       3.720000       1.079558       0.006043       0.676626
       3.730000       1.138351       0.006132       0.678577
       3.740000       1.192713       0.006228       0.677614
       3.750000       1.241742       0.006330       0.673625
       3.760000       1.285630       0.006441       0.666593
       3.770000       1.325718       0.006560       0.656626
       3.780000       1.364203       0.006689       0.644010
       3.790000       1.403633       0.006830       0.629250
       3.800000       1.446359       0.006983       0.613070
       3.810000       1.494111       0.007150       0.596351
       3.820000       1.547759       0.007331       0.580016
       3.830000       1.607284       0.007529       0.564900
       3.840000       1.671911       0.007744       0.551651
       3.850000       1.740368       0.007976       0.540683
       3.860000       1.811159       0.008223       0.532177
       3.870000       1.882735       0.008482       0.526122
       3.880000       1.953438       0.008749       0.522355
       3.890000       2.021255       0.009016       0.520595
       3.900000       2.083542       0.009272       0.520460
       3.910000       2.136982       0.009508       0.521479
       3.920000       2.177975       0.009711       0.523143
       3.930000       2.203412       0.009874       0.524976
       3.940000       2.211543       0.009994       0.526632
       3.950000       2.202516       0.010071       0.527983
       3.960000       2.178323       0.010111       0.529157
       3.970000       2.142221       0.010123       0.530517
       3.980000       2.097978       0.010114       0.532587
       3.990000       2.049302       0.010094       0.535941
       4.000000       1.999594       0.010068       0.541094
       4.010000       1.951943       0.010045       0.548397
       4.020000       1.909157       0.010029       0.557964
       4.030000       1.873715       0.010028       0.569642
       4.040000       1.847630       0.010044       0.583011
       4.050000       1.832274       0.010083       0.597443
       4.060000       1.828239       0.010146       0.612183
       4.070000       1.835243       0.010233       0.626444
       4.080000       1.852096       0.010344       0.639484
       4.090000       1.876741       0.010475       0.650644
       4.100000       1.906396       0.010624       0.659348
       4.110000       1.937847       0.010788       0.665093
       4.120000       1.967874       0.010963       0.667463
       4.130000       1.993744       0.011147       0.666173
       4.140000       2.013632       0.011337       0.661145
       4.150000       2.026814       0.011533       0.652580
       4.160000       2.033579       0.011730       0.640989
       4.170000       2.034922       0.011924       0.627167
       4.180000       2.032215       0.012108       0.612107
       4.190000       2.027012       0.012278       0.596869
       4.200000       2.021058       0.012429       0.582446
       4.210000       2.016378       0.012563       0.569664
       4.220000       2.015282       0.012685       0.559115
       4.230000       2.020204       0.012804       0.551156
       4.240000       2.033401       0.012932       0.545931
       4.250000       2.056605       0.013082       0.543426
       4.260000       2.090721       0.013262       0.543521
       4.270000       2.135628       0.013484       0.546034
       4.280000       2.190092       0.013752       0.550751
       4.290000       2.251853       0.014074       0.557452
       4.300000       2.317909       0.014452       0.565939
       4.310000       2.385046       0.014888       0.576059
       4.320000       2.450525       0.015385       0.587709
       4.330000       2.512711       0.015943       0.600820
       4.340000       2.571364       0.016559       0.615311
       4.350000       2.627424       0.017231       0.631041
       4.360000       2.682349       0.017950       0.647757
       4.370000       2.737294       0.018704       0.665063
       4.380000       2.792429       0.019474       0.682411
       4.390000       2.846583       0.020236       0.699126
       4.400000       2.897254       0.020962       0.714452
       4.410000       2.940928       0.021621       0.727623
       4.420000       2.973703       0.022183       0.737940
       4.430000       2.992145       0.022624       0.744868
       4.440000       2.994235       0.022933       0.748132
       4.450000       2.980059       0.023118       0.747811
       4.460000       2.951915       0.023202       0.744379
       4.470000       2.913747       0.023221       0.738681
       4.480000       2.870114       0.023222       0.731821
       4.490000       2.825169       0.023248       0.724995
       4.500000       2.782008       0.023335       0.719325
       4.510000       2.742542       0.023510       0.715733
       4.520000       2.707758       0.023788       0.714892
       4.530000       2.678106       0.024169       0.717237
       4.540000       2.653746       0.024639       0.723011
       4.550000       2.634581       0.025172       0.732318
       4.560000       2.620149       0.025726       0.745158
       4.570000       2.609592       0.026250       0.761427
       4.580000       2.601800       0.026687       0.780894
       4.590000       2.595748       0.026986       0.803155
       4.600000       2.590881       0.027113       0.827602
       4.610000       2.587376       0.027057       0.853405
       4.620000       2.586131       0.026836       0.879537
       4.630000       2.588465       0.026489       0.904851
       4.640000       2.595592       0.026069       0.928184
       4.650000       2.608043       0.025630       0.948491
       4.660000       2.625248       0.025222       0.964990
       4.670000       2.645426       0.024885       0.977283
       4.680000       2.665881       0.024645       0.985430
       4.690000       2.683641       0.024520       0.989936
       4.700000       2.696245       0.024518       0.991634
       4.710000       2.702376       0.024642       0.991507
       4.720000       2.702095       0.024890       0.990497
       4.730000       2.696615       0.025257       0.989347
       4.740000       2.687793       0.025735       0.988511
       4.750000       2.677590       0.026315       0.988110
       4.760000       2.667664       0.026986       0.987907
       4.770000       2.659142       0.027736       0.987308
       4.780000       2.652513       0.028550       0.985385
       4.790000       2.647591       0.029411       0.980974
       4.800000       2.643543       0.030294       0.972839
       4.810000       2.639004       0.031163       0.959897
       4.820000       2.632306       0.031975       0.941440
       4.830000       2.621810       0.032673       0.917272
       4.840000       2.606234       0.033203       0.887724
       4.850000       2.584896       0.033518       0.853554
       4.860000       2.557830       0.033599       0.815799
       4.870000       2.525824       0.033454       0.775617
       4.880000       2.490434       0.033125       0.734185
       4.890000       2.453951       0.032675       0.692620
       4.900000       2.419261       0.032176       0.651924
       4.910000       2.389572       0.031697       0.612943
       4.920000       2.368049       0.031293       0.576338
       4.930000       2.357455       0.031007       0.542568
       4.940000       2.359874       0.030863       0.511898
       4.950000       2.376547       0.030876       0.484422
       4.960000       2.407801       0.031045       0.460089
       4.970000       2.453026       0.031361       0.438745
       4.980000       2.510684       0.031807       0.420153
       4.990000       2.578363       0.032359       0.404025
       5.000000       2.652869       0.032990       0.390039
       5.010000       2.730397       0.033672       0.377867
       5.020000       2.806782       0.034380       0.367200
       5.030000       2.877867       0.035094       0.357782
       5.040000       2.940003       0.035805       0.349435
       5.050000       2.990639       0.036514       0.342069
       5.060000       3.028836       0.037240       0.335672
       5.070000       3.055505       0.038012       0.330278
       5.080000       3.073199       0.038864       0.325938
       5.090000       3.085505       0.039830       0.322682
       5.100000       3.096230       0.040935       0.320500
       5.110000       3.108631       0.042184       0.319328
       5.120000       3.124831       0.043558       0.319046
       5.130000       3.145496       0.045012       0.319487
       5.140000       3.169761       0.046474       0.320454
       5.150000       3.195391       0.047850       0.321744
       5.160000       3.219115       0.049037       0.323170
       5.170000       3.237089       0.049933       0.324580
       5.180000       3.245429       0.050459       0.325863
       5.190000       3.240786       0.050569       0.326956
       5.200000       3.220911       0.050262       0.327846
       5.210000       3.185071       0.049585       0.328564
       5.220000       3.134210       0.048621       0.329182
       5.230000       3.070807       0.047477       0.329796
       5.240000       2.998500       0.046267       0.330514
       5.250000       2.921608       0.045093       0.331454
       5.260000       2.844653       0.044040       0.332737
       5.270000       2.771959       0.043169       0.334484
       5.280000       2.707334       0.042518       0.336796
       5.290000       2.653862       0.042106       0.339738
       5.300000       2.613752       0.041931       0.343320
       5.310000       2.588266       0.041974       0.347495
       5.320000       2.577670       0.042198       0.352159
       5.330000       2.581217       0.042547       0.357167
       5.340000       2.597162       0.042950       0.362340
       5.350000       2.622831       0.043328       0.367463
       5.360000       2.654823       0.043603       0.372299
       5.370000       2.689383       0.043717       0.376610
       5.380000       2.722947       0.043638       0.380192
       5.390000       2.752778       0.043372       0.382929
       5.400000       2.777507       0.042957       0.384823
       5.410000       2.797381       0.042448       0.386010
       5.420000       2.814116       0.041909       0.386742
       5.430000       2.830429       0.041398       0.387354
       5.440000       2.849440       0.040964       0.388218
       5.450000       2.874137       0.040644       0.389695
       5.460000       2.906955       0.040469       0.392101
       5.470000       2.949448       0.040465       0.395683
       5.480000       3.002001       0.040653       0.400612
       5.490000       3.063588       0.041053       0.406981
       5.500000       3.131669       0.041680       0.414819
       5.510000       3.202350       0.042545       0.424104
       5.520000       3.270919       0.043655       0.434788
       5.530000       3.332764       0.045010       0.446828
       5.540000       3.384495       0.046604       0.460222
       5.550000       3.424900       0.048420       0.475046
       5.560000       3.455368       0.050424       0.491472
       5.570000       3.479592       0.052570       0.509770
       5.580000       3.502699       0.054789       0.530282
       5.590000       3.530193       0.056995       0.553397
       5.600000       3.567074       0.059097       0.579515
       5.610000       3.617328       0.061004       0.609024
       5.620000       3.683747       0.062636       0.642276
       5.630000       3.767965       0.063934       0.679566
       5.640000       3.870581       0.064860       0.721104
       5.650000       3.991312       0.065394       0.766977
       5.660000       4.129159       0.065541       0.817112
       5.670000       4.282576       0.065335       0.871229
       5.680000       4.449631       0.064838       0.928811
       5.690000       4.628171       0.064136       0.989088
       5.700000       4.816047       0.063320       1.051069
       5.710000       5.011421       0.062474       1.113623
       5.720000       5.213123       0.061663       1.175626
       5.730000       5.420893       0.060927       1.236125
       5.740000       5.635421       0.060285       1.294475
       5.750000       5.858117       0.059744       1.350356
       5.760000       6.090688       0.059302       1.403657
       5.770000       6.334583       0.058946       1.454262
       5.780000       6.590411       0.058659       1.501832
       5.790000       6.857438       0.058417       1.545702
       5.800000       7.133284       0.058194       1.584953
       5.810000       7.413876       0.057975       1.618611
       5.820000       7.693685       0.057760       1.645930
       5.830000       7.966136       0.057569       1.666652
       5.840000       8.224107       0.057440       1.681198
       5.850000       8.460414       0.057422       1.690737
       5.860000       8.668275       0.057566       1.697067
       5.870000       8.841807       0.057917       1.702323
       5.880000       8.976603       0.058511       1.708560
       5.890000       9.070311       0.059372       1.717326
       5.900000       9.123024       0.060506       1.729348
       5.910000       9.137244       0.061901       1.744390
       5.920000       9.117336       0.063524       1.761308
       5.930000       9.068606       0.065321       1.778280
       5.940000       8.996297       0.067222       1.793180
       5.950000       8.904815       0.069145       1.804005
       5.960000       8.797355       0.071014       1.809284
       5.970000       8.675929       0.072761       1.808346
       5.980000       8.541743       0.074339       1.801435
       5.990000       8.395837       0.075715       1.789655
       6.000000       8.239837       0.076864       1.774784
       6.010000       8.076542       0.077763       1.758990
       6.020000       7.910049       0.078393       1.744504
       6.030000       7.745302       0.078741       1.733278
       6.040000       7.587265       0.078811       1.726686
       6.050000       7.440109       0.078622       1.725279
       6.060000       7.306738       0.078201       1.728660
       6.070000       7.188733       0.077586       1.735478
       6.080000       7.086603       0.076822       1.743606
       6.090000       7.000128       0.075964       1.750476
       6.100000       6.928622       0.075082       1.753564
       6.110000       6.871023       0.074253       1.750903
       6.120000       6.825788       0.073553       1.741480
       6.130000       6.790629       0.073038       1.725392
       6.140000       6.762236       0.072738       1.703735
       6.150000       6.736174       0.072644       1.678326
       6.160000       6.707147       0.072708       1.651391
       6.170000       6.669700       0.072849       1.625292
       6.180000       6.619271       0.072969       1.602332
       6.190000       6.553286       0.072972       1.584565
       6.200000       6.471865       0.072791       1.573633
       6.210000       6.377793       0.072405       1.570596
       6.220000       6.275715       0.071844       1.575806
       6.230000       6.170884       0.071181       1.588810
       6.240000       6.067998       0.070509       1.608303
       6.250000       5.970575       0.069920       1.632150
       6.260000       5.880966       0.069489       1.657514
       6.270000       5.800757       0.069259       1.681147
       6.280000       5.731167       0.069246       1.699862
       6.290000       5.673118       0.069439       1.711118
       6.300000       5.627006       0.069810       1.713534
       6.310000       5.592409       0.070329       1.707150
       6.320000       5.568043       0.070975       1.693305
       6.330000       5.552089       0.071746       1.674218
       6.340000       5.542796       0.072667       1.652432
       6.350000       5.539084       0.073779       1.630341
       6.360000       5.540833       0.075133       1.609908
       6.370000       5.548675       0.076772       1.592606
       6.380000       5.563375       0.078729       1.579493
       6.390000       5.585043       0.081007       1.571337
       6.400000       5.612482       0.083583       1.568710
       6.410000       5.642910       0.086406       1.572041
       6.420000       5.672105       0.089397       1.581623
       6.430000       5.694945       0.092462       1.597557
       6.440000       5.706196       0.095504       1.619641
       6.450000       5.701376       0.098431       1.647216
       6.460000       5.677470       0.101163       1.679023
       6.470000       5.633324       0.103635       1.713161
       6.480000       5.569618       0.105783       1.747245
       6.490000       5.488529       0.107543       1.778769
       6.500000       5.393250       0.108859       1.805609
       6.510000       5.287548       0.109694       1.826508
       6.520000       5.175377       0.110047       1.841348
       6.530000       5.060520       0.109961       1.851115
       6.540000       4.946283       0.109517       1.857596
       6.550000       4.835319       0.108811       1.862937
       6.560000       4.729688       0.107935       1.869243
       6.570000       4.631083       0.106952       1.878322
       6.580000       4.541121       0.105889       1.891612
       6.590000       4.461566       0.104738       1.910255
       6.600000       4.394384       0.103468       1.935263
       6.610000       4.341663       0.102044       1.967689
       6.620000       4.305413       0.100442       2.008752
       6.630000       4.287330       0.098665       2.059853
       6.640000       4.288542       0.096748       2.122470
       6.650000       4.309368       0.094759       2.197942
       6.660000       4.349060       0.092795       2.287181
       6.670000       4.405579       0.090965       2.390333
       6.680000       4.475438       0.089379       2.506425
       6.690000       4.553730       0.088130       2.633047
       6.700000       4.634462       0.087293       2.766137
       6.710000       4.711249       0.086917       2.900011
       6.720000       4.778253       0.087032       3.027754
       6.730000       4.831096       0.087647       3.142016
       6.740000       4.867399       0.088755       3.236122
       6.750000       4.886758       0.090327       3.305176
       6.760000       4.890224       0.092318       3.346800
       6.770000       4.879566       0.094656       3.361269
       6.780000       4.856669       0.097250       3.351094
       6.790000       4.823282       0.099991       3.320306
       6.800000       4.781145       0.102768       3.273722
       6.810000       4.732316       0.105478       3.216286
       6.820000       4.679403       0.108045       3.152510
       6.830000       4.625450       0.110416       3.086001
       6.840000       4.573422       0.112553       3.019171
       6.850000       4.525478       0.114415       2.953257
       6.860000       4.482352       0.115949       2.888685
       6.870000       4.443139       0.117086       2.825655
       6.880000       4.405613       0.117755       2.764693
       6.890000       4.367014       0.117909       2.706945
       6.900000       4.325016       0.117536       2.654088
       6.910000       4.278528       0.116669       2.607941
       6.920000       4.228040       0.115393       2.569956
       6.930000       4.175469       0.113830       2.540784
       6.940000       4.123682       0.112133       2.520054
       6.950000       4.075979       0.110464       2.506403
       6.960000       4.035716       0.108980       2.497729
       6.970000       4.006063       0.107808       2.491568
       6.980000       3.989775       0.107036       2.485489
       6.990000       3.988885       0.106707       2.477407
       7.000000       4.004348       0.106811       2.465779
       7.010000       4.035769       0.107292       2.449679
       7.020000       4.081357       0.108049       2.428816
       7.030000       4.138212       0.108950       2.403511
       7.040000       4.202959       0.109851       2.374639
       7.050000       4.272611       0.110624       2.343496
       7.060000       4.345427       0.111181       2.311584
       7.070000       4.421468       0.111496       2.280306
       7.080000       4.502602       0.111605       2.250680
       7.090000       4.591942       0.111590       2.223127
       7.100000       4.692862       0.111548       2.197414
       7.110000       4.807912       0.111570       2.172766
       7.120000       4.937931       0.111722       2.148095
       7.130000       5.081598       0.112042       2.122276
       7.140000       5.235540       0.112552       2.094387
       7.150000       5.394966       0.113272       2.063871
       7.160000       5.554629       0.114234       2.030612
       7.170000       5.709795       0.115485       1.994961
       7.180000       5.856883       0.117088       1.957730
       7.190000       5.993646       0.119106       1.920157
       7.200000       6.118973       0.121600       1.883845
       7.210000       6.232545       0.124615       1.850629
       7.220000       6.334555       0.128175       1.822383
       7.230000       6.425580       0.132284       1.800781
       7.240000       6.506547       0.136920       1.787059
       7.250000       6.578651       0.142040       1.781830
       7.260000       6.643133       0.147574       1.784977
       7.270000       6.700944       0.153429       1.795633
       7.280000       6.752436       0.159492       1.812261
       7.290000       6.797236       0.165643       1.832811
       7.300000       6.834364       0.171765       1.854962
       7.310000       6.862518       0.177758       1.876408
       7.320000       6.880404       0.183536       1.895133
       7.330000       6.887019       0.189026       1.909601
       7.340000       6.881863       0.194154       1.918807
       7.350000       6.865068       0.198849       1.922207
       7.360000       6.837398       0.203052       1.919597
       7.370000       6.800093       0.206744       1.911012
       7.380000       6.754618       0.209961       1.896680
       7.390000       6.702408       0.212810       1.877027
       7.400000       6.644671       0.215453       1.852672
       7.410000       6.582171       0.218085       1.824393
       7.420000       6.514988       0.220902       1.793060
       7.430000       6.442272       0.224080       1.759560
       7.440000       6.362140       0.227752       1.724744
       7.450000       6.271839       0.232008       1.689402
       7.460000       6.168214       0.236881       1.654276
       7.470000       6.048405       0.242342       1.620098
       7.480000       5.910660       0.248301       1.587607
       7.490000       5.755078       0.254616       1.557532
       7.500000       5.584078       0.261130       1.530514
       7.510000       5.402393       0.267703       1.507006
       7.520000       5.216506       0.274255       1.487190
       7.530000       5.033678       0.280787       1.470951
       7.540000       4.860868       0.287397       1.457916
       7.550000       4.703884       0.294259       1.447553
       7.560000       4.566905       0.301597       1.439295
       7.570000       4.452373       0.309638       1.432652
       7.580000       4.361092       0.318546       1.427280
       7.590000       4.292422       0.328368       1.422984
       7.600000       4.244504       0.338988       1.419649
       7.610000       4.214550       0.350118       1.417140
       7.620000       4.199240       0.361324       1.415221
       7.630000       4.195184       0.372102       1.413542
       7.640000       4.199315       0.381969       1.411698
       7.650000       4.209019       0.390561       1.409345
       7.660000       4.221929       0.397698       1.406330
       7.670000       4.235491       0.403392       1.402777
       7.680000       4.246558       0.407813       1.399111
       7.690000       4.251290       0.411210       1.396009
       7.700000       4.245513       0.413814       1.394280
       7.710000       4.225490       0.415758       1.394716
       7.720000       4.188885       0.417040       1.397932
       7.730000       4.135533       0.417546       1.404241
       7.740000       4.067681       0.417115       1.413557
       7.750000       3.989566       0.415639       1.425372
       7.760000       3.906485       0.413138       1.438800
       7.770000       3.823682       0.409785       1.452712
       7.780000       3.745406       0.405886       1.465933
       7.790000       3.674356       0.401810       1.477471
       7.800000       3.611575       0.397926       1.486709
       7.810000       3.556730       0.394562       1.493494
       7.820000       3.508611       0.392007       1.498105
       7.830000       3.465654       0.390524       1.501102
       7.840000       3.426305       0.390365       1.503121
       7.850000       3.389156       0.391761       1.504674
       7.860000       3.352907       0.394892       1.506014
       7.870000       3.316254       0.399833       1.507101
       7.880000       3.277826       0.406505       1.507639
       7.890000       3.236228       0.414632       1.507158
       7.900000       3.190188       0.423730       1.505085
       7.910000       3.138797       0.433133       1.500808
       7.920000       3.081734       0.442067       1.493734
       7.930000       3.019383       0.449775       1.483375
       7.940000       2.952732       0.455637       1.469457
       7.950000       2.883077       0.459283       1.452014
       7.960000       2.811663       0.460640       1.431425
       7.970000       2.739421       0.459926       1.408370
       7.980000       2.666921       0.457596       1.383735
       7.990000       2.594522       0.454265       1.358495
       8.000000       2.522638       0.450607       1.333614
       8.010000       2.452001       0.447247       1.309965
       8.020000       2.383819       0.444674       1.288295
       8.030000       2.319773       0.443178       1.269197
       8.040000       2.261864       0.442836       1.253102
       8.050000       2.212160       0.443541       1.240270
       8.060000       2.172543       0.445054       1.230794
       8.070000       2.144522       0.447098       1.224601
       8.080000       2.129135       0.449434       1.221474
       8.090000       2.126926       0.451941       1.221098
       8.100000       2.137956       0.454643       1.223118
       8.110000       2.161835       0.457707       1.227188
       8.120000       2.197743       0.461387       1.232981
       8.130000       2.244484       0.465961       1.240196
       8.140000       2.300572       0.471657       1.248560
       8.150000       2.364373       0.478600       1.257876
       8.160000       2.434260       0.486763       1.268100
       8.170000       2.508697       0.495932       1.279415
       8.180000       2.586174       0.505680       1.292231
       8.190000       2.664968       0.515378       1.307093
       8.200000       2.742832       0.524251       1.324478
       8.210000       2.816754       0.531478       1.344576
       8.220000       2.882945       0.536336       1.367120
       8.230000       2.937142       0.538318       1.391341
       8.240000       2.975187       0.537225       1.416068
       8.250000       2.993774       0.533187       1.439936
       8.260000       2.991152       0.526635       1.461647
       8.270000       2.967568       0.518221       1.480181
       8.280000       2.925315       0.508720       1.494913
       8.290000       2.868370       0.498943       1.505623
       8.300000       2.801748       0.489649       1.512423
       8.310000       2.730743       0.481494       1.515666
       8.320000       2.660223       0.474994       1.515871
       8.330000       2.594076       0.470511       1.513669
       8.340000       2.534899       0.468249       1.509750
       8.350000       2.483921       0.468260       1.504770
       8.360000       2.441157       0.470461       1.499235
       8.370000       2.405738       0.474669       1.493375
       8.380000       2.376354       0.480634       1.487078
       8.390000       2.351701       0.488077       1.479933
       8.400000       2.330836       0.496718       1.471388
       8.410000       2.313300       0.506288       1.460977
       8.420000       2.299007       0.516543       1.448530
       8.430000       2.287963       0.527263       1.434269
       8.440000       2.279989       0.538256       1.418732
       8.450000       2.274587       0.549342       1.402604
       8.460000       2.271030       0.560338       1.386509
       8.470000       2.268567       0.571031       1.370896
       8.480000       2.266601       0.581166       1.356037
       8.490000       2.264700       0.590443       1.342120
       8.500000       2.262405       0.598535       1.329364
       8.510000       2.258971       0.605122       1.318092
       8.520000       2.253200       0.609921       1.308723
       8.530000       2.243473       0.612708       1.301702
       8.540000       2.228001       0.613316       1.297406
       8.550000       2.205219       0.611620       1.296076
       8.560000       2.174226       0.607525       1.297774
       8.570000       2.135116       0.600980       1.302377
       8.580000       2.089081       0.592036       1.309590
       8.590000       2.038235       0.580902       1.318993
       8.600000       1.985187       0.567999       1.330104
       8.610000       1.932534       0.553941       1.342472
       8.620000       1.882438       0.539458       1.355770
       8.630000       1.836375       0.525276       1.369868
       8.640000       1.795116       0.511993       1.384855
       8.650000       1.758884       0.499999       1.400997
       8.660000       1.727623       0.489449       1.418636
       8.670000       1.701258       0.480295       1.438060
       8.680000       1.679864       0.472370       1.459390
       8.690000       1.663691       0.465483       1.482522
       8.700000       1.653086       0.459505       1.507146
       8.710000       1.648377       0.454417       1.532834
       8.720000       1.649782       0.450306       1.559167
       8.730000       1.657353       0.447319       1.585851
       8.740000       1.670929       0.445603       1.612782
       8.750000       1.690078       0.445254       1.640032
       8.760000       1.714021       0.446285       1.667765
       8.770000       1.741546       0.448642       1.696100
       8.780000       1.770936       0.452229       1.724980
       8.790000       1.799930       0.456959       1.754098
       8.800000       1.825737       0.462786       1.782898
       8.810000       1.845210       0.469701       1.810656
       8.820000       1.855198       0.477706       1.836614
       8.830000       1.853121       0.486755       1.860123
       8.840000       1.837599       0.496719       1.880743
       8.850000       1.808910       0.507380       1.898291
       8.860000       1.769042       0.518466       1.912807
       8.870000       1.721302       0.529718       1.924490
       8.880000       1.669624       0.540953       1.933629
       8.890000       1.617858       0.552085       1.940580
       8.900000       1.569241       0.563094       1.945775
       8.910000       1.526128       0.573984       1.949759
       8.920000       1.489940       0.584737       1.953219
       8.930000       1.461245       0.595313       1.957003
       8.940000       1.439887       0.605670       1.962090
       8.950000       1.425153       0.615796       1.969526
       8.960000       1.415963       0.625717       1.980311
       8.970000       1.411105       0.635487       1.995281
       8.980000       1.409502       0.645168       2.015020
       8.990000       1.410437       0.654807       2.039834
       9.000000       1.413663       0.664416       2.069799
       9.010000       1.419332       0.673952       2.104860
       9.020000       1.427782       0.683286       2.144937
       9.030000       1.439268       0.692174       2.189994
       9.040000       1.453741       0.700237       2.240050
       9.050000       1.470735       0.706980       2.295148
       9.060000       1.489364       0.711872       2.355326
       9.070000       1.508422       0.714465       2.420645
       9.080000       1.526536       0.714519       2.491273
       9.090000       1.542395       0.712074       2.567580
       9.100000       1.554983       0.707442       2.650176
       9.110000       1.563810       0.701149       2.739873
       9.120000       1.569033       0.693838       2.837566
       9.130000       1.571430       0.686197       2.944106
       9.140000       1.572207       0.678890       3.060192
       9.150000       1.572720       0.672519       3.186326
       9.160000       1.574168       0.667579       3.322837
       9.170000       1.577374       0.664405       3.469930
       9.180000       1.582676       0.663124       3.627744
       9.190000       1.589988       0.663623       3.796411
       9.200000       1.598988       0.665550       3.976107
       9.210000       1.609364       0.668364       4.167132
       9.220000       1.621016       0.671424       4.369992
       9.230000       1.634118       0.674097       4.585446
       9.240000       1.649023       0.675875       4.814501
       9.250000       1.666072       0.676456       5.058368
       9.260000       1.685397       0.675793       5.318404
       9.270000       1.706817       0.674074       5.596021
       9.280000       1.729839       0.671648       5.892504
       9.290000       1.753744       0.668909       6.208678
       9.300000       1.777706       0.666179       6.544425
       9.310000       1.800884       0.663645       6.898110
       9.320000       1.822464       0.661354       7.266042
       9.330000       1.841670       0.659264       7.642113
       9.340000       1.857766       0.657301       8.017765
       9.350000       1.870081       0.655381       8.382387
       9.360000       1.878036       0.653389       8.724145
       9.370000       1.881183       0.651124       9.031131
       9.380000       1.879212       0.648269       9.292638
       9.390000       1.871926       0.644409       9.500357
       9.400000       1.859172       0.639126       9.649280
       9.410000       1.840762       0.632128       9.738128
       9.420000       1.816417       0.623379       9.769185
       9.430000       1.785810       0.613170       9.747633
       9.440000       1.748712       0.602100       9.680613
       9.450000       1.705218       0.590988       9.576277
       9.460000       1.655949       0.580722       9.442975
       9.470000       1.602113       0.572130       9.288575
       9.480000       1.545377       0.565874       9.119912
       9.490000       1.487598       0.562400       8.942418
       9.500000       1.430537       0.561932       8.760023
       9.510000       1.375679       0.564502       8.575362
       9.520000       1.324189       0.569990       8.390203
       9.530000       1.276939       0.578192       8.205920
       9.540000       1.234553       0.588876       8.023826
       9.550000       1.197400       0.601824       7.845265
       9.560000       1.165559       0.616841       7.671456
       9.570000       1.138788       0.633737       7.503256
       9.580000       1.116540       0.652277       7.340984
       9.590000       1.098030       0.672142       7.184466
       9.600000       1.082367       0.692905       7.033286
       9.610000       1.068687       0.714023       6.887176
       9.620000       1.056281       0.734839       6.746380
       9.630000       1.044654       0.754594       6.611839
       9.640000       1.033524       0.772457       6.485045
       9.650000       1.022777       0.787588       6.367569
       9.660000       1.012390       0.799224       6.260370
       9.670000       1.002385       0.806793       6.163106
       9.680000       0.992813       0.810014       6.073720
       9.690000       0.983778       0.808970       5.988466
       9.700000       0.975467       0.804127       5.902452
       9.710000       0.968167       0.796291       5.810581
       9.720000       0.962235       0.786506       5.708677
       9.730000       0.958049       0.775911       5.594478
       9.740000       0.955951       0.765587       5.468204
       9.750000       0.956198       0.756426       5.332508
       9.760000       0.958937       0.749038       5.191848
       9.770000       0.964191       0.743736       5.051489
       9.780000       0.971851       0.740574       4.916471
       9.790000       0.981677       0.739417       4.790815
       9.800000       0.993283       0.740034       4.677084
       9.810000       1.006140       0.742163       4.576285
       9.820000       1.019593       0.745546       4.487991
       9.830000       1.032936       0.749921       4.410617
       9.840000       1.045539       0.755010       4.341767
       9.850000       1.057012       0.760508       4.278605
       9.860000       1.067333       0.766112       4.218200
       9.870000       1.076885       0.771575       4.157825
       9.880000       1.086388       0.776776       4.095197
       9.890000       1.096743       0.781760       4.028687
       9.900000       1.108839       0.786732       3.957503
       9.910000       1.123393       0.791983       3.881798
       9.920000       1.140829       0.797787       3.802648
       9.930000       1.161231       0.804282       3.721874
       9.940000       1.184359       0.811406       3.641723
       9.950000       1.209719       0.818896       3.564485
       9.960000       1.236691       0.826368       3.492158
       9.970000       1.264664       0.833426       3.426209
       9.980000       1.293139       0.839778       3.367473
       9.990000       1.321762       0.845282       3.316180
      10.000000       1.350272       0.849935       3.272085
      10.010000       1.378393       0.853803       3.234670
      10.020000       1.405724       0.856958       3.203339
      10.030000       1.431637       0.859449       3.177574
      10.040000       1.455251       0.861345       3.156975
      10.050000       1.475467       0.862806       3.141190
      10.060000       1.491115       0.864162       3.129766
      10.070000       1.501178       0.865922       3.121959
      10.080000       1.505037       0.868713       3.116572
      10.090000       1.502656       0.873142       3.111886
      10.100000       1.494609       0.879629       3.105759
      10.110000       1.481930       0.888254       3.095908
      10.120000       1.465846       0.898666       3.080300
      10.130000       1.447497       0.910052       3.057522
      10.140000       1.427764       0.921209       3.026983
      10.150000       1.407228       0.930719       2.988898
      10.160000       1.386231       0.937202       2.944111
      10.170000       1.364945       0.939589       2.893861
      10.180000       1.343418       0.937351       2.839597
      10.190000       1.321573       0.930587       2.782873
      10.200000       1.299215       0.919979       2.725297
      10.210000       1.276072       0.906641       2.668502
      10.220000       1.251877       0.891915       2.614065
      10.230000       1.226472       0.877178       2.563401
      10.240000       1.199907       0.863673       2.517624
      10.250000       1.172482       0.852378       2.477464
      10.260000       1.144715       0.843910       2.443250
      10.270000       1.117244       0.838469       2.414987
      10.280000       1.090701       0.835849       2.392462
      10.290000       1.065610       0.835524       2.375321
      10.300000       1.042336       0.836796       2.363070
      10.310000       1.021108       0.839010       2.354996
      10.320000       1.002082       0.841751       2.350076
      10.330000       0.985395       0.844978       2.346922
      10.340000       0.971198       0.849014       2.343830
      10.350000       0.959624       0.854430       2.338961
      10.360000       0.950726       0.861843       2.330625
      10.370000       0.944430       0.871740       2.317613
      10.380000       0.940531       0.884363       2.299459
      10.390000       0.938758       0.899684       2.276524
      10.400000       0.938855       0.917445       2.249881
      10.410000       0.940667       0.937228       2.221021
      10.420000       0.944169       0.958506       2.191545
      10.430000       0.949429       0.980665       2.162899
      10.440000       0.956530       1.002996       2.136256
      10.450000       0.965474       1.024680       2.112499
      10.460000       0.976106       1.044804       2.092266
      10.470000       0.988082       1.062385       2.076002
      10.480000       1.000886       1.076425       2.063988
      10.490000       1.013882       1.085985       2.056350
      10.500000       1.026418       1.090286       2.053091
      10.510000       1.037927       1.088842       2.054118
      10.520000       1.048020       1.081598       2.059265
      10.530000       1.056538       1.069031       2.068257
      10.540000       1.063545       1.052175       2.080640
      10.550000       1.069289       1.032536       2.095721
      10.560000       1.074140       1.011912       2.112548
      10.570000       1.078530       0.992156       2.129968
      10.580000       1.082893       0.974958       2.146725
      10.590000       1.087630       0.961684       2.161551
      10.600000       1.093091       0.953300       2.173231
      10.610000       1.099569       0.950364       2.180640
      10.620000       1.107312       0.953050       2.182803
      10.630000       1.116533       0.961202       2.179003
      10.640000       1.127397       0.974376       2.168934
      10.650000       1.140005       0.991899       2.152844
      10.660000       1.154331       1.012913       2.131597
      10.670000       1.170146       1.036442       2.106589
      10.680000       1.186926       1.061457       2.079561
      10.690000       1.203808       1.086940       2.052333
      10.700000       1.219618       1.111963       2.026576
      10.710000       1.232998       1.135743       2.003634
      10.720000       1.242628       1.157681       1.984452
      10.730000       1.247476       1.177355       1.969581
      10.740000       1.247001       1.194484       1.959233
      10.750000       1.241233       1.208877       1.953365
      10.760000       1.230705       1.220409       1.951763
      10.770000       1.216270       1.229021       1.954106
      10.780000       1.198881       1.234753       1.960029
      10.790000       1.179415       1.237766       1.969149
      10.800000       1.158589       1.238336       1.981063
      10.810000       1.136942       1.236833       1.995325
      10.820000       1.114877       1.233687       2.011402
      10.830000       1.092704       1.229356       2.028623
      10.840000       1.070677       1.224272       2.046137
      10.850000       1.049001       1.218761       2.062877
      10.860000       1.027812       1.212962       2.077568
      10.870000       1.007167       1.206792       2.088798
      10.880000       0.987056       1.200029       2.095160
      10.890000       0.967460       1.192480       2.095462
      10.900000       0.948412       1.184171       2.088952
      10.910000       0.930046       1.175451       2.075507
      10.920000       0.912603       1.166964       2.055713
      10.930000       0.896378       1.159513       2.030818
      10.940000       0.881668       1.153900       2.002554
      10.950000       0.868718       1.150812       1.972870
      10.960000       0.857703       1.150770       1.943643
      10.970000       0.848732       1.154124       1.916429
      10.980000       0.841858       1.161047       1.892310
      10.990000       0.837108       1.171530       1.871840
      11.000000       0.834500       1.185384       1.855110
      11.010000       0.834053       1.202269       1.841871
      11.020000       0.835781       1.221757       1.831707
      11.030000       0.839666       1.243405       1.824199
      11.040000       0.845626       1.266829       1.819072
      11.050000       0.853499       1.291762       1.816298
      11.060000       0.863045       1.318086       1.816127
      11.070000       0.873958       1.345829       1.819061
      11.080000       0.885890       1.375111       1.825774
      11.090000       0.898483       1.406051       1.837007
      11.100000       0.911426       1.438684       1.853451
      11.110000       0.924511       1.472923       1.875626
      11.120000       0.937673       1.508569       1.903775
      11.130000       0.951000       1.545361       1.937754
      11.140000       0.964683       1.583012       1.976947
      11.150000       0.978940       1.621213       2.020181
      11.160000       0.993916       1.659587       2.065692
      11.170000       1.009619       1.697623       2.111164
      11.180000       1.025888       1.734615       2.153872
      11.190000       1.042416       1.769659       2.190958
      11.200000       1.058810       1.801716       2.219787
      11.210000       1.074667       1.829724       2.238337
      11.220000       1.089641       1.852703       2.245499
      11.230000       1.103486       1.869838       2.241220
      11.240000       1.116080       1.880559       2.226424
      11.250000       1.127446       1.884666       2.202752
      11.260000       1.137771       1.882489       2.172184
      11.270000       1.147395       1.874970       2.136655
      11.280000       1.156743       1.863567       2.097751
      11.290000       1.166220       1.849969       2.056541
      11.300000       1.176091       1.835724       2.013577
      11.310000       1.186399       1.821946       1.969043
      11.320000       1.196939       1.809197       1.923009
      11.330000       1.207266       1.797572       1.875690
      11.340000       1.216751       1.786905       1.827616
      11.350000       1.224664       1.777000       1.779661
      11.360000       1.230304       1.767795       1.732916
      11.370000       1.233147       1.759430       1.688471
      11.380000       1.232997       1.752216       1.647198
      11.390000       1.230059       1.746539       1.609579
      11.400000       1.224915       1.742758       1.575652
      11.410000       1.218375       1.741107       1.545052
      11.420000       1.211269       1.741611       1.517151
      11.430000       1.204240       1.744016       1.491249
      11.440000       1.197592       1.747727       1.466744
      11.450000       1.191227       1.751795       1.443236
      11.460000       1.184670       1.754962       1.420540
      11.470000       1.177155       1.755787       1.398612
      11.480000       1.167777       1.752831       1.377463
      11.490000       1.155650       1.744901       1.357095
      11.500000       1.140087       1.731289       1.337473
      11.510000       1.120741       1.711975       1.318519
      11.520000       1.097692       1.687697       1.300097
      11.530000       1.071452       1.659859       1.281983
      11.540000       1.042869       1.630250       1.263837
      11.550000       1.012974       1.600664       1.245214
      11.560000       0.982800       1.572551       1.225659
      11.570000       0.953248       1.546826       1.204865
      11.580000       0.925024       1.523891       1.182822
      11.590000       0.898641       1.503820       1.159910
      11.600000       0.874466       1.486616       1.136867
      11.610000       0.852748       1.472406       1.114663
      11.620000       0.833634       1.461496       1.094327
      11.630000       0.817147       1.454291       1.076789
      11.640000       0.803170       1.451156       1.062776
      11.650000       0.791459       1.452312       1.052767
      11.660000       0.781687       1.457812       1.046993
      11.670000       0.773530       1.467614       1.045462
      11.680000       0.766739       1.481664       1.047975
      11.690000       0.761184       1.499910       1.054123
      11.700000       0.756823       1.522190       1.063250
      11.710000       0.753624       1.548019       1.074428
      11.720000       0.751470       1.576367       1.086448
      11.730000       0.750104       1.605553       1.097889
      11.740000       0.749138       1.633338       1.107254
      11.750000       0.748125       1.657219       1.113172
      11.760000       0.746671       1.674883       1.114602
      11.770000       0.744527       1.684675       1.110961
      11.780000       0.741645       1.685937       1.102156
      11.790000       0.738172       1.679106       1.088509
      11.800000       0.734399       1.665536       1.070654
      11.810000       0.730691       1.647129       1.049434
      11.820000       0.727414       1.625908       1.025815
      11.830000       0.724875       1.603667       1.000811
      11.840000       0.723287       1.581751       0.975400
      11.850000       0.722747       1.560975       0.950445
      11.860000       0.723242       1.541640       0.926630
      11.870000       0.724661       1.523618       0.904442
      11.880000       0.726833       1.506488       0.884173
      11.890000       0.729560       1.489684       0.865947
      11.900000       0.732640       1.472643       0.849746
      11.910000       0.735869       1.454915       0.835425
      11.920000       0.739020       1.436233       0.822713
      11.930000       0.741801       1.416546       0.811228
      11.940000       0.743841       1.396035       0.800497
      11.950000       0.744700       1.375142       0.790029
      11.960000       0.743924       1.354569       0.779410
      11.970000       0.741127       1.335229       0.768413
      11.980000       0.736074       1.318110       0.757056
      11.990000       0.728753       1.304076       0.745602
      12.000000       0.719412       1.293697       0.734490
      12.010000       0.708551       1.287162       0.724240
      12.020000       0.696868       1.284311       0.715368
      12.030000       0.685157       1.284792       0.708322
      12.040000       0.674188       1.288265       0.703440
      12.050000       0.664608       1.294576       0.700921
      12.060000       0.656869       1.303817       0.700795
      12.070000       0.651199       1.316221       0.702914
      12.080000       0.647601       1.331954       0.706941
      12.090000       0.645880       1.350872       0.712371
      12.100000       0.645684       1.372363       0.718567
      12.110000       0.646544       1.395352       0.724824
      12.120000       0.647945       1.418463       0.730452
      12.130000       0.649379       1.440309       0.734866
      12.140000       0.650409       1.459788       0.737683
      12.150000       0.650711       1.476291       0.738776
      12.160000       0.650093       1.489744       0.738288
      12.170000       0.648495       1.500490       0.736584
      12.180000       0.645975       1.509078       0.734165
      12.190000       0.642679       1.516015       0.731564
      12.200000       0.638803       1.521572       0.729280
      12.210000       0.634541       1.525682       0.727732
      12.220000       0.630045       1.527979       0.727260
      12.230000       0.625413       1.527975       0.728125
      12.240000       0.620709       1.525300       0.730494
      12.250000       0.616013       1.519903       0.734421
      12.260000       0.611451       1.512105       0.739804
      12.270000       0.607208       1.502470       0.746363
      12.280000       0.603503       1.491577       0.753626
      12.290000       0.600548       1.479821       0.760966
      12.300000       0.598506       1.467334       0.767676
      12.310000       0.597458       1.454065       0.773078
      12.320000       0.597401       1.439952       0.776633
      12.330000       0.598265       1.425107       0.778028
      12.340000       0.599950       1.409920       0.777194
      12.350000       0.602368       1.395066       0.774277
      12.360000       0.605468       1.381421       0.769571
      12.370000       0.609234       1.369919       0.763454
      12.380000       0.613672       1.361405       0.756331
      12.390000       0.618781       1.356505       0.748611
      12.400000       0.624535       1.355538       0.740698
      12.410000       0.630870       1.358463       0.732995
      12.420000       0.637679       1.364865       0.725906
      12.430000       0.644800       1.373963       0.719816
      12.440000       0.651984       1.384681       0.715055
      12.450000       0.658889       1.395778       0.711863
      12.460000       0.665091       1.406047       0.710354
      12.470000       0.670143       1.414525       0.710497
      12.480000       0.673658       1.420655       0.712125
      12.490000       0.675381       1.424332       0.714950
      12.500000       0.675218       1.425851       0.718595
      12.510000       0.673222       1.425780       0.722615
      12.520000       0.669558       1.424805       0.726517
      12.530000       0.664447       1.423571       0.729784
      12.540000       0.658131       1.422557       0.731897
      12.550000       0.650857       1.422009       0.732369
      12.560000       0.642866       1.421950       0.730791
      12.570000       0.634405       1.422233       0.726878
      12.580000       0.625730       1.422610       0.720500
      12.590000       0.617103       1.422795       0.711707
      12.600000       0.608760       1.422528       0.700708
      12.610000       0.600870       1.421649       0.687832
      12.620000       0.593492       1.420154       0.673466
      12.630000       0.586567       1.418181       0.657998
      12.640000       0.579925       1.415915       0.641785
      12.650000       0.573340       1.413441       0.625151
      12.660000       0.566598       1.410640       0.608406
      12.670000       0.559564       1.407181       0.591858
      12.680000       0.552234       1.402633       0.575823
      12.690000       0.544741       1.396613       0.560607
      12.700000       0.537327       1.388917       0.546489
      12.710000       0.530289       1.379594       0.533700
      12.720000       0.523918       1.368955       0.522415
      12.730000       0.518457       1.357539       0.512741
      12.740000       0.514078       1.346031       0.504726
      12.750000       0.510875       1.335141       0.498361
      12.760000       0.508867       1.325475       0.493599
      12.770000       0.508019       1.317449       0.490375
      12.780000       0.508251       1.311258       0.488624
      12.790000       0.509466       1.306949       0.488296
      12.800000       0.511564       1.304532       0.489359
      12.810000       0.514455       1.304108       0.491793
      12.820000       0.518061       1.305931       0.495575
      12.830000       0.522310       1.310380       0.500676
      12.840000       0.527124       1.317872       0.507057
      12.850000       0.532411       1.328763       0.514678
      12.860000       0.538069       1.343278       0.523501
      12.870000       0.543975       1.361487       0.533481
      12.880000       0.549983       1.383261       0.544558
      12.890000       0.555901       1.408213       0.556659
      12.900000       0.561470       1.435600       0.569700
      12.910000       0.566361       1.464257       0.583613
      12.920000       0.570188       1.492607       0.598371
      12.930000       0.572564       1.518814       0.614000
      12.940000       0.573168       1.541056       0.630582
      12.950000       0.571821       1.557863       0.648245
      12.960000       0.568530       1.568406       0.667129
      12.970000       0.563494       1.572637       0.687350
      12.980000       0.557068       1.571224       0.708936
      12.990000       0.549691       1.565336       0.731767
      13.000000       0.541817       1.556369       0.755501
      13.010000       0.533855       1.545721       0.779531
      13.020000       0.526142       1.534629       0.802988
      13.030000       0.518923       1.524074       0.824818
      13.040000       0.512348       1.514727       0.843928
      13.050000       0.506476       1.506940       0.859379
      13.060000       0.501280       1.500768       0.870567
      13.070000       0.496666       1.496041       0.877343
      13.080000       0.492494       1.492449       0.880019
      13.090000       0.488596       1.489616       0.879305
      13.100000       0.484791       1.487143       0.876176
      13.110000       0.480898       1.484627       0.871750
      13.120000       0.476745       1.481689       0.867173
      13.130000       0.472187       1.478023       0.863529
      13.140000       0.467127       1.473453       0.861764
      13.150000       0.461536       1.467943       0.862614
      13.160000       0.455452       1.461563       0.866544
      13.170000       0.448964       1.454398       0.873699
      13.180000       0.442187       1.446461       0.883885
      13.190000       0.435235       1.437660       0.896595
      13.200000       0.428199       1.427829       0.911070
      13.210000       0.421149       1.416805       0.926402
      13.220000       0.414128       1.404515       0.941642
      13.230000       0.407165       1.391016       0.955875
      13.240000       0.400283       1.376470       0.968247
      13.250000       0.393514       1.361089       0.977935
      13.260000       0.386908       1.345061       0.984119
      13.270000       0.380543       1.328532       0.985993
      13.280000       0.374522       1.311651       0.982845
      13.290000       0.368965       1.294676       0.974198
      13.300000       0.363991       1.278078       0.959945
      13.310000       0.359696       1.262602       0.940434
      13.320000       0.356143       1.249223       0.916438
      13.330000       0.353354       1.239013       0.889041
      13.340000       0.351314       1.232944       0.859473
      13.350000       0.349981       1.231692       0.828943
      13.360000       0.349284       1.235492       0.798511
      13.370000       0.349116       1.244063       0.769016
      13.380000       0.349331       1.256631       0.741062
      13.390000       0.349748       1.272036       0.715048
      13.400000       0.350177       1.288926       0.691218
      13.410000       0.350455       1.305976       0.669705
      13.420000       0.350485       1.322066       0.650571
      13.430000       0.350259       1.336363       0.633827
      13.440000       0.349842       1.348277       0.619437
      13.450000       0.349343       1.357364       0.607332
      13.460000       0.348877       1.363254       0.597405
      13.470000       0.348524       1.365663       0.589528
      13.480000       0.348330       1.364494       0.583553
      13.490000       0.348300       1.359939       0.579321
      13.500000       0.348417       1.352529       0.576672
      13.510000       0.348653       1.343105       0.575439
      13.520000       0.348981       1.332704       0.575453
      13.530000       0.349373       1.322435       0.576546
      13.540000       0.349798       1.313355       0.578547
      13.550000       0.350209       1.306397       0.581293
      13.560000       0.350533       1.302340       0.584622
      13.570000       0.350667       1.301824       0.588364
      13.580000       0.350486       1.305388       0.592343
      13.590000       0.349871       1.313488       0.596380
      13.600000       0.348727       1.326462       0.600325
      13.610000       0.347010       1.344426       0.604096
      13.620000       0.344737       1.367104       0.607700
      13.630000       0.341986       1.393689       0.611247
      13.640000       0.338872       1.422767       0.614921
      13.650000       0.335521       1.452390       0.618947
      13.660000       0.332036       1.480280       0.623533
      13.670000       0.328463       1.504143       0.628812
      13.680000       0.324789       1.521987       0.634766
      13.690000       0.320947       1.532365       0.641166
      13.700000       0.316845       1.534497       0.647517
      13.710000       0.312404       1.528267       0.653050
      13.720000       0.307585       1.514136       0.656780
      13.730000       0.302419       1.493037       0.657649
      13.740000       0.297013       1.466262       0.654737
      13.750000       0.291546       1.435372       0.647489
      13.760000       0.286247       1.402072       0.635869
      13.770000       0.281361       1.368050       0.620387
      13.780000       0.277111       1.334794       0.601974
      13.790000       0.273653       1.303423       0.581775
      13.800000       0.271056       1.274618       0.560932
      13.810000       0.269295       1.248665       0.540428
      13.820000       0.268253       1.225571       0.521008
      13.830000       0.267747       1.205198       0.503164
      13.840000       0.267554       1.187352       0.487168
      13.850000       0.267443       1.171801       0.473110
      13.860000       0.267217       1.158269       0.460947
      13.870000       0.266738       1.146425       0.450540
      13.880000       0.265951       1.135913       0.441702
      13.890000       0.264889       1.126395       0.434241
      13.900000       0.263658       1.117587       0.427997
      13.910000       0.262398       1.109264       0.422874
      13.920000       0.261253       1.101242       0.418847
      13.930000       0.260332       1.093359       0.415948
      13.940000       0.259696       1.085484       0.414247
      13.950000       0.259360       1.077540       0.413823
      13.960000       0.259311       1.069526       0.414742
      13.970000       0.259530       1.061516       0.417037
      13.980000       0.260001       1.053630       0.420695
      13.990000       0.260719       1.045975       0.425644
      14.000000       0.261671       1.038585       0.431742
      14.010000       0.262826       1.031380       0.438768
      14.020000       0.264137       1.024179       0.446431
      14.030000       0.265544       1.016759       0.454390
      14.040000       0.267002       1.008955       0.462294
      14.050000       0.268487       1.000754       0.469836
      14.060000       0.270005       0.992346       0.476791
      14.070000       0.271578       0.984095       0.483057
      14.080000       0.273239       0.976465       0.488654
      14.090000       0.275010       0.969913       0.493714
      14.100000       0.276901       0.964794       0.498455
      14.110000       0.278901       0.961318       0.503150
      14.120000       0.280976       0.959547       0.508105
      14.130000       0.283075       0.959437       0.513636
      14.140000       0.285137       0.960888       0.520055
      14.150000       0.287099       0.963788       0.527659
      14.160000       0.288902       0.968030       0.536720
      14.170000       0.290484       0.973512       0.547485
      14.180000       0.291772       0.980116       0.560161
      14.190000       0.292670       0.987687       0.574915
      14.200000       0.293071       0.996037       0.591850
      14.210000       0.292867       1.004964       0.610989
      14.220000       0.291980       1.014302       0.632248
      14.230000       0.290380       1.023961       0.655405
      14.240000       0.288098       1.033947       0.680072
      14.250000       0.285207       1.044348       0.705660
      14.260000       0.281804       1.055293       0.731367
      14.270000       0.277990       1.066922       0.756213
      14.280000       0.273867       1.079382       0.779148
      14.290000       0.269547       1.092820       0.799229
      14.300000       0.265161       1.107351       0.815814
      14.310000       0.260853       1.122977       0.828688
      14.320000       0.256772       1.139467       0.838064
      14.330000       0.253051       1.156267       0.844471
      14.340000       0.249790       1.172484       0.848571
      14.350000       0.247053       1.186977       0.851017
      14.360000       0.244869       1.198538       0.852377
      14.370000       0.243235       1.206110       0.853129
      14.380000       0.242125       1.208976       0.853697
      14.390000       0.241492       1.206865       0.854480
      14.400000       0.241279       1.199945       0.855846
      14.410000       0.241429       1.188736       0.858084
      14.420000       0.241904       1.173996       0.861348
      14.430000       0.242688       1.156613       0.865613
      14.440000       0.243779       1.137527       0.870676
      14.450000       0.245176       1.117673       0.876199
      14.460000       0.246856       1.097922       0.881802
      14.470000       0.248755       1.079023       0.887147
      14.480000       0.250761       1.061532       0.892012
      14.490000       0.252726       1.045763       0.896321
      14.500000       0.254475       1.031771       0.900123
      14.510000       0.255840       1.019384       0.903541
      14.520000       0.256685       1.008312       0.906696
      14.530000       0.256941       0.998280       0.909647
      14.540000       0.256615       0.989154       0.912348
      14.550000       0.255787       0.981001       0.914654
      14.560000       0.254587       0.974052       0.916360
      14.570000       0.253155       0.968585       0.917263
      14.580000       0.251607       0.964768       0.917220
      14.590000       0.250009       0.962512       0.916187
      14.600000       0.248366       0.961370       0.914223
      14.610000       0.246623       0.960524       0.911474
      14.620000       0.244682       0.958866       0.908157
      14.630000       0.242427       0.955180       0.904533
      14.640000       0.239764       0.948366       0.900890
      14.650000       0.236644       0.937662       0.897506
      14.660000       0.233073       0.922783       0.894624
      14.670000       0.229109       0.903924       0.892415
      14.680000       0.224832       0.881647       0.890952
      14.690000       0.220318       0.856695       0.890195
      14.700000       0.215628       0.829824       0.890004
      14.710000       0.210809       0.801715       0.890166
      14.720000       0.205910       0.772972       0.890428
      14.730000       0.201006       0.744166       0.890548
      14.740000       0.196208       0.715883       0.890325
      14.750000       0.191656       0.688741       0.889636
      14.760000       0.187508       0.663355       0.888438
      14.770000       0.183914       0.640296       0.886759
      14.780000       0.180997       0.620032       0.884666
      14.790000       0.178851       0.602906       0.882223
      14.800000       0.177528       0.589127       0.879444
      14.810000       0.177051       0.578788       0.876272
      14.820000       0.177418       0.571892       0.872567
      14.830000       0.178606       0.568374       0.868122
      14.840000       0.180580       0.568134       0.862694
      14.850000       0.183294       0.571048       0.856022
      14.860000       0.186694       0.576977       0.847837
      14.870000       0.190717       0.585764       0.837857
      14.880000       0.195297       0.597224       0.825806
      14.890000       0.200358       0.611121       0.811448
      14.900000       0.205817       0.627132       0.794668
      14.910000       0.211576       0.644805       0.775552
      14.920000       0.217522       0.663535       0.754439
      14.930000       0.223519       0.682575       0.731909
      14.940000       0.229416       0.701104       0.708702
      14.950000       0.235053       0.718340       0.685609
      14.960000       0.240261       0.733652       0.663351
      14.970000       0.244867       0.746636       0.642498
      14.980000       0.248692       0.757131       0.623421
      14.990000       0.251548       0.765180       0.606289
      15.000000       0.253256       0.770974       0.591092
      15.010000       0.253666       0.774798       0.577683
      15.020000       0.252705       0.776984       0.565817
      15.030000       0.250404       0.777863       0.555198
      15.040000       0.246906       0.777727       0.545510
      15.050000       0.242442       0.776796       0.536450
      15.060000       0.237295       0.775214       0.527753
      15.070000       0.231749       0.773091       0.519212
      15.080000       0.226069       0.770549       0.510687
      15.090000       0.220479       0.767777       0.502110
      15.100000       0.215166       0.765039       0.493472
      15.110000       0.210274       0.762647       0.484799
      15.120000       0.205899       0.760916       0.476126
      15.130000       0.202088       0.760132       0.467471
      15.140000       0.198834       0.760522       0.458833
      15.150000       0.196084       0.762258       0.450207
      15.160000       0.193751       0.765442       0.441611
      15.170000       0.191740       0.770089       0.433114
      15.180000       0.189962       0.776089       0.424846
      15.190000       0.188360       0.783184       0.416989
      15.200000       0.186911       0.790961       0.409747
      15.210000       0.185621       0.798900       0.403308
      15.220000       0.184524       0.806450       0.397813
      15.230000       0.183664       0.813134       0.393339
      15.240000       0.183095       0.818660       0.389906
      15.250000       0.182865       0.822978       0.387482
      15.260000       0.183005       0.826268       0.386008
      15.270000       0.183510       0.828837       0.385406
      15.280000       0.184325       0.830968       0.385587
      15.290000       0.185341       0.832776       0.386459
      15.300000       0.186400       0.834143       0.387931
      15.310000       0.187322       0.834754       0.389917
      15.320000       0.187935       0.834211       0.392353
      15.330000       0.188103       0.832183       0.395214
      15.340000       0.187745       0.828522       0.398536
      15.350000       0.186841       0.823316       0.402428
      15.360000       0.185420       0.816879       0.407064
      15.370000       0.183543       0.809702       0.412658
      15.380000       0.181291       0.802391       0.419427
      15.390000       0.178755       0.795617       0.427550
      15.400000       0.176035       0.790063       0.437131
      15.410000       0.173228       0.786384       0.448185
      15.420000       0.170435       0.785163       0.460622
      15.430000       0.167747       0.786878       0.474250
      15.440000       0.165246       0.791864       0.488784
      15.450000       0.162995       0.800287       0.503849
      15.460000       0.161028       0.812120       0.518988
      15.470000       0.159350       0.827133       0.533665
      15.480000       0.157942       0.844916       0.547277
      15.490000       0.156766       0.864912       0.559185
      15.500000       0.155784       0.886473       0.568762
      15.510000       0.154962       0.908909       0.575455
      15.520000       0.154273       0.931535       0.578844
      15.530000       0.153695       0.953720       0.578702
      15.540000       0.153204       0.974920       0.575027
      15.550000       0.152768       0.994704       0.568058
      15.560000       0.152349       1.012750       0.558252
      15.570000       0.151905       1.028812       0.546228
      15.580000       0.151398       1.042681       0.532675
      15.590000       0.150792       1.054161       0.518272
      15.600000       0.150064       1.063061       0.503609
      15.610000       0.149205       1.069213       0.489148
      15.620000       0.148215       1.072502       0.475215
      15.630000       0.147110       1.072885       0.462010
      15.640000       0.145911       1.070418       0.449632
      15.650000       0.144655       1.065279       0.438102
      15.660000       0.143389       1.057801       0.427389
      15.670000       0.142175       1.048494       0.417425
      15.680000       0.141084       1.038027       0.408122
      15.690000       0.140194       1.027141       0.399397
      15.700000       0.139576       1.016509       0.391192
      15.710000       0.139280       1.006576       0.383487
      15.720000       0.139327       0.997468       0.376298
      15.730000       0.139713       0.989014       0.369665
      15.740000       0.140409       0.980893       0.363637
      15.750000       0.141378       0.972848       0.358256
      15.760000       0.142588       0.964877       0.353548
      15.770000       0.144022       0.957315       0.349521
      15.780000       0.145678       0.950777       0.346164
      15.790000       0.147567       0.946014       0.343442
      15.800000       0.149702       0.943736       0.341298
      15.810000       0.152092       0.944475       0.339651
      15.820000       0.154740       0.948495       0.338400
      15.830000       0.157634       0.955742       0.337440
      15.840000       0.160750       0.965829       0.336679
      15.850000       0.164056       0.978059       0.336049
      15.860000       0.167503       0.991483       0.335516
      15.870000       0.171026       1.005011       0.335078
      15.880000       0.174537       1.017581       0.334748
      15.890000       0.177927       1.028328       0.334541
      15.900000       0.181067       1.036743       0.334454
      15.910000       0.183826       1.042739       0.334467
      15.920000       0.186074       1.046617       0.334545
      15.930000       0.187704       1.048948       0.334653
      15.940000       0.188633       1.050410       0.334777
      15.950000       0.188811       1.051633       0.334936
      15.960000       0.188230       1.053114       0.335190
      15.970000       0.186926       1.055180       0.335630
      15.980000       0.184983       1.057997       0.336364
      15.990000       0.182536       1.061601       0.337492
      16.000000       0.179753       1.065912       0.339080
      16.010000       0.176826       1.070764       0.341146
      16.020000       0.173938       1.075931       0.343656
      16.030000       0.171242       1.081144       0.346530
      16.040000       0.168849       1.086089       0.349663
      16.050000       0.166811       1.090380       0.352947
      16.060000       0.165121       1.093511       0.356278
      16.070000       0.163723       1.094860       0.359565
      16.080000       0.162521       1.093769       0.362727
      16.090000       0.161402       1.089689       0.365684
      16.100000       0.160257       1.082342       0.368362
      16.110000       0.158994       1.071811       0.370683
      16.120000       0.157554       1.058536       0.372563
      16.130000       0.155911       1.043225       0.373899
      16.140000       0.154075       1.026712       0.374566
      16.150000       0.152085       1.009825       0.374418
      16.160000       0.149995       0.993277       0.373301
      16.170000       0.147866       0.977588       0.371085
      16.180000       0.145755       0.963041       0.367697
      16.190000       0.143705       0.949665       0.363163
      16.200000       0.141741       0.937263       0.357618
      16.210000       0.139876       0.925469       0.351292
      16.220000       0.138103       0.913857       0.344471
      16.230000       0.136403       0.902055       0.337446
      16.240000       0.134746       0.889855       0.330472
      16.250000       0.133101       0.877261       0.323745
      16.260000       0.131443       0.864488       0.317401
      16.270000       0.129764       0.851922       0.311522
      16.280000       0.128079       0.840049       0.306147
      16.290000       0.126428       0.829379       0.301288
      16.300000       0.124866       0.820364       0.296929
      16.310000       0.123453       0.813327       0.293031
      16.320000       0.122241       0.808415       0.289533
      16.330000       0.121262       0.805590       0.286360
      16.340000       0.120523       0.804648       0.283433
      16.350000       0.120009       0.805258       0.280687
      16.360000       0.119679       0.806993       0.278072
      16.370000       0.119481       0.809365       0.275567
      16.380000       0.119357       0.811864       0.273161
      16.390000       0.119251       0.814009       0.270852
      16.400000       0.119114       0.815389       0.268628
      16.410000       0.118914       0.815704       0.266463
      16.420000       0.118637       0.814784       0.264317
      16.430000       0.118293       0.812603       0.262143
      16.440000       0.117917       0.809286       0.259892
      16.450000       0.117565       0.805104       0.257528
      16.460000       0.117311       0.800436       0.255031
      16.470000       0.117228       0.795696       0.252406
      16.480000       0.117383       0.791252       0.249687
      16.490000       0.117822       0.787345       0.246932
      16.500000       0.118567       0.784057       0.244222
      16.510000       0.119613       0.781301       0.241649
      16.520000       0.120929       0.778854       0.239310
      16.530000       0.122462       0.776403       0.237303
      16.540000       0.124144       0.773620       0.235720
      16.550000       0.125904       0.770244       0.234650
      16.560000       0.127680       0.766153       0.234170
      16.570000       0.129425       0.761398       0.234334
      16.580000       0.131112       0.756171       0.235167
      16.590000       0.132733       0.750734       0.236657
      16.600000       0.134294       0.745326       0.238751
      16.610000       0.135810       0.740093       0.241366
      16.620000       0.137297       0.735072       0.244399
      16.630000       0.138773       0.730218       0.247742
      16.640000       0.140249       0.725480       0.251291
      16.650000       0.141731       0.720876       0.254945
      16.660000       0.143214       0.716541       0.258608
      16.670000       0.144685       0.712719       0.262184
      16.680000       0.146115       0.709709       0.265587
      16.690000       0.147470       0.707794       0.268741
      16.700000       0.148708       0.707187       0.271593
      16.710000       0.149790       0.708027       0.274097
      16.720000       0.150681       0.710393       0.276209
      16.730000       0.151352       0.714342       0.277859
      16.740000       0.151774       0.719916       0.278940
      16.750000       0.151916       0.727135       0.279309
      16.760000       0.151743       0.735946       0.278798
      16.770000       0.151219       0.746188       0.277252
      16.780000       0.150314       0.757559       0.274565
      16.790000       0.149012       0.769624       0.270721
      16.800000       0.147329       0.781843       0.265811
      16.810000       0.145308       0.793624       0.260029
      16.820000       0.143022       0.804364       0.253642
      16.830000       0.140551       0.813506       0.246945
      16.840000       0.137974       0.820582       0.240225
      16.850000       0.135349       0.825264       0.233723
      16.860000       0.132707       0.827398       0.227627
      16.870000       0.130064       0.827042       0.222072
      16.880000       0.127421       0.824475       0.217145
      16.890000       0.124783       0.820187       0.212902
      16.900000       0.122165       0.814823       0.209381
      16.910000       0.119591       0.809077       0.206603
      16.920000       0.117095       0.803583       0.204578
      16.930000       0.114709       0.798798       0.203310
      16.940000       0.112465       0.794947       0.202793
      16.950000       0.110383       0.792005       0.203014
      16.960000       0.108474       0.789732       0.203952
      16.970000       0.106744       0.787750       0.205569
      16.980000       0.105193       0.785622       0.207805
      16.990000       0.103819       0.782938       0.210576
      17.000000       0.102622       0.779369       0.213773
      17.010000       0.101601       0.774698       0.217279
      17.020000       0.100755       0.768846       0.220984
      17.030000       0.100082       0.761880       0.224807
      17.040000       0.099579       0.753995       0.228705
      17.050000       0.099235       0.745469       0.232667
      17.060000       0.099032       0.736601       0.236703
      17.070000       0.098939       0.727637       0.240817
      17.080000       0.098913       0.718735       0.244997
      17.090000       0.098905       0.709965       0.249206
      17.100000       0.098871       0.701352       0.253387
      17.110000       0.098782       0.692927       0.257477
      17.120000       0.098635       0.684775       0.261407
      17.130000       0.098456       0.677045       0.265106
      17.140000       0.098292       0.669935       0.268509
      17.150000       0.098200       0.663635       0.271557
      17.160000       0.098238       0.658272       0.274206
      17.170000       0.098446       0.653867       0.276431
      17.180000       0.098851       0.650327       0.278213
      17.190000       0.099461       0.647478       0.279529
      17.200000       0.100266       0.645119       0.280331
      17.210000       0.101241       0.643068       0.280533
      17.220000       0.102348       0.641190       0.280011
      17.230000       0.103535       0.639403       0.278631
      17.240000       0.104744       0.637668       0.276283
      17.250000       0.105915       0.636001       0.272926
      17.260000       0.106993       0.634467       0.268621
      17.270000       0.107939       0.633180       0.263531
      17.280000       0.108727       0.632276       0.257901
      17.290000       0.109346       0.631867       0.252013
      17.300000       0.109791       0.631988       0.246136
      17.310000       0.110063       0.632562       0.240491
      17.320000       0.110170       0.633388       0.235232
      17.330000       0.110127       0.634175       0.230438
      17.340000       0.109962       0.634585       0.226121
      17.350000       0.109717       0.634307       0.222237
      17.360000       0.109445       0.633106       0.218698
      17.370000       0.109196       0.630868       0.215390
      17.380000       0.109006       0.627601       0.212186
      17.390000       0.108886       0.623403       0.208951
      17.400000       0.108820       0.618414       0.205558
      17.410000       0.108768       0.612768       0.201892
      17.420000       0.108685       0.606565       0.197866
      17.430000       0.108528       0.599883       0.193428
      17.440000       0.108271       0.592812       0.188578
      17.450000       0.107909       0.585493       0.183365
      17.460000       0.107450       0.578123       0.177879
      17.470000       0.106914       0.570945       0.172241
      17.480000       0.106323       0.564195       0.166576
      17.490000       0.105699       0.558061       0.161002
      17.500000       0.105064       0.552644       0.155620
      17.510000       0.104438       0.547950       0.150512
      17.520000       0.103840       0.543889       0.145748
      17.530000       0.103285       0.540309       0.141379
      17.540000       0.102787       0.537020       0.137444
      17.550000       0.102359       0.533843       0.133970
      17.560000       0.102015       0.530642       0.130969
      17.570000       0.101776       0.527356       0.128444
      17.580000       0.101674       0.524021       0.126387
      17.590000       0.101748       0.520761       0.124781
      17.600000       0.102046       0.517758       0.123603
      17.610000       0.102613       0.515205       0.122822
      17.620000       0.103482       0.513245       0.122405
      17.630000       0.104668       0.511934       0.122319
      17.640000       0.106158       0.511242       0.122530
      17.650000       0.107908       0.511076       0.123002
      17.660000       0.109850       0.511323       0.123699
      17.670000       0.111897       0.511877       0.124578
      17.680000       0.113953       0.512629       0.125590
      17.690000       0.115924       0.513445       0.126684
      17.700000       0.117726       0.514136       0.127813
      17.710000       0.119287       0.514470       0.128941
      17.720000       0.120543       0.514214       0.130050
      17.730000       0.121441       0.513199       0.131142
      17.740000       0.121932       0.511380       0.132237
      17.750000       0.121982       0.508841       0.133360
      17.760000       0.121581       0.505780       0.134540
      17.770000       0.120748       0.502448       0.135796
      17.780000       0.119532       0.499096       0.137136
      17.790000       0.118005       0.495936       0.138565
      17.800000       0.116252       0.493118       0.140083
      17.810000       0.114348       0.490723       0.141693
      17.820000       0.112360       0.488776       0.143399
      17.830000       0.110342       0.487265       0.145204
      17.840000       0.108341       0.486168       0.147106
      17.850000       0.106400       0.485468       0.149103
      17.860000       0.104560       0.485144       0.151189
      17.870000       0.102859       0.485142       0.153362
      17.880000       0.101320       0.485348       0.155632
      17.890000       0.099957       0.485576       0.158020
      17.900000       0.098768       0.485595       0.160559
      17.910000       0.097742       0.485171       0.163294
      17.920000       0.096860       0.484098       0.166275
      17.930000       0.096094       0.482205       0.169546
      17.940000       0.095408       0.479341       0.173144
      17.950000       0.094758       0.475369       0.177091
      17.960000       0.094091       0.470167       0.181391
      17.970000       0.093353       0.463667       0.186030
      17.980000       0.092498       0.455891       0.190978
      17.990000       0.091497       0.446982       0.196196
      18.000000       0.090343       0.437207       0.201649
      18.010000       0.089053       0.426927       0.207309
      18.020000       0.087663       0.416555       0.213163
      18.030000       0.086215       0.406496       0.219199
      18.040000       0.084749       0.397095       0.225393
      18.050000       0.083297       0.388601       0.231694
      18.060000       0.081884       0.381162       0.238010
      18.070000       0.080532       0.374828       0.244209
      18.080000       0.079267       0.369575       0.250121
      18.090000       0.078113       0.365320       0.255557
      18.100000       0.077098       0.361948       0.260323
      18.110000       0.076245       0.359343       0.264249
      18.120000       0.075568       0.357405       0.267211
      18.130000       0.075079       0.356074       0.269146
      18.140000       0.074781       0.355321       0.270065
      18.150000       0.074672       0.355133       0.270046
      18.160000       0.074745       0.355480       0.269218
      18.170000       0.074986       0.356294       0.267737
      18.180000       0.075370       0.357452       0.265767
      18.190000       0.075869       0.358789       0.263460
      18.200000       0.076449       0.360117       0.260946
      18.210000       0.077073       0.361247       0.258330
      18.220000       0.077706       0.362002       0.255703
      18.230000       0.078311       0.362226       0.253154
      18.240000       0.078850       0.361783       0.250778
      18.250000       0.079281       0.360559       0.248675
      18.260000       0.079559       0.358474       0.246940
      18.270000       0.079640       0.355497       0.245634
      18.280000       0.079488       0.351655       0.244778
      18.290000       0.079084       0.347038       0.244338
      18.300000       0.078439       0.341801       0.244240
      18.310000       0.077590       0.336145       0.244382
      18.320000       0.076602       0.330301       0.244667
      18.330000       0.075551       0.324499       0.245020
      18.340000       0.074511       0.318941       0.245401
      18.350000       0.073546       0.313784       0.245803
      18.360000       0.072704       0.309138       0.246242
      18.370000       0.072010       0.305072       0.246734
      18.380000       0.071474       0.301622       0.247286
      18.390000       0.071087       0.298791       0.247878
      18.400000       0.070828       0.296544       0.248462
      18.410000       0.070672       0.294808       0.248961
      18.420000       0.070589       0.293486       0.249284
      18.430000       0.070555       0.292476       0.249337
      18.440000       0.070553       0.291698       0.249043
      18.450000       0.070576       0.291122       0.248359
      18.460000       0.070628       0.290761       0.247280
      18.470000       0.070718       0.290671       0.245847
      18.480000       0.070858       0.290922       0.244140
      18.490000       0.071062       0.291581       0.242270
      18.500000       0.071344       0.292691       0.240361
      18.510000       0.071714       0.294261       0.238536
      18.520000       0.072178       0.296257       0.236900
      18.530000       0.072739       0.298599       0.235530
      18.540000       0.073388       0.301161       0.234472
      18.550000       0.074110       0.303779       0.233740
      18.560000       0.074872       0.306262       0.233320
      18.570000       0.075632       0.308403       0.233174
      18.580000       0.076332       0.310001       0.233241
      18.590000       0.076912       0.310887       0.233441
      18.600000       0.077314       0.310944       0.233674
      18.610000       0.077498       0.310131       0.233835
      18.620000       0.077449       0.308494       0.233822
      18.630000       0.077179       0.306158       0.233550
      18.640000       0.076725       0.303321       0.232957
      18.650000       0.076132       0.300218       0.232000
      18.660000       0.075446       0.297081       0.230658
      18.670000       0.074699       0.294098       0.228925
      18.680000       0.073910       0.291374       0.226813
      18.690000       0.073087       0.288917       0.224356
      18.700000       0.072236       0.286646       0.221616
      18.710000       0.071364       0.284428       0.218683
      18.720000       0.070490       0.282121       0.215660
      18.730000       0.069638       0.279612       0.212658
      18.740000       0.068844       0.276843       0.209778
      18.750000       0.068144       0.273802       0.207108
      18.760000       0.067579       0.270513       0.204713
      18.770000       0.067182       0.267005       0.202634
      18.780000       0.066977       0.263308       0.200882
      18.790000       0.066977       0.259447       0.199436
      18.800000       0.067177       0.255458       0.198244
      18.810000       0.067556       0.251404       0.197225
      18.820000       0.068082       0.247388       0.196272
      18.830000       0.068716       0.243540       0.195264
      18.840000       0.069414       0.240011       0.194079
      18.850000       0.070135       0.236934       0.192610
      18.860000       0.070838       0.234406       0.190786
      18.870000       0.071481       0.232468       0.188581
      18.880000       0.072023       0.231099       0.186027
      18.890000       0.072424       0.230222       0.183208
      18.900000       0.072655       0.229716       0.180244
      18.910000       0.072703       0.229434       0.177272
      18.920000       0.072574       0.229217       0.174420
      18.930000       0.072294       0.228918       0.171799
      18.940000       0.071902       0.228426       0.169494
      18.950000       0.071442       0.227680       0.167570
      18.960000       0.070960       0.226678       0.166075
      18.970000       0.070494       0.225462       0.165049
      18.980000       0.070075       0.224095       0.164525
      18.990000       0.069722       0.222634       0.164526
      19.000000       0.069441       0.221109       0.165064
      19.010000       0.069229       0.219514       0.166130
      19.020000       0.069073       0.217808       0.167694
      19.030000       0.068958       0.215939       0.169699
      19.040000       0.068870       0.213866       0.172069
      19.050000       0.068802       0.211585       0.174710
      19.060000       0.068758       0.209140       0.177520
      19.070000       0.068755       0.206615       0.180395
      19.080000       0.068816       0.204112       0.183233
      19.090000       0.068962       0.201718       0.185930
      19.100000       0.069210       0.199489       0.188383
      19.110000       0.069560       0.197427       0.190489
      19.120000       0.070001       0.195491       0.192153
      19.130000       0.070505       0.193605       0.193301
      19.140000       0.071033       0.191687       0.193895
      19.150000       0.071544       0.189676       0.193941
      19.160000       0.072002       0.187553       0.193495
      19.170000       0.072379       0.185353       0.192653
      19.180000       0.072664       0.183152       0.191530
      19.190000       0.072862       0.181058       0.190241
      19.200000       0.072992       0.179178       0.188878
      19.210000       0.073082       0.177604       0.187499
      19.220000       0.073165       0.176390       0.186128
      19.230000       0.073271       0.175542       0.184763
      19.240000       0.073426       0.175023       0.183394
      19.250000       0.073645       0.174761       0.182012
      19.260000       0.073936       0.174667       0.180623
      19.270000       0.074298       0.174653       0.179245
      19.280000       0.074728       0.174659       0.177908
      19.290000       0.075218       0.174652       0.176635
      19.300000       0.075766       0.174629       0.175440
      19.310000       0.076370       0.174610       0.174317
      19.320000       0.077034       0.174620       0.173249
      19.330000       0.077762       0.174687       0.172212
      19.340000       0.078565       0.174842       0.171193
      19.350000       0.079454       0.175119       0.170196
      19.360000       0.080445       0.175563       0.169236
      19.370000       0.081559       0.176230       0.168336
      19.380000       0.082820       0.177176       0.167515
      19.390000       0.084253       0.178458       0.166770
      19.400000       0.085886       0.180115       0.166077
      19.410000       0.087739       0.182167       0.165383
      19.420000       0.089821       0.184607       0.164605
      19.430000       0.092126       0.187394       0.163640
      19.440000       0.094630       0.190458       0.162382
      19.450000       0.097290       0.193697       0.160738
      19.460000       0.100048       0.196978       0.158660
      19.470000       0.102831       0.200140       0.156154
      19.480000       0.105555       0.203003       0.153288
      19.490000       0.108140       0.205382       0.150179
      19.500000       0.110508       0.207119       0.146968
      19.510000       0.112604       0.208114       0.143805
      19.520000       0.114398       0.208351       0.140824
      19.530000       0.115894       0.207903       0.138135
      19.540000       0.117119       0.206915       0.135817
      19.550000       0.118120       0.205567       0.133914
      19.560000       0.118950       0.204025       0.132434
      19.570000       0.119660       0.202410       0.131353
      19.580000       0.120290       0.200772       0.130614
      19.590000       0.120868       0.199099       0.130143
      19.600000       0.121414       0.197336       0.129855
      19.610000       0.121935       0.195414       0.129671
      19.620000       0.122435       0.193283       0.129526
      19.630000       0.122914       0.190929       0.129384
      19.640000       0.123370       0.188374       0.129230
      19.650000       0.123798       0.185675       0.129076
      19.660000       0.124194       0.182908       0.128946
      19.670000       0.124551       0.180154       0.128870
      19.680000       0.124868       0.177491       0.128878
      19.690000       0.125144       0.174987       0.128994
      19.700000       0.125386       0.172694       0.129236
      19.710000       0.125597       0.170655       0.129615
      19.720000       0.125777       0.168893       0.130139
      19.730000       0.125915       0.167422       0.130810
      19.740000       0.125988       0.166240       0.131622
      19.750000       0.125964       0.165338       0.132561
      19.760000       0.125812       0.164706       0.133606
      19.770000       0.125504       0.164338       0.134733
      19.780000       0.125029       0.164244       0.135925
      19.790000       0.124391       0.164454       0.137173
      19.800000       0.123609       0.165014       0.138483
      19.810000       0.122713       0.165976       0.139878
      19.820000       0.121740       0.167378       0.141385
      19.830000       0.120721       0.169229       0.143033
      19.840000       0.119685       0.171499       0.144840
      19.850000       0.118652       0.174122       0.146800
      19.860000       0.117646       0.177006       0.148885
      19.870000       0.116695       0.180049       0.151032
      19.880000       0.115837       0.183149       0.153150
      19.890000       0.115116       0.186212       0.155121
      19.900000       0.114582       0.189152       0.156812
      19.910000       0.114273       0.191887       0.158090
      19.920000       0.114216       0.194332       0.158842
      19.930000       0.114417       0.196397       0.159003
      19.940000       0.114863       0.197995       0.158575
      19.950000       0.115525       0.199053       0.157633
      19.960000       0.116364       0.199536       0.156320
      19.970000       0.117335       0.199451       0.154821
      19.980000       0.118392       0.198847       0.153329
      19.990000       0.119487       0.197799       0.152010
      20.000000       0.120575       0.196393       0.150982
