  # energy grid [eV]     epsi_x  epsi_y  epsi_z
       0.000000            NaN            NaN            NaN
       0.010000       0.076836       0.000837       0.001706
       0.020000       0.154039       0.001675       0.003428
       0.030000       0.231983       0.002513       0.005180
       0.040000       0.311047       0.003353       0.006977
       0.050000       0.391625       0.004194       0.008837
       0.060000       0.474130       0.005037       0.010773
       0.070000       0.558995       0.005883       0.012802
       0.080000       0.646685       0.006732       0.014938
       0.090000       0.737697       0.007584       0.017192
       0.100000       0.832573       0.008440       0.019573
       0.110000       0.931901       0.009300       0.022085
       0.120000       1.036331       0.010165       0.024723
       0.130000       1.146581       0.011035       0.027476
       0.140000       1.263449       0.011910       0.030325
       0.150000       1.387826       0.012792       0.033248
       0.160000       1.520717       0.013680       0.036227
       0.170000       1.663252       0.014575       0.039261
       0.180000       1.816713       0.015478       0.042369
       0.190000       1.982556       0.016389       0.045599
       0.200000       2.162440       0.017309       0.049021
       0.210000       2.358262       0.018238       0.052721
       0.220000       2.572194       0.019177       0.056787
       0.230000       2.806729       0.020127       0.061299
       0.240000       3.064726       0.021087       0.066313
       0.250000       3.349470       0.022059       0.071856
       0.260000       3.664722       0.023044       0.077913
       0.270000       4.014786       0.024041       0.084414
       0.280000       4.404551       0.025053       0.091229
       0.290000       4.839531       0.026079       0.098165
       0.300000       5.325866       0.027120       0.104976
       0.310000       5.870258       0.028178       0.111389
       0.320000       6.479809       0.029253       0.117147
       0.330000       7.161688       0.030345       0.122053
       0.340000       7.922554       0.031457       0.126006
       0.350000       8.767626       0.032589       0.129009
       0.360000       9.699284       0.033741       0.131156
       0.370000      10.715145       0.034916       0.132590
       0.380000      11.805631       0.036114       0.133457
       0.390000      12.951299       0.037337       0.133874
       0.400000      14.120524       0.038585       0.133892
       0.410000      15.268453       0.039861       0.133495
       0.420000      16.338279       0.041165       0.132603
       0.430000      17.265506       0.042500       0.131108
       0.440000      17.985060       0.043866       0.128923
       0.450000      18.440177       0.045267       0.126024
       0.460000      18.591431       0.046703       0.122486
       0.470000      18.424100       0.048176       0.118477
       0.480000      17.951948       0.049690       0.114231
       0.490000      17.215752       0.051245       0.110002
       0.500000      16.276241       0.052845       0.106018
       0.510000      15.203324       0.054493       0.102455
       0.520000      14.065005       0.056190       0.099418
       0.530000      12.919129       0.057941       0.096945
       0.540000      11.809321       0.059749       0.095012
       0.550000      10.764652       0.061617       0.093545
       0.560000       9.801677       0.063549       0.092436
       0.570000       8.927411       0.065549       0.091553
       0.580000       8.142288       0.067623       0.090755
       0.590000       7.442622       0.069775       0.089913
       0.600000       6.822442       0.072010       0.088925
       0.610000       6.274755       0.074336       0.087726
       0.620000       5.792350       0.076758       0.086297
       0.630000       5.368278       0.079285       0.084659
       0.640000       4.996119       0.081923       0.082864
       0.650000       4.670092       0.084682       0.080984
       0.660000       4.385095       0.087573       0.079098
       0.670000       4.136685       0.090606       0.077283
       0.680000       3.921039       0.093793       0.075605
       0.690000       3.734901       0.097148       0.074113
       0.700000       3.575527       0.100688       0.072836
       0.710000       3.440633       0.104428       0.071770
       0.720000       3.328347       0.108390       0.070882
       0.730000       3.237167       0.112594       0.070116
       0.740000       3.165923       0.117065       0.069402
       0.750000       3.113745       0.121833       0.068677
       0.760000       3.080034       0.126929       0.067901
       0.770000       3.064434       0.132390       0.067070
       0.780000       3.066817       0.138257       0.066219
       0.790000       3.087264       0.144577       0.065407
       0.800000       3.126071       0.151403       0.064706
       0.810000       3.183759       0.158797       0.064175
       0.820000       3.261115       0.166825       0.063851
       0.830000       3.359229       0.175563       0.063743
       0.840000       3.479521       0.185092       0.063832
       0.850000       3.623699       0.195501       0.064084
       0.860000       3.793640       0.206878       0.064458
       0.870000       3.991149       0.219311       0.064921
       0.880000       4.217606       0.232872       0.065452
       0.890000       4.473500       0.247611       0.066034
       0.900000       4.757860       0.263530       0.066652
       0.910000       5.067645       0.280569       0.067283
       0.920000       5.397210       0.298574       0.067899
       0.930000       5.738072       0.317290       0.068473
       0.940000       6.079219       0.336348       0.068982
       0.950000       6.408151       0.355295       0.069411
       0.960000       6.712553       0.373638       0.069742
       0.970000       6.982207       0.390917       0.069945
       0.980000       7.210516       0.406782       0.069965
       0.990000       7.395172       0.421047       0.069732
       1.000000       7.537802       0.433727       0.069175
       1.010000       7.642824       0.445017       0.068251
       1.020000       7.715951       0.455244       0.066966
       1.030000       7.762929       0.464810       0.065383
       1.040000       7.788914       0.474139       0.063614
       1.050000       7.798487       0.483662       0.061794
       1.060000       7.795879       0.493817       0.060056
       1.070000       7.784892       0.505042       0.058515
       1.080000       7.768389       0.517767       0.057253
       1.090000       7.747771       0.532390       0.056317
       1.100000       7.722938       0.549266       0.055721
       1.110000       7.692872       0.568696       0.055446
       1.120000       7.656410       0.590929       0.055441
       1.130000       7.612590       0.616144       0.055630
       1.140000       7.560357       0.644406       0.055913
       1.150000       7.497959       0.675601       0.056182
       1.160000       7.422662       0.709378       0.056334
       1.170000       7.331043       0.745094       0.056299
       1.180000       7.219624       0.781833       0.056050
       1.190000       7.085349       0.818489       0.055613
       1.200000       6.925713       0.853955       0.055060
       1.210000       6.738768       0.887379       0.054490
       1.220000       6.523372       0.918403       0.054008
       1.230000       6.279687       0.947293       0.053710
       1.240000       6.009617       0.974848       0.053672
       1.250000       5.716876       1.002128       0.053943
       1.260000       5.406678       1.030084       0.054546
       1.270000       5.085255       1.059210       0.055475
       1.280000       4.759363       1.089352       0.056691
       1.290000       4.435776       1.119703       0.058125
       1.300000       4.120766       1.149029       0.059676
       1.310000       3.819621       1.176056       0.061216
       1.320000       3.536324       1.199918       0.062604
       1.330000       3.273446       1.220480       0.063705
       1.340000       3.032235       1.238400       0.064423
       1.350000       2.812855       1.254883       0.064718
       1.360000       2.614662       1.271249       0.064612
       1.370000       2.436487       1.288496       0.064185
       1.380000       2.276867       1.307026       0.063551
       1.390000       2.134219       1.326642       0.062827
       1.400000       2.006965       1.346775       0.062113
       1.410000       1.893609       1.366874       0.061481
       1.420000       1.792777       1.386769       0.060972
       1.430000       1.703240       1.406832       0.060603
       1.440000       1.623915       1.427867       0.060374
       1.450000       1.553868       1.450747       0.060273
       1.460000       1.492302       1.475979       0.060272
       1.470000       1.438545       1.503361       0.060332
       1.480000       1.392046       1.531887       0.060400
       1.490000       1.352359       1.559945       0.060420
       1.500000       1.319133       1.585787       0.060343
       1.510000       1.292107       1.608121       0.060137
       1.520000       1.271093       1.626601       0.059793
       1.530000       1.255965       1.641986       0.059325
       1.540000       1.246637       1.655908       0.058759
       1.550000       1.243044       1.670347       0.058133
       1.560000       1.245104       1.687068       0.057486
       1.570000       1.252688       1.707188       0.056860
       1.580000       1.265577       1.730991       0.056291
       1.590000       1.283435       1.757928       0.055808
       1.600000       1.305787       1.786714       0.055425
       1.610000       1.332034       1.815453       0.055144
       1.620000       1.361487       1.841814       0.054962
       1.630000       1.393427       1.863326       0.054874
       1.640000       1.427173       1.877847       0.054882
       1.650000       1.462148       1.884091       0.054997
       1.660000       1.497924       1.882033       0.055230
       1.670000       1.534252       1.872991       0.055585
       1.680000       1.571038       1.859320       0.056055
       1.690000       1.608282       1.843870       0.056618
       1.700000       1.646005       1.829375       0.057241
       1.710000       1.684186       1.817989       0.057891
       1.720000       1.722753       1.811017       0.058548
       1.730000       1.761597       1.808889       0.059208
       1.740000       1.800589       1.811301       0.059887
       1.750000       1.839598       1.817479       0.060611
       1.760000       1.878518       1.826499       0.061402
       1.770000       1.917321       1.837543       0.062273
       1.780000       1.956101       1.850020       0.063220
       1.790000       1.995046       1.863507       0.064222
       1.800000       2.034319       1.877587       0.065252
       1.810000       2.073909       1.891693       0.066276
       1.820000       2.113539       1.905053       0.067266
       1.830000       2.152648       1.916740       0.068197
       1.840000       2.190437       1.925802       0.069043
       1.850000       2.225886       1.931434       0.069778
       1.860000       2.257742       1.933181       0.070374
       1.870000       2.284471       1.931141       0.070804
       1.880000       2.304226       1.926078       0.071058
       1.890000       2.314845       1.919336       0.071144
       1.900000       2.313926       1.912558       0.071091
       1.910000       2.299031       1.907270       0.070949
       1.920000       2.268034       1.904520       0.070779
       1.930000       2.219597       1.904686       0.070640
       1.940000       2.153619       1.907484       0.070585
       1.950000       2.071511       1.912099       0.070644
       1.960000       1.976143       1.917316       0.070823
       1.970000       1.871438       1.921612       0.071105
       1.980000       1.761742       1.923236       0.071452
       1.990000       1.651187       1.920383       0.071817
       2.000000       1.543234       1.911491       0.072162
       2.010000       1.440455       1.895606       0.072463
       2.020000       1.344526       1.872648       0.072724
       2.030000       1.256356       1.843464       0.072982
       2.040000       1.176264       1.809629       0.073296
       2.050000       1.104160       1.773103       0.073742
       2.060000       1.039698       1.735870       0.074394
       2.070000       0.982381       1.699684       0.075305
       2.080000       0.931633       1.665914       0.076500
       2.090000       0.886827       1.635495       0.077964
       2.100000       0.847288       1.608942       0.079649
       2.110000       0.812292       1.586390       0.081471
       2.120000       0.781078       1.567639       0.083333
       2.130000       0.752879       1.552183       0.085135
       2.140000       0.726976       1.539251       0.086796
       2.150000       0.702771       1.527899       0.088269
       2.160000       0.679826       1.517167       0.089546
       2.170000       0.657879       1.506270       0.090660
       2.180000       0.636812       1.494713       0.091669
       2.190000       0.616612       1.482296       0.092643
       2.200000       0.597318       1.469008       0.093641
       2.210000       0.579010       1.454902       0.094701
       2.220000       0.561794       1.440005       0.095832
       2.230000       0.545805       1.424305       0.097014
       2.240000       0.531197       1.407815       0.098206
       2.250000       0.518128       1.390700       0.099351
       2.260000       0.506736       1.373425       0.100391
       2.270000       0.497130       1.356851       0.101271
       2.280000       0.489378       1.342199       0.101952
       2.290000       0.483501       1.330879       0.102422
       2.300000       0.479471       1.324237       0.102700
       2.310000       0.477199       1.323311       0.102844
       2.320000       0.476533       1.328657       0.102942
       2.330000       0.477239       1.340294       0.103096
       2.340000       0.479009       1.357745       0.103404
       2.350000       0.481470       1.380180       0.103936
       2.360000       0.484230       1.406608       0.104719
       2.370000       0.486938       1.436107       0.105733
       2.380000       0.489365       1.468021       0.106919
       2.390000       0.491469       1.502103       0.108197
       2.400000       0.493412       1.538554       0.109492
       2.410000       0.495533       1.577928       0.110750
       2.420000       0.498268       1.620882       0.111945
       2.430000       0.502060       1.667785       0.113071
       2.440000       0.507281       1.718252       0.114130
       2.450000       0.514171       1.770718       0.115114
       2.460000       0.522815       1.822202       0.116001
       2.470000       0.533147       1.868399       0.116754
       2.480000       0.544985       1.904213       0.117330
       2.490000       0.558078       1.924694       0.117703
       2.500000       0.572172       1.926175       0.117870
       2.510000       0.587053       1.907189       0.117860
       2.520000       0.602549       1.868805       0.117729
       2.530000       0.618497       1.814214       0.117543
       2.540000       0.634688       1.747792       0.117362
       2.550000       0.650835       1.674072       0.117226
       2.560000       0.666584       1.597001       0.117152
       2.570000       0.681560       1.519634       0.117132
       2.580000       0.695418       1.444202       0.117145
       2.590000       0.707867       1.372328       0.117168
       2.600000       0.718644       1.305233       0.117178
       2.610000       0.727458       1.243824       0.117166
       2.620000       0.733935       1.188695       0.117129
       2.630000       0.737595       1.140083       0.117068
       2.640000       0.737873       1.097846       0.116982
       2.650000       0.734189       1.061477       0.116873
       2.660000       0.726060       1.030178       0.116747
       2.670000       0.713234       1.002986       0.116621
       2.680000       0.695828       0.978925       0.116522
       2.690000       0.674392       0.957173       0.116492
       2.700000       0.649867       0.937186       0.116582
       2.710000       0.623448       0.918752       0.116853
       2.720000       0.596377       0.901966       0.117370
       2.730000       0.569763       0.887138       0.118194
       2.740000       0.544446       0.874652       0.119370
       2.750000       0.520953       0.864824       0.120915
       2.760000       0.499508       0.857778       0.122808
       2.770000       0.480084       0.853379       0.124990
       2.780000       0.462486       0.851228       0.127365
       2.790000       0.446441       0.850749       0.129807
       2.800000       0.431678       0.851314       0.132169
       2.810000       0.417993       0.852410       0.134288
       2.820000       0.405288       0.853750       0.136007
       2.830000       0.393559       0.855307       0.137186
       2.840000       0.382874       0.857240       0.137737
       2.850000       0.373331       0.859748       0.137637
       2.860000       0.365021       0.862937       0.136940
       2.870000       0.358004       0.866735       0.135767
       2.880000       0.352299       0.870888       0.134283
       2.890000       0.347877       0.875011       0.132664
       2.900000       0.344666       0.878648       0.131064
       2.910000       0.342550       0.881327       0.129590
       2.920000       0.341366       0.882602       0.128297
       2.930000       0.340914       0.882127       0.127189
       2.940000       0.340963       0.879746       0.126237
       2.950000       0.341276       0.875579       0.125398
       2.960000       0.341638       0.870049       0.124639
       2.970000       0.341891       0.863846       0.123951
       2.980000       0.341950       0.857818       0.123357
       2.990000       0.341813       0.852853       0.122910
       3.000000       0.341547       0.849775       0.122668
       3.010000       0.341265       0.849303       0.122683
       3.020000       0.341107       0.852041       0.122977
       3.030000       0.341228       0.858512       0.123539
       3.040000       0.341791       0.869177       0.124328
       3.050000       0.342961       0.884438       0.125281
       3.060000       0.344898       0.904620       0.126327
       3.070000       0.347748       0.929940       0.127398
       3.080000       0.351635       0.960483       0.128436
       3.090000       0.356659       0.996186       0.129391
       3.100000       0.362893       1.036845       0.130214
       3.110000       0.370392       1.082109       0.130848
       3.120000       0.379189       1.131486       0.131220
       3.130000       0.389299       1.184334       0.131250
       3.140000       0.400728       1.239854       0.130865
       3.150000       0.413471       1.297104       0.130019
       3.160000       0.427531       1.355024       0.128713
       3.170000       0.442924       1.412464       0.127007
       3.180000       0.459707       1.468187       0.125018
       3.190000       0.477984       1.520860       0.122904
       3.200000       0.497920       1.569055       0.120836
       3.210000       0.519723       1.611292       0.118972
       3.220000       0.543622       1.646180       0.117429
       3.230000       0.569828       1.672629       0.116273
       3.240000       0.598479       1.690095       0.115508
       3.250000       0.629597       1.698751       0.115082
       3.260000       0.663039       1.699501       0.114896
       3.270000       0.698481       1.693822       0.114826
       3.280000       0.735444       1.683473       0.114750
       3.290000       0.773370       1.670203       0.114575
       3.300000       0.811741       1.655527       0.114261
       3.310000       0.850186       1.640614       0.113824
       3.320000       0.888529       1.626281       0.113333
       3.330000       0.926731       1.613065       0.112888
       3.340000       0.964750       1.601347       0.112593
       3.350000       1.002374       1.591483       0.112547
       3.360000       1.039135       1.583910       0.112825
       3.370000       1.074346       1.579147       0.113486
       3.380000       1.107274       1.577701       0.114571
       3.390000       1.137346       1.579891       0.116103
       3.400000       1.164286       1.585673       0.118086
       3.410000       1.188113       1.594552       0.120495
       3.420000       1.209024       1.605621       0.123265
       3.430000       1.227259       1.617731       0.126288
       3.440000       1.243057       1.629714       0.129414
       3.450000       1.256690       1.640581       0.132459
       3.460000       1.268498       1.649657       0.135223
       3.470000       1.278844       1.656651       0.137516
       3.480000       1.287953       1.661645       0.139180
       3.490000       1.295741       1.665015       0.140111
       3.500000       1.301728       1.667256       0.140265
       3.510000       1.305141       1.668755       0.139653
       3.520000       1.305179       1.669617       0.138324
       3.530000       1.301314       1.669613       0.136354
       3.540000       1.293484       1.668289       0.133833
       3.550000       1.282085       1.665216       0.130870
       3.560000       1.267796       1.660261       0.127594
       3.570000       1.251340       1.653780       0.124158
       3.580000       1.233338       1.646628       0.120725
       3.590000       1.214287       1.639985       0.117452
       3.600000       1.194683       1.635083       0.114473
       3.610000       1.175179       1.632930       0.111887
       3.620000       1.156675       1.634119       0.109757
       3.630000       1.140287       1.638752       0.108114
       3.640000       1.127190       1.646505       0.106961
       3.650000       1.118426       1.656823       0.106279
       3.660000       1.114709       1.669185       0.106027
       3.670000       1.116297       1.683336       0.106143
       3.680000       1.122908       1.699373       0.106541
       3.690000       1.133701       1.717639       0.107126
       3.700000       1.147319       1.738474       0.107798
       3.710000       1.162044       1.761922       0.108475
       3.720000       1.176074       1.787507       0.109108
       3.730000       1.187897       1.814145       0.109686
       3.740000       1.196662       1.840226       0.110232
       3.750000       1.202409       1.863844       0.110792
       3.760000       1.206048       1.883162       0.111420
       3.770000       1.209113       1.896817       0.112166
       3.780000       1.213387       1.904237       0.113073
       3.790000       1.220543       1.905784       0.114187
       3.800000       1.231890       1.902666       0.115551
       3.810000       1.248236       1.896659       0.117206
       3.820000       1.269864       1.889752       0.119186
       3.830000       1.296588       1.883780       0.121511
       3.840000       1.327857       1.880136       0.124187
       3.850000       1.362890       1.879606       0.127206
       3.860000       1.400792       1.882380       0.130550
       3.870000       1.440630       1.888212       0.134195
       3.880000       1.481476       1.896717       0.138103
       3.890000       1.522453       1.907672       0.142218
       3.900000       1.562804       1.921240       0.146458
       3.910000       1.602002       1.938025       0.150712
       3.920000       1.639855       1.958976       0.154853
       3.930000       1.676580       1.985193       0.158746
       3.940000       1.712788       2.017695       0.162270
       3.950000       1.749367       2.057204       0.165329
       3.960000       1.787281       2.103944       0.167866
       3.970000       1.827319       2.157508       0.169866
       3.980000       1.869855       2.216774       0.171348
       3.990000       1.914670       2.279932       0.172356
       4.000000       1.960886       2.344601       0.172939
       4.010000       2.007045       2.408087       0.173135
       4.020000       2.051376       2.467723       0.172965
       4.030000       2.092151       2.521237       0.172435
       4.040000       2.128040       2.567030       0.171545
       4.050000       2.158338       2.604296       0.170313
       4.060000       2.183028       2.632944       0.168782
       4.070000       2.202721       2.653360       0.167031
       4.080000       2.218504       2.666081       0.165169
       4.090000       2.231718       2.671489       0.163322
       4.100000       2.243684       2.669617       0.161619
       4.110000       2.255437       2.660162       0.160190
       4.120000       2.267543       2.642664       0.159153
       4.130000       2.280060       2.616780       0.158613
       4.140000       2.292616       2.582529       0.158654
       4.150000       2.304539       2.540454       0.159336
       4.160000       2.314942       2.491684       0.160690
       4.170000       2.322747       2.437897       0.162718
       4.180000       2.326723       2.381196       0.165389
       4.190000       2.325633       2.323886       0.168639
       4.200000       2.318545       2.268226       0.172365
       4.210000       2.305230       2.216208       0.176430
       4.220000       2.286451       2.169440       0.180664
       4.230000       2.263953       2.129137       0.184877
       4.240000       2.240111       2.096158       0.188874
       4.250000       2.217346       2.071066       0.192479
       4.260000       2.197512       2.054168       0.195558
       4.270000       2.181491       2.045553       0.198046
       4.280000       2.169092       2.045120       0.199965
       4.290000       2.159272       2.052605       0.201422
       4.300000       2.150576       2.067563       0.202589
       4.310000       2.141622       2.089310       0.203669
       4.320000       2.131485       2.116849       0.204846
       4.330000       2.119886       2.148873       0.206262
       4.340000       2.107165       2.183848       0.207992
       4.350000       2.094118       2.220176       0.210052
       4.360000       2.081743       2.256354       0.212403
       4.370000       2.071024       2.291048       0.214972
       4.380000       2.062776       2.323099       0.217655
       4.390000       2.057614       2.351504       0.220332
       4.400000       2.055990       2.375450       0.222872
       4.410000       2.058282       2.394410       0.225151
       4.420000       2.064859       2.408273       0.227061
       4.430000       2.076084       2.417393       0.228527
       4.440000       2.092221       2.422529       0.229514
       4.450000       2.113285       2.424637       0.230026
       4.460000       2.138889       2.424608       0.230111
       4.470000       2.168163       2.423049       0.229849
       4.480000       2.199792       2.420195       0.229345
       4.490000       2.232163       2.415957       0.228711
       4.500000       2.263571       2.410060       0.228047
       4.510000       2.292406       2.402172       0.227424
       4.520000       2.317261       2.391988       0.226870
       4.530000       2.336945       2.379259       0.226365
       4.540000       2.350441       2.363781       0.225854
       4.550000       2.356853       2.345387       0.225267
       4.560000       2.355383       2.323931       0.224538
       4.570000       2.345369       2.299301       0.223628
       4.580000       2.326406       2.271483       0.222521
       4.590000       2.298520       2.240699       0.221223
       4.600000       2.262312       2.207567       0.219746
       4.610000       2.219008       2.173191       0.218098
       4.620000       2.170350       2.139094       0.216285
       4.630000       2.118346       2.106997       0.214318
       4.640000       2.064965       2.078515       0.212219
       4.650000       2.011899       2.054900       0.210025
       4.660000       1.960450       2.036916       0.207786
       4.670000       1.911575       2.024864       0.205553
       4.680000       1.865999       2.018708       0.203380
       4.690000       1.824301       2.018244       0.201319
       4.700000       1.786918       2.023240       0.199429
       4.710000       1.754063       2.033532       0.197774
       4.720000       1.725634       2.049057       0.196422
       4.730000       1.701175       2.069829       0.195431
       4.740000       1.679951       2.095864       0.194832
       4.750000       1.661146       2.127087       0.194622
       4.760000       1.644131       2.163214       0.194755
       4.770000       1.628694       2.203644       0.195149
       4.780000       1.615142       2.247341       0.195698
       4.790000       1.604203       2.292733       0.196293
       4.800000       1.596783       2.337687       0.196841
       4.810000       1.593688       2.379600       0.197273
       4.820000       1.595413       2.415670       0.197544
       4.830000       1.602031       2.443262       0.197621
       4.840000       1.613200       2.460287       0.197478
       4.850000       1.628220       2.465461       0.197080
       4.860000       1.646145       2.458408       0.196382
       4.870000       1.665925       2.439622       0.195333
       4.880000       1.686583       2.410346       0.193885
       4.890000       1.707383       2.372413       0.192005
       4.900000       1.727945       2.328084       0.189693
       4.910000       1.748248       2.279885       0.186985
       4.920000       1.768545       2.230443       0.183961
       4.930000       1.789201       2.182316       0.180736
       4.940000       1.810513       2.137818       0.177441
       4.950000       1.832550       2.098852       0.174208
       4.960000       1.855067       2.066789       0.171147
       4.970000       1.877526       2.042378       0.168335
       4.980000       1.899211       2.025701       0.165815
       4.990000       1.919402       2.016158       0.163603
       5.000000       1.937519       2.012494       0.161695
       5.010000       1.953178       2.012912       0.160084
       5.020000       1.966142       2.015260       0.158765
       5.030000       1.976211       2.017305       0.157737
       5.040000       1.983130       2.017023       0.157007
       5.050000       1.986567       2.012863       0.156588
       5.060000       1.986199       2.003944       0.156499
       5.070000       1.981872       1.990151       0.156761
       5.080000       1.973763       1.972104       0.157399
       5.090000       1.962436       1.950996       0.158431
       5.100000       1.948745       1.928294       0.159866
       5.110000       1.933622       1.905384       0.161692
       5.120000       1.917843       1.883263       0.163877
       5.130000       1.901884       1.862388       0.166364
       5.140000       1.885906       1.842739       0.169074
       5.150000       1.869837       1.824022       0.171917
       5.160000       1.853472       1.805936       0.174794
       5.170000       1.836545       1.788361       0.177600
       5.180000       1.818759       1.771442       0.180223
       5.190000       1.799838       1.755562       0.182547
       5.200000       1.779578       1.741264       0.184447
       5.210000       1.757912       1.729131       0.185812
       5.220000       1.734924       1.719653       0.186558
       5.230000       1.710808       1.713116       0.186651
       5.240000       1.685795       1.709526       0.186120
       5.250000       1.660086       1.708610       0.185050
       5.260000       1.633838       1.709885       0.183569
       5.270000       1.607193       1.712768       0.181822
       5.280000       1.580355       1.716699       0.179941
       5.290000       1.553698       1.721246       0.178034
       5.300000       1.527837       1.726173       0.176164
       5.310000       1.503644       1.731446       0.174358
       5.320000       1.482155       1.737175       0.172611
       5.330000       1.464427       1.743508       0.170904
       5.340000       1.451380       1.750526       0.169220
       5.350000       1.443697       1.758179       0.167559
       5.360000       1.441777       1.766252       0.165938
       5.370000       1.445737       1.774369       0.164390
       5.380000       1.455413       1.782014       0.162953
       5.390000       1.470377       1.788600       0.161663
       5.400000       1.489957       1.793583       0.160548
       5.410000       1.513283       1.796609       0.159636
       5.420000       1.539351       1.797610       0.158955
       5.430000       1.567078       1.796824       0.158539
       5.440000       1.595354       1.794736       0.158424
       5.450000       1.623088       1.791984       0.158641
       5.460000       1.649275       1.789260       0.159213
       5.470000       1.673106       1.787233       0.160153
       5.480000       1.694100       1.786471       0.161461
       5.490000       1.712216       1.787399       0.163132
       5.500000       1.727873       1.790272       0.165159
       5.510000       1.741843       1.795169       0.167528
       5.520000       1.755034       1.802013       0.170224
       5.530000       1.768245       1.810580       0.173220
       5.540000       1.781974       1.820527       0.176476
       5.550000       1.796322       1.831405       0.179943
       5.560000       1.810995       1.842685       0.183572
       5.570000       1.825353       1.853787       0.187317
       5.580000       1.838523       1.864133       0.191137
       5.590000       1.849543       1.873215       0.194977
       5.600000       1.857544       1.880663       0.198758
       5.610000       1.861935       1.886276       0.202369
       5.620000       1.862555       1.890030       0.205669
       5.630000       1.859722       1.892029       0.208509
       5.640000       1.854175       1.892453       0.210758
       5.650000       1.846893       1.891491       0.212327
       5.660000       1.838872       1.889336       0.213184
       5.670000       1.830930       1.886236       0.213348
       5.680000       1.823612       1.882580       0.212885
       5.690000       1.817177       1.878942       0.211888
       5.700000       1.811639       1.876011       0.210462
       5.710000       1.806799       1.874401       0.208715
       5.720000       1.802290       1.874407       0.206747
       5.730000       1.797634       1.875815       0.204652
       5.740000       1.792349       1.877864       0.202516
       5.750000       1.786064       1.879388       0.200425
       5.760000       1.778598       1.879088       0.198466
       5.770000       1.769957       1.875853       0.196726
       5.780000       1.760276       1.869030       0.195287
       5.790000       1.749751       1.858563       0.194214
       5.800000       1.738611       1.844994       0.193553
       5.810000       1.727157       1.829352       0.193326
       5.820000       1.715825       1.812989       0.193533
       5.830000       1.705248       1.797397       0.194153
       5.840000       1.696279       1.784059       0.195151
       5.850000       1.689960       1.774304       0.196475
       5.860000       1.687409       1.769181       0.198065
       5.870000       1.689652       1.769323       0.199852
       5.880000       1.697436       1.774843       0.201776
       5.890000       1.711072       1.785289       0.203786
       5.900000       1.730356       1.799686       0.205853
       5.910000       1.754589       1.816705       0.207968
       5.920000       1.782707       1.834911       0.210147
       5.930000       1.813472       1.853046       0.212422
       5.940000       1.845690       1.870270       0.214845
       5.950000       1.878369       1.886248       0.217476
       5.960000       1.910793       1.901058       0.220373
       5.970000       1.942509       1.914952       0.223577
       5.980000       1.973300       1.928065       0.227096
       5.990000       2.003169       1.940213       0.230905
       6.000000       2.032358       1.950888       0.234955
       6.010000       2.061327       1.959425       0.239182
       6.020000       2.090647       1.965277       0.243525
       6.030000       2.120817       1.968245       0.247922
       6.040000       2.152074       1.968563       0.252312
       6.050000       2.184319       1.966848       0.256619
       6.060000       2.217213       1.963961       0.260749
       6.070000       2.250389       1.960859       0.264586
       6.080000       2.283682       1.958483       0.268005
       6.090000       2.317221       1.957679       0.270886
       6.100000       2.351332       1.959118       0.273136
       6.110000       2.386312       1.963206       0.274708
       6.120000       2.422203       1.969992       0.275609
       6.130000       2.458708       1.979130       0.275904
       6.140000       2.495285       1.989946       0.275699
       6.150000       2.531350       2.001600       0.275128
       6.160000       2.566448       2.013308       0.274331
       6.170000       2.600282       2.024503       0.273436
       6.180000       2.632616       2.034905       0.272542
       6.190000       2.663156       2.044477       0.271717
       6.200000       2.691540       2.053346       0.270995
       6.210000       2.717458       2.061720       0.270389
       6.220000       2.740825       2.069841       0.269898
       6.230000       2.761866       2.077973       0.269524
       6.240000       2.781062       2.086414       0.269276
       6.250000       2.798984       2.095506       0.269171
       6.260000       2.816135       2.105628       0.269235
       6.270000       2.832860       2.117149       0.269496
       6.280000       2.849339       2.130327       0.269977
       6.290000       2.865616       2.145180       0.270696
       6.300000       2.881662       2.161385       0.271664
       6.310000       2.897453       2.178252       0.272894
       6.320000       2.913039       2.194817       0.274396
       6.330000       2.928579       2.210029       0.276170
       6.340000       2.944318       2.223016       0.278206
       6.350000       2.960584       2.233344       0.280470
       6.360000       2.977829       2.241220       0.282904
       6.370000       2.996682       2.247533       0.285437
       6.380000       3.017912       2.253708       0.287985
       6.390000       3.042228       2.261392       0.290464
       6.400000       3.069968       2.272088       0.292799
       6.410000       3.100804       2.286860       0.294932
       6.420000       3.133600       2.306199       0.296823
       6.430000       3.166506       2.330090       0.298456
       6.440000       3.197250       2.358223       0.299838
       6.450000       3.223565       2.390253       0.300991
       6.460000       3.243608       2.425962       0.301947
       6.470000       3.256292       2.465281       0.302742
       6.480000       3.261413       2.508184       0.303413
       6.490000       3.259592       2.554532       0.303995
       6.500000       3.252033       2.603950       0.304510
       6.510000       3.240226       2.655747       0.304972
       6.520000       3.225634       2.708875       0.305383
       6.530000       3.209451       2.761895       0.305738
       6.540000       3.192422       2.813012       0.306023
       6.550000       3.174804       2.860241       0.306214
       6.560000       3.156480       2.901743       0.306282
       6.570000       3.137247       2.936270       0.306198
       6.580000       3.117181       2.963559       0.305946
       6.590000       3.096930       2.984530       0.305536
       6.600000       3.077792       3.001181       0.305021
       6.610000       3.061545       3.016182       0.304486
       6.620000       3.050100       3.032278       0.304041
       6.630000       3.045124       3.051654       0.303798
       6.640000       3.047767       3.075434       0.303856
       6.650000       3.058551       3.103426       0.304290
       6.660000       3.077362       3.134146       0.305142
       6.670000       3.103468       3.165066       0.306414
       6.680000       3.135508       3.192992       0.308071
       6.690000       3.171488       3.214498       0.310045
       6.700000       3.208836       3.226363       0.312240
       6.710000       3.244561       3.225991       0.314551
       6.720000       3.275500       3.211750       0.316873
       6.730000       3.298600       3.183190       0.319113
       6.740000       3.311190       3.141082       0.321196
       6.750000       3.311236       3.087308       0.323063
       6.760000       3.297582       3.024624       0.324679
       6.770000       3.270124       2.956336       0.326028
       6.780000       3.229862       2.885930       0.327125
       6.790000       3.178740       2.816690       0.328019
       6.800000       3.119315       2.751362       0.328791
       6.810000       3.054319       2.691910       0.329541
       6.820000       2.986255       2.639358       0.330382
       6.830000       2.917087       2.593738       0.331416
       6.840000       2.848089       2.554151       0.332726
       6.850000       2.779841       2.518975       0.334366
       6.860000       2.712356       2.486218       0.336371
       6.870000       2.645301       2.453942       0.338753
       6.880000       2.578262       2.420661       0.341512
       6.890000       2.511003       2.385626       0.344630
       6.900000       2.443677       2.348933       0.348066
       6.910000       2.376926       2.311458       0.351758
       6.920000       2.311836       2.274638       0.355631
       6.930000       2.249768       2.240138       0.359619
       6.940000       2.192116       2.209501       0.363695
       6.950000       2.140069       2.183852       0.367892
       6.960000       2.094438       2.163733       0.372314
       6.970000       2.055585       2.149071       0.377123
       6.980000       2.023459       2.139287       0.382514
       6.990000       1.997704       2.133468       0.388668
       7.000000       1.977813       2.130581       0.395719
       7.010000       1.963251       2.129646       0.403720
       7.020000       1.953530       2.129832       0.412628
       7.030000       1.948217       2.130489       0.422307
       7.040000       1.946911       2.131143       0.432551
       7.050000       1.949189       2.131486       0.443118
       7.060000       1.954528       2.131343       0.453783
       7.070000       1.962209       2.130588       0.464376
       7.080000       1.971200       2.128977       0.474823
       7.090000       1.980110       2.125969       0.485155
       7.100000       1.987261       2.120607       0.495497
       7.110000       1.990933       2.111585       0.506042
       7.120000       1.989682       2.097490       0.517007
       7.130000       1.982617       2.077179       0.528594
       7.140000       1.969495       2.050116       0.540948
       7.150000       1.950619       2.016552       0.554129
       7.160000       1.926622       1.977487       0.568105
       7.170000       1.898250       1.934465       0.582764
       7.180000       1.866263       1.889316       0.597957
       7.190000       1.831433       1.843912       0.613540
       7.200000       1.794600       1.799966       0.629415
       7.210000       1.756712       1.758873       0.645548
       7.220000       1.718788       1.721574       0.661962
       7.230000       1.681806       1.688484       0.678716
       7.240000       1.646554       1.659489       0.695864
       7.250000       1.613506       1.634031       0.713425
       7.260000       1.582768       1.611260       0.731369
       7.270000       1.554110       1.590223       0.749630
       7.280000       1.527068       1.570052       0.768124
       7.290000       1.501088       1.550099       0.786767
       7.300000       1.475674       1.530002       0.805474
       7.310000       1.450500       1.509666       0.824141
       7.320000       1.425475       1.489200       0.842637
       7.330000       1.400750       1.468844       0.860809
       7.340000       1.376680       1.448906       0.878517
       7.350000       1.353755       1.429739       0.895674
       7.360000       1.332501       1.411726       0.912281
       7.370000       1.313398       1.395263       0.928440
       7.380000       1.296809       1.380730       0.944348
       7.390000       1.282946       1.368444       0.960259
       7.400000       1.271864       1.358617       0.976433
       7.410000       1.263492       1.351322       0.993073
       7.420000       1.257659       1.346468       1.010265
       7.430000       1.254149       1.343812       1.027948
       7.440000       1.252746       1.342994       1.045912
       7.450000       1.253287       1.343604       1.063841
       7.460000       1.255672       1.345251       1.081378
       7.470000       1.259827       1.347619       1.098183
       7.480000       1.265609       1.350471       1.113964
       7.490000       1.272702       1.353628       1.128476
       7.500000       1.280534       1.356923       1.141506
       7.510000       1.288278       1.360179       1.152857
       7.520000       1.294915       1.363203       1.162341
       7.530000       1.299368       1.365813       1.169783
       7.540000       1.300652       1.367895       1.175036
       7.550000       1.298023       1.369502       1.177996
       7.560000       1.291087       1.370943       1.178639
       7.570000       1.279866       1.372829       1.177037
       7.580000       1.264791       1.376014       1.173365
       7.590000       1.246625       1.381469       1.167862
       7.600000       1.226335       1.390099       1.160786
       7.610000       1.204946       1.402592       1.152366
       7.620000       1.183408       1.419311       1.142776
       7.630000       1.162507       1.440268       1.132120
       7.640000       1.142826       1.465146       1.120436
       7.650000       1.124747       1.493390       1.107706
       7.660000       1.108480       1.524304       1.093890
       7.670000       1.094098       1.557166       1.078979
       7.680000       1.081563       1.591318       1.063044
       7.690000       1.070740       1.626235       1.046269
       7.700000       1.061419       1.661568       1.028950
       7.710000       1.053345       1.697154       1.011468
       7.720000       1.046260       1.732985       0.994256
       7.730000       1.039945       1.769141       0.977778
       7.740000       1.034240       1.805703       0.962517
       7.750000       1.029033       1.842639       0.948962
       7.760000       1.024221       1.879694       0.937591
       7.770000       1.019666       1.916298       0.928837
       7.780000       1.015155       1.951526       0.923063
       7.790000       1.010392       1.984154       0.920537
       7.800000       1.005017       2.012834       0.921423
       7.810000       0.998652       2.036352       0.925785
       7.820000       0.990983       2.053865       0.933600
       7.830000       0.981824       2.065045       0.944791
       7.840000       0.971166       2.070071       0.959244
       7.850000       0.959177       2.069557       0.976849
       7.860000       0.946180       2.064462       0.997514
       7.870000       0.932603       2.056036       1.021166
       7.880000       0.918927       2.045760       1.047718
       7.890000       0.905614       2.035210       1.077000
       7.900000       0.893029       2.025837       1.108672
       7.910000       0.881371       2.018708       1.142171
       7.920000       0.870627       2.014308       1.176699
       7.930000       0.860566       2.012492       1.211278
       7.940000       0.850798       2.012572       1.244874
       7.950000       0.840876       2.013518       1.276541
       7.960000       0.830429       2.014164       1.305572
       7.970000       0.819270       2.013375       1.331597
       7.980000       0.807432       2.010157       1.354621
       7.990000       0.795143       2.003740       1.374973
       8.000000       0.782735       1.993634       1.393188
       8.010000       0.770575       1.979682       1.409852
       8.020000       0.759003       1.962078       1.425481
       8.030000       0.748324       1.941362       1.440449
       8.040000       0.738804       1.918365       1.454989
       8.050000       0.730673       1.894098       1.469242
       8.060000       0.724104       1.869575       1.483310
       8.070000       0.719203       1.845591       1.497272
       8.080000       0.715985       1.822539       1.511161
       8.090000       0.714386       1.800366       1.524907
       8.100000       0.714287       1.778684       1.538293
       8.110000       0.715549       1.757016       1.550945
       8.120000       0.718038       1.735045       1.562370
       8.130000       0.721630       1.712781       1.572042
       8.140000       0.726188       1.690582       1.579516
       8.150000       0.731536       1.669087       1.584536
       8.160000       0.737453       1.649088       1.587108
       8.170000       0.743687       1.631418       1.587509
       8.180000       0.749992       1.616854       1.586252
       8.190000       0.756153       1.606047       1.584006
       8.200000       0.761980       1.599457       1.581500
       8.210000       0.767275       1.597289       1.579420
       8.220000       0.771806       1.599442       1.578343
       8.230000       0.775306       1.605486       1.578692
       8.240000       0.777511       1.614677       1.580744
       8.250000       0.778227       1.626028       1.584666
       8.260000       0.777380       1.638401       1.590584
       8.270000       0.775031       1.650615       1.598629
       8.280000       0.771351       1.661550       1.608974
       8.290000       0.766565       1.670221       1.621834
       8.300000       0.760903       1.675844       1.637454
       8.310000       0.754569       1.677854       1.656102
       8.320000       0.747735       1.675916       1.678073
       8.330000       0.740552       1.669914       1.703702
       8.340000       0.733180       1.659948       1.733366
       8.350000       0.725810       1.646340       1.767468
       8.360000       0.718686       1.629614       1.806406
       8.370000       0.712089       1.610445       1.850524
       8.380000       0.706303       1.589566       1.900076
       8.390000       0.701560       1.567676       1.955197
       8.400000       0.697997       1.545368       2.015891
       8.410000       0.695625       1.523107       2.082050
       8.420000       0.694332       1.501246       2.153478
       8.430000       0.693912       1.480082       2.229933
       8.440000       0.694111       1.459912       2.311179
       8.450000       0.694678       1.441092       2.397030
       8.460000       0.695398       1.424078       2.487367
       8.470000       0.696104       1.409429       2.582131
       8.480000       0.696681       1.397769       2.681252
       8.490000       0.697054       1.389696       2.784560
       8.500000       0.697208       1.385659       2.891675
       8.510000       0.697212       1.385860       3.001940
       8.520000       0.697241       1.390194       3.114417
       8.530000       0.697565       1.398290       3.227933
       8.540000       0.698506       1.409626       3.341169
       8.550000       0.700377       1.423695       3.452713
       8.560000       0.703407       1.440159       3.561069
       8.570000       0.707704       1.458929       3.664618
       8.580000       0.713239       1.480139       3.761579
       8.590000       0.719865       1.504004       3.850044
       8.600000       0.727370       1.530617       3.928102
       8.610000       0.735556       1.559738       3.994036
       8.620000       0.744315       1.590670       4.046543
       8.630000       0.753684       1.622261       4.084892
       8.640000       0.763851       1.653052       4.108986
       8.650000       0.775102       1.681505       4.119272
       8.660000       0.787742       1.706220       4.116575
       8.670000       0.802009       1.726068       4.101907
       8.680000       0.818022       1.740226       4.076354
       8.690000       0.835768       1.748128       4.041049
       8.700000       0.855140       1.749435       3.997196
       8.710000       0.876009       1.744049       3.946073
       8.720000       0.898318       1.732193       3.888967
       8.730000       0.922164       1.714523       3.827094
       8.740000       0.947851       1.692183       3.761552
       8.750000       0.975887       1.666759       3.693342
       8.760000       1.006898       1.640107       3.623449
       8.770000       1.041509       1.614085       3.552897
       8.780000       1.080196       1.590271       3.482719
       8.790000       1.123164       1.569754       3.413838
       8.800000       1.170281       1.553053       3.346906
       8.810000       1.221073       1.540194       3.282206
       8.820000       1.274790       1.530906       3.219663
       8.830000       1.330510       1.524853       3.158996
       8.840000       1.387264       1.521807       3.099928
       8.850000       1.444130       1.521695       3.042385
       8.860000       1.500272       1.524494       2.986588
       8.870000       1.554917       1.530049       2.933020
       8.880000       1.607297       1.537917       2.882292
       8.890000       1.656598       1.547318       2.834982
       8.900000       1.701948       1.557219       2.791497
       8.910000       1.742467       1.566516       2.751997
       8.920000       1.777377       1.574232       2.716360
       8.930000       1.806138       1.579637       2.684177
       8.940000       1.828569       1.582271       2.654793
       8.950000       1.844862       1.581898       2.627412
       8.960000       1.855478       1.578462       2.601262
       8.970000       1.860943       1.572125       2.575769
       8.980000       1.861640       1.563329       2.550658
       8.990000       1.857705       1.552839       2.525966
       9.000000       1.849057       1.541661       2.501960
       9.010000       1.835544       1.530846       2.479034
       9.020000       1.817122       1.521253       2.457588
       9.030000       1.793946       1.513378       2.437928
       9.040000       1.766379       1.507302       2.420157
       9.050000       1.734921       1.502768       2.404084
       9.060000       1.700182       1.499345       2.389162
       9.070000       1.662922       1.496582       2.374485
       9.080000       1.624132       1.494112       2.358886
       9.090000       1.585054       1.491642       2.341139
       9.100000       1.547083       1.488864       2.320239
       9.110000       1.511568       1.485325       2.295668
       9.120000       1.479600       1.480355       2.267533
       9.130000       1.451877       1.473096       2.236521
       9.140000       1.428671       1.462666       2.203680
       9.150000       1.409883       1.448415       2.170126
       9.160000       1.395111       1.430176       2.136788
       9.170000       1.383708       1.408407       2.104270
       9.180000       1.374826       1.384169       2.072861
       9.190000       1.367489       1.358936       2.042651
       9.200000       1.360693       1.334337       2.013691
       9.210000       1.353532       1.311928       1.986117
       9.220000       1.345286       1.293050       1.960202
       9.230000       1.335444       1.278759       1.936329
       9.240000       1.323676       1.269814       1.914949
       9.250000       1.309819       1.266662       1.896542
       9.260000       1.293913       1.269419       1.881610
       9.270000       1.276275       1.277859       1.870678
       9.280000       1.257548       1.291409       1.864289
       9.290000       1.238669       1.309166       1.862966
       9.300000       1.220728       1.329922       1.867153
       9.310000       1.204793       1.352204       1.877162
       9.320000       1.191719       1.374313       1.893113
       9.330000       1.182010       1.394404       1.914914
       9.340000       1.175747       1.410612       1.942254
       9.350000       1.172566       1.421236       1.974629
       9.360000       1.171706       1.424956       2.011407
       9.370000       1.172109       1.421054       2.051922
       9.380000       1.172578       1.409549       2.095582
       9.390000       1.171961       1.391230       2.141974
       9.400000       1.169363       1.367543       2.190909
       9.410000       1.164311       1.340363       2.242392
       9.420000       1.156831       1.311729       2.296532
       9.430000       1.147399       1.283596       2.353425
       9.440000       1.136766       1.257654       2.413045
       9.450000       1.125738       1.235223       2.475176
       9.460000       1.114993       1.217223       2.539383
       9.470000       1.105000       1.204206       2.605012
       9.480000       1.096033       1.196419       2.671196
       9.490000       1.088262       1.193895       2.736872
       9.500000       1.081840       1.196514       2.800800
       9.510000       1.076944       1.204055       2.861603
       9.520000       1.073768       1.216228       2.917846
       9.530000       1.072456       1.232714       2.968161
       9.540000       1.073026       1.253207       3.011395
       9.550000       1.075305       1.277455       3.046768
       9.560000       1.078884       1.305278       3.073982
       9.570000       1.083134       1.336558       3.093282
       9.580000       1.087275       1.371191       3.105425
       9.590000       1.090496       1.409020       3.111575
       9.600000       1.092093       1.449742       3.113127
       9.610000       1.091589       1.492826       3.111495
       9.620000       1.088812       1.537446       3.107921
       9.630000       1.083918       1.582475       3.103349
       9.640000       1.077347       1.626546       3.098373
       9.650000       1.069740       1.668187       3.093237
       9.660000       1.061812       1.706001       3.087866
       9.670000       1.054235       1.738844       3.081908
       9.680000       1.047549       1.765961       3.074799
       9.690000       1.042122       1.787040       3.065860
       9.700000       1.038153       1.802201       3.054420
       9.710000       1.035717       1.811945       3.039934
       9.720000       1.034843       1.817072       3.022077
       9.730000       1.035590       1.818586       3.000803
       9.740000       1.038115       1.817572       2.976374
       9.750000       1.042686       1.815076       2.949332
       9.760000       1.049656       1.812001       2.920425
       9.770000       1.059386       1.809069       2.890504
       9.780000       1.072180       1.806853       2.860393
       9.790000       1.088232       1.805835       2.830768
       9.800000       1.107630       1.806453       2.802061
       9.810000       1.130380       1.809061       2.774394
       9.820000       1.156441       1.813824       2.747577
       9.830000       1.185719       1.820560       2.721159
       9.840000       1.218011       1.828613       2.694549
       9.850000       1.252918       1.836835       2.667192
       9.860000       1.289745       1.843710       2.638737
       9.870000       1.327457       1.847622       2.609146
       9.880000       1.364698       1.847182       2.578693
       9.890000       1.399920       1.841486       2.547851
       9.900000       1.431592       1.830240       2.517139
       9.910000       1.458449       1.813711       2.486986
       9.920000       1.479726       1.792568       2.457665
       9.930000       1.495310       1.767711       2.429302
       9.940000       1.505773       1.740122       2.401940
       9.950000       1.512294       1.710786       2.375614
       9.960000       1.516456       1.680624       2.350426
       9.970000       1.519993       1.650451       2.326587
       9.980000       1.524513       1.620955       2.304402
       9.990000       1.531255       1.592685       2.284204
      10.000000       1.540905       1.566057       2.266230
      10.010000       1.553484       1.541364       2.250498
      10.020000       1.568323       1.518783       2.236731
      10.030000       1.584142       1.498396       2.224367
      10.040000       1.599243       1.480218       2.212677
      10.050000       1.611813       1.464216       2.200947
      10.060000       1.620291       1.450301       2.188672
      10.070000       1.623682       1.438293       2.175668
      10.080000       1.621714       1.427873       2.162079
      10.090000       1.614806       1.418575       2.148258
      10.100000       1.603890       1.409832       2.134603
      10.110000       1.590168       1.401069       2.121380
      10.120000       1.574905       1.391814       2.108617
      10.130000       1.559273       1.381782       2.096058
      10.140000       1.544235       1.370895       2.083217
      10.150000       1.530477       1.359241       2.069500
      10.160000       1.518375       1.347017       2.054387
      10.170000       1.508035       1.334469       2.037621
      10.180000       1.499401       1.321866       2.019353
      10.190000       1.492396       1.309477       2.000196
      10.200000       1.487030       1.297567       1.981186
      10.210000       1.483441       1.286376       1.963637
      10.220000       1.481844       1.276093       1.948940
      10.230000       1.482430       1.266829       1.938347
      10.240000       1.485274       1.258585       1.932781
      10.250000       1.490281       1.251251       1.932732
      10.260000       1.497185       1.244636       1.938229
      10.270000       1.505594       1.238527       1.948898
      10.280000       1.515052       1.232785       1.964063
      10.290000       1.525113       1.227415       1.982867
      10.300000       1.535418       1.222615       2.004405
      10.310000       1.545764       1.218749       2.027838
      10.320000       1.556137       1.216286       2.052493
      10.330000       1.566694       1.215690       2.077942
      10.340000       1.577690       1.217336       2.104042
      10.350000       1.589348       1.221449       2.130937
      10.360000       1.601708       1.228100       2.159030
      10.370000       1.614498       1.237223       2.188928
      10.380000       1.627086       1.248650       2.221360
      10.390000       1.638536       1.262127       2.257088
      10.400000       1.647782       1.277320       2.296805
      10.410000       1.653862       1.293821       2.341037
      10.420000       1.656124       1.311148       2.390051
      10.430000       1.654321       1.328774       2.443816
      10.440000       1.648560       1.346156       2.502003
      10.450000       1.639139       1.362763       2.564045
      10.460000       1.626369       1.378091       2.629227
      10.470000       1.610447       1.391643       2.696780
      10.480000       1.591451       1.402876       2.765961
      10.490000       1.569432       1.411160       2.836100
      10.500000       1.544554       1.415778       2.906584
      10.510000       1.517191       1.416020       2.976768
      10.520000       1.487947       1.411334       3.045826
      10.530000       1.457588       1.401479       3.112581
      10.540000       1.426941       1.386612       3.175393
      10.550000       1.396815       1.367261       3.232176
      10.560000       1.367970       1.344214       3.280585
      10.570000       1.341114       1.318365       3.318348
      10.580000       1.316890       1.290577       3.343646
      10.590000       1.295822       1.261583       3.355411
      10.600000       1.278221       1.231929       3.353442
      10.610000       1.264080       1.201962       3.338333
      10.620000       1.253023       1.171839       3.311245
      10.630000       1.244328       1.141576       3.273631
      10.640000       1.237056       1.111139       3.227005
      10.650000       1.230256       1.080543       3.172815
      10.660000       1.223189       1.049949       3.112431
      10.670000       1.215505       1.019703       3.047172
      10.680000       1.207306       0.990308       2.978333
      10.690000       1.199074       0.962344       2.907147
      10.700000       1.191507       0.936377       2.834704
      10.710000       1.185328       0.912880       2.761882
      10.720000       1.181141       0.892192       2.689315
      10.730000       1.179349       0.874504       2.617436
      10.740000       1.180144       0.859860       2.546537
      10.750000       1.183521       0.848173       2.476829
      10.760000       1.189312       0.839253       2.408468
      10.770000       1.197235       0.832848       2.341564
      10.780000       1.206965       0.828689       2.276181
      10.790000       1.218203       0.826533       2.212366
      10.800000       1.230732       0.826175       2.150195
      10.810000       1.244425       0.827443       2.089830
      10.820000       1.259206       0.830154       2.031550
      10.830000       1.274973       0.834069       1.975750
      10.840000       1.291526       0.838863       1.922891
      10.850000       1.308504       0.844141       1.873441
      10.860000       1.325357       0.849497       1.827824
      10.870000       1.341344       0.854593       1.786373
      10.880000       1.355561       0.859218       1.749301
      10.890000       1.367036       0.863305       1.716683
      10.900000       1.374877       0.866907       1.688455
      10.910000       1.378439       0.870144       1.664442
      10.920000       1.377462       0.873165       1.644389
      10.930000       1.372110       0.876104       1.627996
      10.940000       1.362897       0.879056       1.614935
      10.950000       1.350521       0.882033       1.604843
      10.960000       1.335665       0.884923       1.597314
      10.970000       1.318834       0.887470       1.591888
      10.980000       1.300300       0.889287       1.588054
      10.990000       1.280151       0.889903       1.585263
      11.000000       1.258406       0.888842       1.582927
      11.010000       1.235134       0.885701       1.580428
      11.020000       1.210542       0.880217       1.577138
      11.030000       1.184999       0.872326       1.572478
      11.040000       1.159036       0.862203       1.566015
      11.050000       1.133306       0.850276       1.557556
      11.060000       1.108512       0.837189       1.547211
      11.070000       1.085309       0.823732       1.535378
      11.080000       1.064192       0.810723       1.522653
      11.090000       1.045402       0.798893       1.509707
      11.100000       1.028877       0.788798       1.497164
      11.110000       1.014277       0.780789       1.485488
      11.120000       1.001065       0.775032       1.474924
      11.130000       0.988621       0.771562       1.465455
      11.140000       0.976359       0.770340       1.456806
      11.150000       0.963826       0.771302       1.448462
      11.160000       0.950757       0.774366       1.439733
      11.170000       0.937112       0.779419       1.429845
      11.180000       0.923079       0.786261       1.418087
      11.190000       0.909040       0.794554       1.403958
      11.200000       0.895510       0.803775       1.387284
      11.210000       0.883041       0.813216       1.368248
      11.220000       0.872133       0.822052       1.347323
      11.230000       0.863165       0.829453       1.325158
      11.240000       0.856366       0.834726       1.302441
      11.250000       0.851814       0.837425       1.279790
      11.260000       0.849472       0.837395       1.257663
      11.270000       0.849232       0.834739       1.236310
      11.280000       0.850968       0.829718       1.215732
      11.290000       0.854563       0.822665       1.195697
      11.300000       0.859926       0.813928       1.175786
      11.310000       0.866988       0.803858       1.155490
      11.320000       0.875699       0.792817       1.134323
      11.330000       0.886031       0.781185       1.111927
      11.340000       0.897984       0.769346       1.088135
      11.350000       0.911587       0.757684       1.062989
      11.360000       0.926895       0.746567       1.036725
      11.370000       0.943963       0.736357       1.009731
      11.380000       0.962811       0.727405       0.982502
      11.390000       0.983384       0.720058       0.955593
      11.400000       1.005507       0.714650       0.929558
      11.410000       1.028843       0.711485       0.904901
      11.420000       1.052853       0.710823       0.882021
      11.430000       1.076792       0.712847       0.861182
      11.440000       1.099729       0.717639       0.842488
      11.450000       1.120618       0.725145       0.825882
      11.460000       1.138392       0.735144       0.811161
      11.470000       1.152085       0.747218       0.798013
      11.480000       1.160949       0.760741       0.786078
      11.490000       1.164556       0.774891       0.775002
      11.500000       1.162859       0.788712       0.764493
      11.510000       1.156184       0.801212       0.754352
      11.520000       1.145145       0.811494       0.744488
      11.530000       1.130536       0.818892       0.734919
      11.540000       1.113202       0.823059       0.725751
      11.550000       1.093927       0.823995       0.717139
      11.560000       1.073357       0.821986       0.709231
      11.570000       1.051965       0.817515       0.702118
      11.580000       1.030062       0.811156       0.695808
      11.590000       1.007837       0.803507       0.690238
      11.600000       0.985415       0.795154       0.685311
      11.610000       0.962908       0.786646       0.680941
      11.620000       0.940455       0.778465       0.677074
      11.630000       0.918231       0.770985       0.673686
      11.640000       0.896432       0.764436       0.670760
      11.650000       0.875255       0.758872       0.668261
      11.660000       0.854864       0.754170       0.666126
      11.670000       0.835397       0.750044       0.664261
      11.680000       0.816970       0.746082       0.662548
      11.690000       0.799693       0.741797       0.660851
      11.700000       0.783680       0.736700       0.659024
      11.710000       0.769040       0.730386       0.656916
      11.720000       0.755852       0.722604       0.654385
      11.730000       0.744145       0.713318       0.651305
      11.740000       0.733870       0.702717       0.647582
      11.750000       0.724895       0.691189       0.643164
      11.760000       0.717035       0.679257       0.638048
      11.770000       0.710083       0.667498       0.632282
      11.780000       0.703862       0.656458       0.625969
      11.790000       0.698261       0.646584       0.619257
      11.800000       0.693249       0.638181       0.612329
      11.810000       0.688878       0.631398       0.605393
      11.820000       0.685254       0.626247       0.598665
      11.830000       0.682513       0.622632       0.592345
      11.840000       0.680773       0.620377       0.586600
      11.850000       0.680095       0.619247       0.581547
      11.860000       0.680453       0.618962       0.577259
      11.870000       0.681720       0.619218       0.573776
      11.880000       0.683673       0.619711       0.571138
      11.890000       0.686029       0.620169       0.569397
      11.900000       0.688481       0.620371       0.568624
      11.910000       0.690742       0.620153       0.568882
      11.920000       0.692593       0.619410       0.570193
      11.930000       0.693916       0.618089       0.572505
      11.940000       0.694714       0.616173       0.575675
      11.950000       0.695116       0.613683       0.579483
      11.960000       0.695345       0.610672       0.583658
      11.970000       0.695683       0.607244       0.587924
      11.980000       0.696411       0.603560       0.592025
      11.990000       0.697776       0.599844       0.595752
      12.000000       0.699961       0.596348       0.598939
      12.010000       0.703089       0.593309       0.601466
      12.020000       0.707238       0.590880       0.603254
      12.030000       0.712457       0.589085       0.604269
      12.040000       0.718771       0.587791       0.604514
      12.050000       0.726170       0.586725       0.604032
      12.060000       0.734589       0.585522       0.602894
      12.070000       0.743877       0.583804       0.601189
      12.080000       0.753795       0.581258       0.599013
      12.090000       0.764033       0.577698       0.596456
      12.100000       0.774267       0.573092       0.593584
      12.110000       0.784227       0.567566       0.590433
      12.120000       0.793774       0.561370       0.587006
      12.130000       0.802928       0.554837       0.583285
      12.140000       0.811851       0.548326       0.579258
      12.150000       0.820771       0.542163       0.574950
      12.160000       0.829887       0.536595       0.570432
      12.170000       0.839274       0.531755       0.565825
      12.180000       0.848811       0.527658       0.561269
      12.190000       0.858153       0.524220       0.556885
      12.200000       0.866734       0.521284       0.552741
      12.210000       0.873802       0.518654       0.548835
      12.220000       0.878498       0.516117       0.545090
      12.230000       0.879984       0.513454       0.541378
      12.240000       0.877580       0.510454       0.537558
      12.250000       0.870896       0.506927       0.533512
      12.260000       0.859899       0.502721       0.529174
      12.270000       0.844912       0.497753       0.524551
      12.280000       0.826542       0.492028       0.519702
      12.290000       0.805588       0.485643       0.514717
      12.300000       0.782932       0.478774       0.509674
      12.310000       0.759448       0.471636       0.504606
      12.320000       0.735916       0.464445       0.499483
      12.330000       0.712962       0.457384       0.494208
      12.340000       0.691022       0.450582       0.488647
      12.350000       0.670344       0.444127       0.482660
      12.360000       0.651027       0.438075       0.476152
      12.370000       0.633068       0.432475       0.469100
      12.380000       0.616411       0.427378       0.461584
      12.390000       0.600987       0.422835       0.453777
      12.400000       0.586728       0.418897       0.445928
      12.410000       0.573583       0.415596       0.438318
      12.420000       0.561513       0.412943       0.431217
      12.430000       0.550480       0.410920       0.424844
      12.440000       0.540440       0.409486       0.419342
      12.450000       0.531330       0.408585       0.414760
      12.460000       0.523069       0.408144       0.411045
      12.470000       0.515569       0.408080       0.408047
      12.480000       0.508754       0.408292       0.405536
      12.490000       0.502576       0.408676       0.403240
      12.500000       0.497020       0.409133       0.400887
      12.510000       0.492098       0.409589       0.398251
      12.520000       0.487838       0.410007       0.395179
      12.530000       0.484258       0.410402       0.391613
      12.540000       0.481355       0.410829       0.387582
      12.550000       0.479091       0.411373       0.383176
      12.560000       0.477396       0.412123       0.378526
      12.570000       0.476171       0.413153       0.373778
      12.580000       0.475302       0.414510       0.369074
      12.590000       0.474685       0.416217       0.364550
      12.600000       0.474230       0.418289       0.360324
      12.610000       0.473874       0.420739       0.356485
      12.620000       0.473580       0.423586       0.353083
      12.630000       0.473331       0.426837       0.350114
      12.640000       0.473118       0.430487       0.347515
      12.650000       0.472942       0.434508       0.345168
      12.660000       0.472818       0.438859       0.342921
      12.670000       0.472783       0.443494       0.340617
      12.680000       0.472921       0.448370       0.338131
      12.690000       0.473363       0.453439       0.335399
      12.700000       0.474286       0.458645       0.332428
      12.710000       0.475886       0.463917       0.329284
      12.720000       0.478354       0.469184       0.326073
      12.730000       0.481844       0.474401       0.322901
      12.740000       0.486444       0.479572       0.319856
      12.750000       0.492155       0.484761       0.316990
      12.760000       0.498861       0.490082       0.314319
      12.770000       0.506320       0.495661       0.311827
      12.780000       0.514150       0.501602       0.309473
      12.790000       0.521852       0.507944       0.307189
      12.800000       0.528847       0.514634       0.304891
      12.810000       0.534546       0.521505       0.302475
      12.820000       0.538445       0.528277       0.299837
      12.830000       0.540223       0.534569       0.296891
      12.840000       0.539821       0.539940       0.293586
      12.850000       0.537448       0.543959       0.289917
      12.860000       0.533516       0.546276       0.285920
      12.870000       0.528527       0.546686       0.281650
      12.880000       0.522958       0.545170       0.277165
      12.890000       0.517179       0.541900       0.272513
      12.900000       0.511433       0.537219       0.267733
      12.910000       0.505852       0.531584       0.262859
      12.920000       0.500511       0.525501       0.257941
      12.930000       0.495483       0.519446       0.253044
      12.940000       0.490882       0.513799       0.248255
      12.950000       0.486867       0.508796       0.243666
      12.960000       0.483621       0.504519       0.239367
      12.970000       0.481302       0.500924       0.235429
      12.980000       0.480000       0.497895       0.231899
      12.990000       0.479705       0.495312       0.228798
      13.000000       0.480307       0.493113       0.226126
      13.010000       0.481620       0.491320       0.223876
      13.020000       0.483416       0.490035       0.222032
      13.030000       0.485464       0.489403       0.220583
      13.040000       0.487541       0.489553       0.219513
      13.050000       0.489435       0.490540       0.218804
      13.060000       0.490936       0.492301       0.218432
      13.070000       0.491837       0.494645       0.218365
      13.080000       0.491952       0.497270       0.218562
      13.090000       0.491151       0.499815       0.218970
      13.100000       0.489399       0.501934       0.219522
      13.110000       0.486777       0.503356       0.220144
      13.120000       0.483480       0.503934       0.220752
      13.130000       0.479775       0.503649       0.221272
      13.140000       0.475960       0.502592       0.221645
      13.150000       0.472316       0.500912       0.221843
      13.160000       0.469057       0.498770       0.221872
      13.170000       0.466302       0.496295       0.221767
      13.180000       0.464046       0.493564       0.221581
      13.190000       0.462167       0.490604       0.221367
      13.200000       0.460448       0.487416       0.221168
      13.210000       0.458633       0.484012       0.221007
      13.220000       0.456483       0.480444       0.220897
      13.230000       0.453830       0.476820       0.220843
      13.240000       0.450601       0.473303       0.220855
      13.250000       0.446829       0.470094       0.220949
      13.260000       0.442628       0.467414       0.221149
      13.270000       0.438171       0.465476       0.221471
      13.280000       0.433655       0.464472       0.221918
      13.290000       0.429275       0.464543       0.222469
      13.300000       0.425199       0.465756       0.223077
      13.310000       0.421550       0.468093       0.223677
      13.320000       0.418395       0.471440       0.224198
      13.330000       0.415748       0.475609       0.224583
      13.340000       0.413588       0.480371       0.224800
      13.350000       0.411894       0.485499       0.224860
      13.360000       0.410663       0.490799       0.224817
      13.370000       0.409918       0.496123       0.224762
      13.380000       0.409688       0.501354       0.224805
      13.390000       0.409990       0.506388       0.225063
      13.400000       0.410801       0.511113       0.225635
      13.410000       0.412061       0.515407       0.226589
      13.420000       0.413686       0.519144       0.227952
      13.430000       0.415585       0.522211       0.229709
      13.440000       0.417677       0.524518       0.231797
      13.450000       0.419892       0.526015       0.234119
      13.460000       0.422154       0.526694       0.236558
      13.470000       0.424362       0.526597       0.238988
      13.480000       0.426363       0.525809       0.241299
      13.490000       0.427954       0.524445       0.243410
      13.500000       0.428892       0.522642       0.245290
      13.510000       0.428937       0.520542       0.246963
      13.520000       0.427898       0.518291       0.248510
      13.530000       0.425691       0.516045       0.250054
      13.540000       0.422375       0.513984       0.251733
      13.550000       0.418159       0.512307       0.253673
      13.560000       0.413366       0.511202       0.255968
      13.570000       0.408372       0.510796       0.258675
      13.580000       0.403531       0.511105       0.261816
      13.590000       0.399123       0.512018       0.265394
      13.600000       0.395324       0.513315       0.269404
      13.610000       0.392206       0.514733       0.273847
      13.620000       0.389752       0.516033       0.278733
      13.630000       0.387894       0.517056       0.284080
      13.640000       0.386540       0.517742       0.289898
      13.650000       0.385613       0.518128       0.296177
      13.660000       0.385066       0.518314       0.302872
      13.670000       0.384895       0.518439       0.309892
      13.680000       0.385129       0.518649       0.317100
      13.690000       0.385811       0.519068       0.324312
      13.700000       0.386979       0.519773       0.331316
      13.710000       0.388649       0.520773       0.337891
      13.720000       0.390808       0.521999       0.343829
      13.730000       0.393419       0.523322       0.348965
      13.740000       0.396433       0.524569       0.353202
      13.750000       0.399789       0.525561       0.356523
      13.760000       0.403414       0.526128       0.358973
      13.770000       0.407218       0.526134       0.360648
      13.780000       0.411090       0.525487       0.361657
      13.790000       0.414898       0.524156       0.362104
      13.800000       0.418501       0.522186       0.362081
      13.810000       0.421764       0.519711       0.361663
      13.820000       0.424573       0.516939       0.360918
      13.830000       0.426850       0.514133       0.359909
      13.840000       0.428557       0.511560       0.358696
      13.850000       0.429700       0.509451       0.357329
      13.860000       0.430320       0.507968       0.355853
      13.870000       0.430481       0.507188       0.354312
      13.880000       0.430234       0.507119       0.352758
      13.890000       0.429592       0.507719       0.351253
      13.900000       0.428510       0.508920       0.349869
      13.910000       0.426886       0.510653       0.348681
      13.920000       0.424600       0.512854       0.347752
      13.930000       0.421562       0.515472       0.347130
      13.940000       0.417765       0.518466       0.346839
      13.950000       0.413310       0.521798       0.346882
      13.960000       0.408404       0.525415       0.347238
      13.970000       0.403332       0.529226       0.347865
      13.980000       0.398420       0.533076       0.348696
      13.990000       0.394001       0.536723       0.349641
      14.000000       0.390384       0.539844       0.350592
      14.010000       0.387823       0.542050       0.351433
      14.020000       0.386505       0.542939       0.352055
      14.030000       0.386535       0.542155       0.352365
      14.040000       0.387941       0.539460       0.352284
      14.050000       0.390677       0.534797       0.351745
      14.060000       0.394645       0.528303       0.350678
      14.070000       0.399713       0.520288       0.349008
      14.080000       0.405734       0.511161       0.346656
      14.090000       0.412561       0.501350       0.343551
      14.100000       0.420027       0.491234       0.339656
      14.110000       0.427926       0.481104       0.334985
      14.120000       0.435970       0.471167       0.329618
      14.130000       0.443774       0.461565       0.323699
      14.140000       0.450863       0.452410       0.317418
      14.150000       0.456730       0.443803       0.310986
      14.160000       0.460907       0.435849       0.304608
      14.170000       0.463058       0.428652       0.298458
      14.180000       0.463026       0.422317       0.292669
      14.190000       0.460857       0.416934       0.287325
      14.200000       0.456769       0.412573       0.282469
      14.210000       0.451099       0.409265       0.278105
      14.220000       0.444234       0.406989       0.274204
      14.230000       0.436537       0.405663       0.270712
      14.240000       0.428302       0.405141       0.267551
      14.250000       0.419734       0.405230       0.264633
      14.260000       0.410965       0.405708       0.261872
      14.270000       0.402099       0.406359       0.259207
      14.280000       0.393251       0.406989       0.256615
      14.290000       0.384573       0.407446       0.254117
      14.300000       0.376247       0.407622       0.251773
      14.310000       0.368454       0.407448       0.249656
      14.320000       0.361338       0.406895       0.247833
      14.330000       0.354979       0.405955       0.246346
      14.340000       0.349371       0.404630       0.245204
      14.350000       0.344431       0.402920       0.244386
      14.360000       0.340005       0.400822       0.243855
      14.370000       0.335903       0.398342       0.243560
      14.380000       0.331927       0.395513       0.243454
      14.390000       0.327918       0.392409       0.243494
      14.400000       0.323780       0.389159       0.243645
      14.410000       0.319503       0.385921       0.243887
      14.420000       0.315147       0.382860       0.244211
      14.430000       0.310818       0.380106       0.244620
      14.440000       0.306637       0.377726       0.245127
      14.450000       0.302716       0.375727       0.245754
      14.460000       0.299144       0.374065       0.246526
      14.470000       0.295985       0.372684       0.247472
      14.480000       0.293265       0.371534       0.248627
      14.490000       0.290979       0.370593       0.250025
      14.500000       0.289088       0.369863       0.251701
      14.510000       0.287530       0.369369       0.253683
      14.520000       0.286241       0.369146       0.255983
      14.530000       0.285168       0.369232       0.258583
      14.540000       0.284280       0.369648       0.261429
      14.550000       0.283576       0.370389       0.264431
      14.560000       0.283083       0.371422       0.267477
      14.570000       0.282854       0.372694       0.270456
      14.580000       0.282948       0.374156       0.273282
      14.590000       0.283425       0.375776       0.275912
      14.600000       0.284324       0.377546       0.278353
      14.610000       0.285658       0.379464       0.280656
      14.620000       0.287400       0.381508       0.282901
      14.630000       0.289478       0.383613       0.285170
      14.640000       0.291775       0.385646       0.287537
      14.650000       0.294125       0.387414       0.290046
      14.660000       0.296335       0.388670       0.292716
      14.670000       0.298203       0.389152       0.295543
      14.680000       0.299555       0.388613       0.298513
      14.690000       0.300283       0.386871       0.301613
      14.700000       0.300369       0.383842       0.304831
      14.710000       0.299890       0.379568       0.308163
      14.720000       0.299005       0.374217       0.311609
      14.730000       0.297921       0.368055       0.315178
      14.740000       0.296870       0.361403       0.318885
      14.750000       0.296085       0.354586       0.322762
      14.760000       0.295775       0.347883       0.326851
      14.770000       0.296116       0.341503       0.331202
      14.780000       0.297226       0.335573       0.335859
      14.790000       0.299164       0.330134       0.340852
      14.800000       0.301923       0.325158       0.346194
      14.810000       0.305444       0.320560       0.351885
      14.820000       0.309628       0.316219       0.357919
      14.830000       0.314353       0.312000       0.364300
      14.840000       0.319465       0.307783       0.371041
      14.850000       0.324778       0.303474       0.378165
      14.860000       0.330051       0.299021       0.385695
      14.870000       0.334984       0.294415       0.393636
      14.880000       0.339235       0.289682       0.401965
      14.890000       0.342452       0.284873       0.410629
      14.900000       0.344349       0.280055       0.419547
      14.910000       0.344772       0.275298       0.428631
      14.920000       0.343749       0.270677       0.437796
      14.930000       0.341499       0.266265       0.446979
      14.940000       0.338388       0.262133       0.456151
      14.950000       0.334854       0.258346       0.465313
      14.960000       0.331322       0.254960       0.474498
      14.970000       0.328143       0.252016       0.483746
      14.980000       0.325562       0.249527       0.493081
      14.990000       0.323718       0.247483       0.502490
      15.000000       0.322671       0.245838       0.511918
      15.010000       0.322438       0.244522       0.521277
      15.020000       0.323020       0.243445       0.530480
      15.030000       0.324417       0.242511       0.539476
      15.040000       0.326621       0.241626       0.548281
      15.050000       0.329595       0.240712       0.556970
      15.060000       0.333248       0.239710       0.565658
      15.070000       0.337416       0.238588       0.574451
      15.080000       0.341858       0.237335       0.583403
      15.090000       0.346271       0.235963       0.592493
      15.100000       0.350307       0.234494       0.601621
      15.110000       0.353612       0.232957       0.610619
      15.120000       0.355858       0.231378       0.619273
      15.130000       0.356786       0.229782       0.627331
      15.140000       0.356252       0.228182       0.634523
      15.150000       0.354250       0.226587       0.640575
      15.160000       0.350923       0.224997       0.645223
      15.170000       0.346527       0.223411       0.648241
      15.180000       0.341392       0.221826       0.649464
      15.190000       0.335850       0.220243       0.648812
      15.200000       0.330192       0.218666       0.646300
      15.210000       0.324621       0.217098       0.642031
      15.220000       0.319242       0.215538       0.636169
      15.230000       0.314064       0.213979       0.628899
      15.240000       0.309022       0.212413       0.620406
      15.250000       0.304014       0.210831       0.610865
      15.260000       0.298943       0.209227       0.600455
      15.270000       0.293756       0.207605       0.589363
      15.280000       0.288475       0.205972       0.577788
      15.290000       0.283195       0.204344       0.565926
      15.300000       0.278060       0.202742       0.553956
      15.310000       0.273230       0.201188       0.542034
      15.320000       0.268849       0.199706       0.530285
      15.330000       0.265025       0.198321       0.518811
      15.340000       0.261822       0.197051       0.507681
      15.350000       0.259265       0.195910       0.496937
      15.360000       0.257338       0.194898       0.486588
      15.370000       0.255988       0.194001       0.476627
      15.380000       0.255119       0.193190       0.467045
      15.390000       0.254594       0.192417       0.457849
      15.400000       0.254249       0.191618       0.449073
      15.410000       0.253904       0.190729       0.440762
      15.420000       0.253403       0.189692       0.432945
      15.430000       0.252646       0.188476       0.425601
      15.440000       0.251616       0.187090       0.418634
      15.450000       0.250389       0.185583       0.411875
      15.460000       0.249114       0.184038       0.405095
      15.470000       0.247983       0.182556       0.398043
      15.480000       0.247193       0.181233       0.390488
      15.490000       0.246915       0.180142       0.382260
      15.500000       0.247283       0.179327       0.373273
      15.510000       0.248390       0.178795       0.363537
      15.520000       0.250295       0.178531       0.353148
      15.530000       0.253032       0.178500       0.342263
      15.540000       0.256615       0.178663       0.331077
      15.550000       0.261036       0.178981       0.319804
      15.560000       0.266269       0.179419       0.308660
      15.570000       0.272263       0.179943       0.297851
      15.580000       0.278942       0.180522       0.287560
      15.590000       0.286196       0.181126       0.277934
      15.600000       0.293878       0.181719       0.269073
      15.610000       0.301786       0.182269       0.261031
      15.620000       0.309650       0.182739       0.253817
      15.630000       0.317126       0.183099       0.247413
      15.640000       0.323812       0.183330       0.241778
      15.650000       0.329281       0.183425       0.236868
      15.660000       0.333153       0.183393       0.232636
      15.670000       0.335170       0.183260       0.229040
      15.680000       0.335264       0.183061       0.226041
      15.690000       0.333566       0.182836       0.223600
      15.700000       0.330373       0.182622       0.221672
      15.710000       0.326068       0.182448       0.220198
      15.720000       0.321032       0.182324       0.219103
      15.730000       0.315584       0.182238       0.218291
      15.740000       0.309955       0.182162       0.217651
      15.750000       0.304291       0.182049       0.217069
      15.760000       0.298673       0.181843       0.216438
      15.770000       0.293137       0.181490       0.215673
      15.780000       0.287694       0.180942       0.214715
      15.790000       0.282334       0.180167       0.213533
      15.800000       0.277039       0.179148       0.212124
      15.810000       0.271783       0.177894       0.210507
      15.820000       0.266549       0.176431       0.208720
      15.830000       0.261340       0.174803       0.206809
      15.840000       0.256195       0.173065       0.204821
      15.850000       0.251189       0.171278       0.202795
      15.860000       0.246429       0.169501       0.200760
      15.870000       0.242028       0.167785       0.198733
      15.880000       0.238085       0.166167       0.196723
      15.890000       0.234665       0.164675       0.194730
      15.900000       0.231794       0.163325       0.192751
      15.910000       0.229455       0.162135       0.190782
      15.920000       0.227605       0.161125       0.188825
      15.930000       0.226187       0.160323       0.186894
      15.940000       0.225151       0.159758       0.185015
      15.950000       0.224464       0.159453       0.183229
      15.960000       0.224118       0.159413       0.181580
      15.970000       0.224124       0.159618       0.180116
      15.980000       0.224498       0.160016       0.178871
      15.990000       0.225244       0.160530       0.177860
      16.000000       0.226346       0.161071       0.177078
      16.010000       0.227762       0.161548       0.176495
      16.020000       0.229432       0.161888       0.176064
      16.030000       0.231286       0.162042       0.175734
      16.040000       0.233252       0.161991       0.175452
      16.050000       0.235263       0.161737       0.175177
      16.060000       0.237269       0.161300       0.174878
      16.070000       0.239237       0.160706       0.174531
      16.080000       0.241155       0.159981       0.174111
      16.090000       0.243024       0.159152       0.173587
      16.100000       0.244845       0.158243       0.172917
      16.110000       0.246604       0.157276       0.172058
      16.120000       0.248271       0.156274       0.170970
      16.130000       0.249797       0.155264       0.169631
      16.140000       0.251134       0.154275       0.168044
      16.150000       0.252247       0.153340       0.166239
      16.160000       0.253134       0.152490       0.164276
      16.170000       0.253824       0.151760       0.162225
      16.180000       0.254379       0.151177       0.160158
      16.190000       0.254871       0.150760       0.158133
      16.200000       0.255366       0.150513       0.156185
      16.210000       0.255902       0.150424       0.154330
      16.220000       0.256472       0.150467       0.152565
      16.230000       0.257029       0.150602       0.150884
      16.240000       0.257497       0.150789       0.149281
      16.250000       0.257796       0.150985       0.147765
      16.260000       0.257869       0.151152       0.146351
      16.270000       0.257695       0.151258       0.145061
      16.280000       0.257286       0.151281       0.143914
      16.290000       0.256682       0.151207       0.142917
      16.300000       0.255937       0.151034       0.142067
      16.310000       0.255105       0.150768       0.141345
      16.320000       0.254237       0.150427       0.140727
      16.330000       0.253380       0.150040       0.140188
      16.340000       0.252572       0.149645       0.139706
      16.350000       0.251841       0.149292       0.139265
      16.360000       0.251204       0.149033       0.138855
      16.370000       0.250673       0.148918       0.138469
      16.380000       0.250267       0.148985       0.138103
      16.390000       0.250016       0.149257       0.137753
      16.400000       0.249956       0.149734       0.137415
      16.410000       0.250113       0.150394       0.137085
      16.420000       0.250477       0.151194       0.136755
      16.430000       0.250983       0.152074       0.136410
      16.440000       0.251498       0.152967       0.136030
      16.450000       0.251829       0.153804       0.135587
      16.460000       0.251747       0.154526       0.135054
      16.470000       0.251018       0.155092       0.134407
      16.480000       0.249459       0.155475       0.133633
      16.490000       0.246970       0.155660       0.132734
      16.500000       0.243563       0.155642       0.131720
      16.510000       0.239344       0.155421       0.130615
      16.520000       0.234488       0.154996       0.129449
      16.530000       0.229197       0.154370       0.128260
      16.540000       0.223664       0.153560       0.127087
      16.550000       0.218057       0.152593       0.125969
      16.560000       0.212516       0.151517       0.124944
      16.570000       0.207146       0.150393       0.124045
      16.580000       0.202028       0.149286       0.123300
      16.590000       0.197210       0.148257       0.122728
      16.600000       0.192712       0.147348       0.122339
      16.610000       0.188523       0.146581       0.122132
      16.620000       0.184606       0.145957       0.122092
      16.630000       0.180912       0.145462       0.122194
      16.640000       0.177382       0.145072       0.122405
      16.650000       0.173965       0.144759       0.122689
      16.660000       0.170625       0.144500       0.123007
      16.670000       0.167349       0.144275       0.123324
      16.680000       0.164151       0.144072       0.123606
      16.690000       0.161067       0.143884       0.123822
      16.700000       0.158153       0.143705       0.123944
      16.710000       0.155469       0.143531       0.123949
      16.720000       0.153067       0.143362       0.123821
      16.730000       0.150984       0.143196       0.123552
      16.740000       0.149239       0.143037       0.123147
      16.750000       0.147828       0.142898       0.122620
      16.760000       0.146737       0.142791       0.121997
      16.770000       0.145942       0.142731       0.121311
      16.780000       0.145417       0.142723       0.120602
      16.790000       0.145134       0.142761       0.119911
      16.800000       0.145066       0.142819       0.119273
      16.810000       0.145184       0.142862       0.118716
      16.820000       0.145460       0.142845       0.118258
      16.830000       0.145872       0.142731       0.117906
      16.840000       0.146405       0.142495       0.117661
      16.850000       0.147055       0.142128       0.117517
      16.860000       0.147830       0.141641       0.117463
      16.870000       0.148751       0.141054       0.117484
      16.880000       0.149842       0.140396       0.117556
      16.890000       0.151131       0.139698       0.117648
      16.900000       0.152638       0.138989       0.117724
      16.910000       0.154361       0.138297       0.117745
      16.920000       0.156273       0.137644       0.117676
      16.930000       0.158312       0.137050       0.117496
      16.940000       0.160387       0.136528       0.117196
      16.950000       0.162386       0.136090       0.116783
      16.960000       0.164200       0.135743       0.116277
      16.970000       0.165748       0.135495       0.115703
      16.980000       0.166995       0.135356       0.115086
      16.990000       0.167971       0.135335       0.114450
      17.000000       0.168760       0.135445       0.113811
      17.010000       0.169485       0.135695       0.113182
      17.020000       0.170275       0.136085       0.112567
      17.030000       0.171241       0.136606       0.111975
      17.040000       0.172447       0.137234       0.111411
      17.050000       0.173900       0.137935       0.110881
      17.060000       0.175554       0.138665       0.110394
      17.070000       0.177320       0.139377       0.109959
      17.080000       0.179088       0.140030       0.109578
      17.090000       0.180754       0.140598       0.109251
      17.100000       0.182236       0.141076       0.108971
      17.110000       0.183489       0.141482       0.108723
      17.120000       0.184500       0.141846       0.108488
      17.130000       0.185281       0.142203       0.108249
      17.140000       0.185862       0.142575       0.107993
      17.150000       0.186271       0.142969       0.107714
      17.160000       0.186533       0.143369       0.107409
      17.170000       0.186665       0.143748       0.107080
      17.180000       0.186668       0.144075       0.106729
      17.190000       0.186538       0.144321       0.106361
      17.200000       0.186265       0.144468       0.105983
      17.210000       0.185842       0.144509       0.105608
      17.220000       0.185259       0.144448       0.105252
      17.230000       0.184498       0.144298       0.104928
      17.240000       0.183521       0.144080       0.104644
      17.250000       0.182261       0.143818       0.104397
      17.260000       0.180626       0.143542       0.104171
      17.270000       0.178512       0.143282       0.103937
      17.280000       0.175830       0.143063       0.103666
      17.290000       0.172533       0.142905       0.103331
      17.300000       0.168633       0.142811       0.102918
      17.310000       0.164210       0.142764       0.102431
      17.320000       0.159402       0.142727       0.101890
      17.330000       0.154382       0.142649       0.101324
      17.340000       0.149327       0.142471       0.100768
      17.350000       0.144400       0.142139       0.100250
      17.360000       0.139725       0.141614       0.099792
      17.370000       0.135391       0.140879       0.099408
      17.380000       0.131448       0.139945       0.099106
      17.390000       0.127920       0.138848       0.098889
      17.400000       0.124809       0.137647       0.098760
      17.410000       0.122105       0.136414       0.098718
      17.420000       0.119790       0.135223       0.098760
      17.430000       0.117846       0.134133       0.098882
      17.440000       0.116254       0.133183       0.099076
      17.450000       0.114999       0.132382       0.099334
      17.460000       0.114065       0.131715       0.099645
      17.470000       0.113443       0.131146       0.099999
      17.480000       0.113120       0.130632       0.100382
      17.490000       0.113083       0.130128       0.100781
      17.500000       0.113310       0.129606       0.101187
      17.510000       0.113766       0.129049       0.101599
      17.520000       0.114402       0.128464       0.102028
      17.530000       0.115151       0.127873       0.102492
      17.540000       0.115934       0.127308       0.103013
      17.550000       0.116672       0.126811       0.103614
      17.560000       0.117293       0.126424       0.104306
      17.570000       0.117747       0.126185       0.105092
      17.580000       0.118009       0.126121       0.105963
      17.590000       0.118080       0.126249       0.106903
      17.600000       0.117986       0.126572       0.107890
      17.610000       0.117763       0.127079       0.108904
      17.620000       0.117455       0.127745       0.109927
      17.630000       0.117101       0.128531       0.110950
      17.640000       0.116738       0.129384       0.111969
      17.650000       0.116400       0.130243       0.112992
      17.660000       0.116114       0.131044       0.114036
      17.670000       0.115905       0.131727       0.115127
      17.680000       0.115786       0.132246       0.116296
      17.690000       0.115759       0.132577       0.117575
      17.700000       0.115810       0.132725       0.118997
      17.710000       0.115914       0.132721       0.120585
      17.720000       0.116036       0.132607       0.122350
      17.730000       0.116139       0.132430       0.124285
      17.740000       0.116194       0.132225       0.126369
      17.750000       0.116184       0.132004       0.128567
      17.760000       0.116107       0.131764       0.130836
      17.770000       0.115979       0.131484       0.133128
      17.780000       0.115828       0.131143       0.135395
      17.790000       0.115688       0.130721       0.137587
      17.800000       0.115601       0.130212       0.139653
      17.810000       0.115610       0.129620       0.141554
      17.820000       0.115762       0.128962       0.143262
      17.830000       0.116102       0.128265       0.144780
      17.840000       0.116677       0.127556       0.146139
      17.850000       0.117528       0.126861       0.147398
      17.860000       0.118689       0.126200       0.148631
      17.870000       0.120181       0.125587       0.149906
      17.880000       0.122007       0.125022       0.151281
      17.890000       0.124143       0.124500       0.152788
      17.900000       0.126543       0.124002       0.154441
      17.910000       0.129130       0.123503       0.156239
      17.920000       0.131814       0.122978       0.158173
      17.930000       0.134497       0.122401       0.160233
      17.940000       0.137091       0.121763       0.162415
      17.950000       0.139533       0.121069       0.164723
      17.960000       0.141782       0.120338       0.167182
      17.970000       0.143824       0.119596       0.169836
      17.980000       0.145656       0.118866       0.172745
      17.990000       0.147279       0.118162       0.175971
      18.000000       0.148689       0.117483       0.179569
      18.010000       0.149872       0.116821       0.183572
      18.020000       0.150793       0.116159       0.187987
      18.030000       0.151400       0.115477       0.192800
      18.040000       0.151630       0.114756       0.197981
      18.050000       0.151424       0.113973       0.203491
      18.060000       0.150739       0.113106       0.209281
      18.070000       0.149573       0.112138       0.215298
      18.080000       0.147960       0.111058       0.221491
      18.090000       0.145969       0.109870       0.227814
      18.100000       0.143687       0.108594       0.234236
      18.110000       0.141202       0.107267       0.240739
      18.120000       0.138594       0.105942       0.247309
      18.130000       0.135933       0.104675       0.253912
      18.140000       0.133273       0.103525       0.260486
      18.150000       0.130659       0.102539       0.266924
      18.160000       0.128125       0.101749       0.273088
      18.170000       0.125690       0.101163       0.278828
      18.180000       0.123362       0.100764       0.284016
      18.190000       0.121139       0.100516       0.288579
      18.200000       0.119015       0.100365       0.292516
      18.210000       0.116982       0.100252       0.295904
      18.220000       0.115036       0.100121       0.298880
      18.230000       0.113169       0.099927       0.301605
      18.240000       0.111377       0.099640       0.304224
      18.250000       0.109653       0.099248       0.306827
      18.260000       0.107988       0.098749       0.309438
      18.270000       0.106376       0.098155       0.312011
      18.280000       0.104808       0.097484       0.314456
      18.290000       0.103285       0.096757       0.316660
      18.300000       0.101816       0.095998       0.318511
      18.310000       0.100419       0.095228       0.319916
      18.320000       0.099122       0.094465       0.320815
      18.330000       0.097957       0.093718       0.321193
      18.340000       0.096951       0.092995       0.321098
      18.350000       0.096130       0.092300       0.320643
      18.360000       0.095506       0.091640       0.319996
      18.370000       0.095084       0.091021       0.319357
      18.380000       0.094861       0.090455       0.318928
      18.390000       0.094824       0.089953       0.318871
      18.400000       0.094956       0.089530       0.319291
      18.410000       0.095237       0.089198       0.320210
      18.420000       0.095641       0.088971       0.321575
      18.430000       0.096142       0.088857       0.323268
      18.440000       0.096712       0.088860       0.325140
      18.450000       0.097327       0.088975       0.327046
      18.460000       0.097962       0.089191       0.328886
      18.470000       0.098598       0.089489       0.330625
      18.480000       0.099221       0.089842       0.332295
      18.490000       0.099820       0.090214       0.333974
      18.500000       0.100389       0.090567       0.335757
      18.510000       0.100923       0.090861       0.337713
      18.520000       0.101427       0.091061       0.339864
      18.530000       0.101909       0.091143       0.342166
      18.540000       0.102387       0.091094       0.344518
      18.550000       0.102879       0.090913       0.346777
      18.560000       0.103406       0.090608       0.348784
      18.570000       0.103979       0.090197       0.350387
      18.580000       0.104597       0.089706       0.351459
      18.590000       0.105249       0.089165       0.351913
      18.600000       0.105915       0.088613       0.351701
      18.610000       0.106574       0.088088       0.350820
      18.620000       0.107210       0.087629       0.349302
      18.630000       0.107821       0.087268       0.347206
      18.640000       0.108411       0.087031       0.344619
      18.650000       0.108989       0.086928       0.341653
      18.660000       0.109557       0.086960       0.338450
      18.670000       0.110107       0.087112       0.335173
      18.680000       0.110625       0.087360       0.331998
      18.690000       0.111095       0.087669       0.329096
      18.700000       0.111504       0.087999       0.326608
      18.710000       0.111853       0.088308       0.324637
      18.720000       0.112147       0.088550       0.323236
      18.730000       0.112398       0.088683       0.322406
      18.740000       0.112618       0.088668       0.322106
      18.750000       0.112811       0.088475       0.322258
      18.760000       0.112977       0.088085       0.322766
      18.770000       0.113108       0.087497       0.323527
      18.780000       0.113195       0.086719       0.324456
      18.790000       0.113225       0.085776       0.325489
      18.800000       0.113190       0.084697       0.326589
      18.810000       0.113085       0.083517       0.327740
      18.820000       0.112909       0.082273       0.328931
      18.830000       0.112668       0.081001       0.330151
      18.840000       0.112369       0.079736       0.331376
      18.850000       0.112019       0.078507       0.332559
      18.860000       0.111617       0.077340       0.333632
      18.870000       0.111160       0.076254       0.334508
      18.880000       0.110632       0.075261       0.335096
      18.890000       0.110018       0.074370       0.335312
      18.900000       0.109301       0.073587       0.335093
      18.910000       0.108477       0.072912       0.334407
      18.920000       0.107548       0.072347       0.333252
      18.930000       0.106532       0.071889       0.331662
      18.940000       0.105452       0.071537       0.329702
      18.950000       0.104337       0.071284       0.327450
      18.960000       0.103221       0.071126       0.324986
      18.970000       0.102137       0.071059       0.322372
      18.980000       0.101120       0.071082       0.319648
      18.990000       0.100199       0.071193       0.316838
      19.000000       0.099397       0.071391       0.313969
      19.010000       0.098723       0.071669       0.311092
      19.020000       0.098175       0.072016       0.308294
      19.030000       0.097742       0.072419       0.305695
      19.040000       0.097402       0.072858       0.303421
      19.050000       0.097123       0.073313       0.301578
      19.060000       0.096871       0.073765       0.300228
      19.070000       0.096611       0.074199       0.299374
      19.080000       0.096313       0.074604       0.298973
      19.090000       0.095962       0.074975       0.298952
      19.100000       0.095555       0.075312       0.299232
      19.110000       0.095101       0.075622       0.299747
      19.120000       0.094619       0.075917       0.300448
      19.130000       0.094129       0.076209       0.301297
      19.140000       0.093652       0.076504       0.302253
      19.150000       0.093203       0.076804       0.303259
      19.160000       0.092793       0.077100       0.304244
      19.170000       0.092426       0.077374       0.305129
      19.180000       0.092105       0.077601       0.305837
      19.190000       0.091827       0.077760       0.306301
      19.200000       0.091591       0.077838       0.306462
      19.210000       0.091394       0.077831       0.306270
      19.220000       0.091237       0.077749       0.305682
      19.230000       0.091121       0.077615       0.304665
      19.240000       0.091048       0.077455       0.303208
      19.250000       0.091025       0.077298       0.301328
      19.260000       0.091056       0.077171       0.299077
      19.270000       0.091148       0.077094       0.296542
      19.280000       0.091307       0.077086       0.293843
      19.290000       0.091534       0.077157       0.291123
      19.300000       0.091823       0.077313       0.288535
      19.310000       0.092161       0.077554       0.286236
      19.320000       0.092529       0.077876       0.284361
      19.330000       0.092907       0.078265       0.283013
      19.340000       0.093273       0.078704       0.282239
      19.350000       0.093610       0.079172       0.282018
      19.360000       0.093902       0.079648       0.282267
      19.370000       0.094137       0.080112       0.282843
      19.380000       0.094303       0.080555       0.283572
      19.390000       0.094388       0.080976       0.284272
      19.400000       0.094382       0.081382       0.284780
      19.410000       0.094279       0.081782       0.284979
      19.420000       0.094083       0.082189       0.284803
      19.430000       0.093807       0.082608       0.284237
      19.440000       0.093470       0.083040       0.283307
      19.450000       0.093099       0.083481       0.282072
      19.460000       0.092718       0.083919       0.280610
      19.470000       0.092343       0.084344       0.279021
      19.480000       0.091984       0.084740       0.277412
      19.490000       0.091638       0.085094       0.275899
      19.500000       0.091292       0.085391       0.274596
      19.510000       0.090928       0.085617       0.273607
      19.520000       0.090526       0.085763       0.273014
      19.530000       0.090064       0.085822       0.272864
      19.540000       0.089531       0.085793       0.273161
      19.550000       0.088921       0.085681       0.273858
      19.560000       0.088241       0.085496       0.274859
      19.570000       0.087504       0.085252       0.276019
      19.580000       0.086728       0.084965       0.277157
      19.590000       0.085929       0.084651       0.278064
      19.600000       0.085123       0.084326       0.278529
      19.610000       0.084321       0.084002       0.278366
      19.620000       0.083534       0.083689       0.277449
      19.630000       0.082774       0.083392       0.275732
      19.640000       0.082047       0.083114       0.273266
      19.650000       0.081360       0.082855       0.270190
      19.660000       0.080716       0.082612       0.266708
      19.670000       0.080115       0.082383       0.263057
      19.680000       0.079557       0.082167       0.259481
      19.690000       0.079041       0.081961       0.256203
      19.700000       0.078568       0.081763       0.253409
      19.710000       0.078138       0.081567       0.251236
      19.720000       0.077752       0.081366       0.249762
      19.730000       0.077411       0.081154       0.249006
      19.740000       0.077118       0.080924       0.248922
      19.750000       0.076869       0.080673       0.249411
      19.760000       0.076662       0.080402       0.250328
      19.770000       0.076492       0.080115       0.251504
      19.780000       0.076350       0.079818       0.252763
      19.790000       0.076226       0.079517       0.253953
      19.800000       0.076110       0.079218       0.254964
      19.810000       0.075990       0.078924       0.255744
      19.820000       0.075851       0.078639       0.256299
      19.830000       0.075685       0.078365       0.256682
      19.840000       0.075482       0.078103       0.256978
      19.850000       0.075240       0.077857       0.257282
      19.860000       0.074962       0.077634       0.257687
      19.870000       0.074655       0.077438       0.258270
      19.880000       0.074329       0.077276       0.259088
      19.890000       0.073997       0.077149       0.260175
      19.900000       0.073667       0.077055       0.261541
      19.910000       0.073346       0.076987       0.263181
      19.920000       0.073038       0.076932       0.265076
      19.930000       0.072744       0.076877       0.267207
      19.940000       0.072461       0.076805       0.269552
      19.950000       0.072185       0.076697       0.272091
      19.960000       0.071906       0.076532       0.274801
      19.970000       0.071613       0.076288       0.277652
      19.980000       0.071296       0.075944       0.280609
      19.990000       0.070943       0.075483       0.283639
      20.000000       0.070552       0.074900       0.286708
