  # energy grid [eV]     epsr_x  epsr_y  epsr_z
       0.000000            NaN            NaN            NaN
       0.010000 -148438.648327 -187541.768467       2.030702
       0.020000  -37099.806109  -46882.687053       2.030838
       0.030000  -16481.487873  -20834.708830       2.031062
       0.040000   -9265.059745  -11717.916236       2.031371
       0.050000   -5924.865969   -7498.143426       2.031760
       0.060000   -4110.419988   -5205.920907       2.032220
       0.070000   -3016.345558   -3823.782761       2.032743
       0.080000   -2306.227596   -2926.721673       2.033316
       0.090000   -1819.350729   -2311.699267       2.033921
       0.100000   -1471.067544   -1871.777072       2.034539
       0.110000   -1213.353680   -1546.284112       2.035150
       0.120000   -1017.316804   -1298.719728       2.035731
       0.130000    -864.729025   -1106.056127       2.036264
       0.140000    -743.629650    -953.183156       2.036739
       0.150000    -645.906561    -829.852740       2.037160
       0.160000    -565.900426    -728.915525       2.037545
       0.170000    -499.565700    -645.260921       2.037928
       0.180000    -443.948312    -575.157236       2.038349
       0.190000    -396.850457    -515.828174       2.038840
       0.200000    -356.609632    -465.173665       2.039418
       0.210000    -321.949504    -421.581426       2.040066
       0.220000    -291.877111    -383.797061       2.040735
       0.230000    -265.610666    -350.832795       2.041339
       0.240000    -242.527985    -321.902253       2.041761
       0.250000    -222.129089    -296.373118       2.041856
       0.260000    -204.008719    -273.732285       2.041456
       0.270000    -187.835897    -253.559871       2.040388
       0.280000    -173.338578    -235.509609       2.038487
       0.290000    -160.292042    -219.293882       2.035619
       0.300000    -148.510060    -204.672197       2.031718
       0.310000    -137.838178    -191.442211       2.026804
       0.320000    -128.148614    -179.432698       2.020995
       0.330000    -119.336413    -168.497972       2.014499
       0.340000    -111.316565    -158.513453       2.007572
       0.350000    -104.021801    -149.372098       2.000471
       0.360000     -97.400802    -140.981525       1.993406
       0.370000     -91.416431    -133.261659       1.986506
       0.380000     -86.043564    -126.142825       1.979818
       0.390000     -81.266004    -119.564162       1.973318
       0.400000     -77.072058    -113.472319       1.966944
       0.410000     -73.448697    -107.820374       1.960631
       0.420000     -70.374845    -102.566919       1.954355
       0.430000     -67.815021     -97.675306       1.948165
       0.440000     -65.714984     -93.113004       1.942192
       0.450000     -64.000716     -88.851054       1.936630
       0.460000     -62.581453     -84.863609       1.931690
       0.470000     -61.356735     -81.127544       1.927551
       0.480000     -60.226681     -77.622116       1.924310
       0.490000     -59.103528     -74.328675       1.921971
       0.500000     -57.921325     -71.230418       1.920445
       0.510000     -56.640838     -68.312172       1.919580
       0.520000     -55.248565     -65.560208       1.919186
       0.530000     -53.751205     -62.962081       1.919067
       0.540000     -52.168201     -60.506484       1.919039
       0.550000     -50.524776     -58.183130       1.918948
       0.560000     -48.846765     -55.982641       1.918677
       0.570000     -47.157495     -53.896453       1.918157
       0.580000     -45.476345     -51.916734       1.917368
       0.590000     -43.818424     -50.036309       1.916336
       0.600000     -42.194877     -48.248595       1.915134
       0.610000     -40.613467     -46.547543       1.913857
       0.620000     -39.079232     -44.927588       1.912612
       0.630000     -37.595086     -43.383601       1.911497
       0.640000     -36.162348     -41.910850       1.910587
       0.650000     -34.781163     -40.504964       1.909932
       0.660000     -33.450834     -39.161899       1.909548
       0.670000     -32.170079     -37.877910       1.909428
       0.680000     -30.937227     -36.649523       1.909536
       0.690000     -29.750358     -35.473515       1.909818
       0.700000     -28.607412     -34.346888       1.910205
       0.710000     -27.506270     -33.266856       1.910625
       0.720000     -26.444814     -32.230820       1.911013
       0.730000     -25.420969     -31.236362       1.911325
       0.740000     -24.432738     -30.281222       1.911552
       0.750000     -23.478234     -29.363292       1.911719
       0.760000     -22.555696     -28.480599       1.911880
       0.770000     -21.663509     -27.631302       1.912104
       0.780000     -20.800217     -26.813675       1.912449
       0.790000     -19.964526     -26.026107       1.912949
       0.800000     -19.155316     -25.267087       1.913600
       0.810000     -18.371655     -24.535207       1.914368
       0.820000     -17.612831     -23.829150       1.915195
       0.830000     -16.878440     -23.147692       1.916016
       0.840000     -16.168517     -22.489697       1.916771
       0.850000     -15.483724     -21.854117       1.917421
       0.860000     -14.825566     -21.239994       1.917945
       0.870000     -14.196596     -20.646460       1.918338
       0.880000     -13.600562     -20.072739       1.918600
       0.890000     -13.042441     -19.518147       1.918727
       0.900000     -12.528314     -18.982088       1.918713
       0.910000     -12.064962     -18.464046       1.918547
       0.920000     -11.659133     -17.963556       1.918226
       0.930000     -11.316444     -17.480174       1.917754
       0.940000     -11.040058     -17.013421       1.917140
       0.950000     -10.829486     -16.562736       1.916392
       0.960000     -10.679959     -16.127425       1.915506
       0.970000     -10.582751     -15.706644       1.914474
       0.980000     -10.526462     -15.299418       1.913296
       0.990000     -10.498875     -14.904691       1.911997
       1.000000     -10.488809     -14.521406       1.910643
       1.010000     -10.487442     -14.148577       1.909343
       1.020000     -10.488769     -13.785352       1.908227
       1.030000     -10.489247     -13.431023       1.907417
       1.040000     -10.487012     -13.085014       1.907002
       1.050000     -10.481231     -12.746861       1.907019
       1.060000     -10.471966     -12.416189       1.907454
       1.070000     -10.460366     -12.092725       1.908247
       1.080000     -10.448691     -11.776298       1.909312
       1.090000     -10.439806     -11.466843       1.910545
       1.100000     -10.436343     -11.164384       1.911839
       1.110000     -10.440076     -10.869029       1.913092
       1.120000     -10.451954     -10.580973       1.914212
       1.130000     -10.472656     -10.300508       1.915129
       1.140000     -10.503091     -10.028040       1.915805
       1.150000     -10.544334      -9.764065       1.916242
       1.160000     -10.597031      -9.509116       1.916487
       1.170000     -10.660750      -9.263657       1.916628
       1.180000     -10.733777      -9.027940       1.916777
       1.190000     -10.813331      -8.801859       1.917044
       1.200000     -10.895843      -8.584841       1.917516
       1.210000     -10.976982      -8.375851       1.918239
       1.220000     -11.051550      -8.173558       1.919217
       1.230000     -11.113588      -7.976644       1.920413
       1.240000     -11.156895      -7.784149       1.921762
       1.250000     -11.175763      -7.595716       1.923179
       1.260000     -11.165603      -7.411642       1.924567
       1.270000     -11.123326      -7.232708       1.925825
       1.280000     -11.047526      -7.059860       1.926854
       1.290000     -10.938539      -6.893814       1.927563
       1.300000     -10.798357      -6.734715       1.927883
       1.310000     -10.630345      -6.581965       1.927779
       1.320000     -10.438796      -6.434303       1.927268
       1.330000     -10.228418      -6.290145       1.926418
       1.340000     -10.003875      -6.148068       1.925350
       1.350000      -9.769450      -6.007221       1.924216
       1.360000      -9.528844      -5.867510       1.923165
       1.370000      -9.285106      -5.729481       1.922318
       1.380000      -9.040648      -5.593985       1.921746
       1.390000      -8.797306      -5.461764       1.921466
       1.400000      -8.556433      -5.333126       1.921452
       1.410000      -8.318988      -5.207841       1.921652
       1.420000      -8.085621      -5.085307       1.922003
       1.430000      -7.856747      -4.964923       1.922445
       1.440000      -7.632604      -4.846482       1.922921
       1.450000      -7.413302      -4.730410       1.923382
       1.460000      -7.198861      -4.617725       1.923785
       1.470000      -6.989241      -4.509723       1.924096
       1.480000      -6.784365      -4.407510       1.924297
       1.490000      -6.584141      -4.311525       1.924395
       1.500000      -6.388478      -4.221244       1.924418
       1.510000      -6.197308      -4.135217       1.924416
       1.520000      -6.010593      -4.051456       1.924440
       1.530000      -5.828350      -3.968069       1.924543
       1.540000      -5.650661      -3.883850       1.924762
       1.550000      -5.477691      -3.798619       1.925124
       1.560000      -5.309686      -3.713207       1.925641
       1.570000      -5.146979      -3.629166       1.926313
       1.580000      -4.989964      -3.548383       1.927128
       1.590000      -4.839061      -3.472710       1.928060
       1.600000      -4.694669      -3.403692       1.929081
       1.610000      -4.557097      -3.342340       1.930166
       1.620000      -4.426521      -3.288899       1.931298
       1.630000      -4.302944      -3.242631       1.932467
       1.640000      -4.186202      -3.201717       1.933671
       1.650000      -4.075980      -3.163444       1.934900
       1.660000      -3.971872      -3.124686       1.936140
       1.670000      -3.873453      -3.082572       1.937364
       1.680000      -3.780356      -3.035093       1.938540
       1.690000      -3.692331      -2.981439       1.939644
       1.700000      -3.609252      -2.922005       1.940664
       1.710000      -3.531079      -2.858126       1.941607
       1.720000      -3.457806      -2.791665       1.942495
       1.730000      -3.389427      -2.724587       1.943355
       1.740000      -3.325925      -2.658602       1.944207
       1.750000      -3.267262      -2.594942       1.945056
       1.760000      -3.213367      -2.534307       1.945887
       1.770000      -3.164151      -2.476981       1.946673
       1.780000      -3.119585      -2.423056       1.947382
       1.790000      -3.079810      -2.372641       1.947985
       1.800000      -3.045212      -2.325943       1.948465
       1.810000      -3.016405      -2.283210       1.948817
       1.820000      -2.994120      -2.244576       1.949045
       1.830000      -2.979091      -2.209917       1.949157
       1.840000      -2.971982      -2.178744       1.949163
       1.850000      -2.973367      -2.150168       1.949078
       1.860000      -2.983715      -2.122944       1.948926
       1.870000      -3.003338      -2.095626       1.948745
       1.880000      -3.032282      -2.066872       1.948584
       1.890000      -3.070171      -2.035788       1.948501
       1.900000      -3.116009      -2.002210       1.948549
       1.910000      -3.167959      -1.966764       1.948764
       1.920000      -3.223210      -1.930692       1.949163
       1.930000      -3.278026      -1.895531       1.949738
       1.940000      -3.328065      -1.862794       1.950456
       1.950000      -3.368941      -1.833754       1.951271
       1.960000      -3.396908      -1.809344       1.952128
       1.970000      -3.409429      -1.790082       1.952982
       1.980000      -3.405452      -1.775961       1.953802
       1.990000      -3.385340      -1.766302       1.954585
       2.000000      -3.350540      -1.759688       1.955352
       2.010000      -3.303152      -1.754076       1.956146
       2.020000      -3.245530      -1.747132       1.957022
       2.030000      -3.179987      -1.736668       1.958028
       2.040000      -3.108625      -1.721039       1.959195
       2.050000      -3.033247      -1.699352       1.960520
       2.060000      -2.955354      -1.671468       1.961966
       2.070000      -2.876173      -1.637869       1.963465
       2.080000      -2.796704      -1.599470       1.964928
       2.090000      -2.717767      -1.557428       1.966259
       2.100000      -2.640031      -1.512995       1.967375
       2.110000      -2.564011      -1.467403       1.968215
       2.120000      -2.490057      -1.421798       1.968755
       2.130000      -2.418326      -1.377166       1.969014
       2.140000      -2.348781      -1.334246       1.969048
       2.150000      -2.281210      -1.293432       1.968938
       2.160000      -2.215293      -1.254716       1.968775
       2.170000      -2.150671      -1.217736       1.968635
       2.180000      -2.087013      -1.181932       1.968566
       2.190000      -2.024049      -1.146726       1.968581
       2.200000      -1.961571      -1.111638       1.968659
       2.210000      -1.899420      -1.076312       1.968754
       2.220000      -1.837482      -1.040444       1.968809
       2.230000      -1.775689      -1.003687       1.968775
       2.240000      -1.714026      -0.965562       1.968614
       2.250000      -1.652539      -0.925423       1.968311
       2.260000      -1.591331      -0.882538       1.967878
       2.270000      -1.530554      -0.836252       1.967350
       2.280000      -1.470395      -0.786225       1.966788
       2.290000      -1.411066      -0.732611       1.966268
       2.300000      -1.352795      -0.676123       1.965872
       2.310000      -1.295819      -0.617946       1.965673
       2.320000      -1.240372      -0.559564       1.965715
       2.330000      -1.186658      -0.502517       1.966001
       2.340000      -1.134822      -0.448186       1.966489
       2.350000      -1.084909      -0.397612       1.967098
       2.360000      -1.036826      -0.351397       1.967724
       2.370000      -0.990325      -0.309712       1.968267
       2.380000      -0.945021      -0.272397       1.968650
       2.390000      -0.900461      -0.239164       1.968836
       2.400000      -0.856214      -0.209850       1.968825
       2.410000      -0.811971      -0.184704       1.968647
       2.420000      -0.767606      -0.164625       1.968338
       2.430000      -0.723192      -0.151272       1.967924
       2.440000      -0.678978      -0.146959       1.967415
       2.450000      -0.635331      -0.154290       1.966807
       2.460000      -0.592673      -0.175546       1.966095
       2.470000      -0.551413      -0.211921       1.965287
       2.480000      -0.511891      -0.262805       1.964412
       2.490000      -0.474347      -0.325374       1.963523
       2.500000      -0.438925      -0.394760       1.962687
       2.510000      -0.405709      -0.464865       1.961969
       2.520000      -0.374780      -0.529584       1.961412
       2.530000      -0.346255      -0.583985       1.961031
       2.540000      -0.320283      -0.624999       1.960808
       2.550000      -0.297004      -0.651469       1.960706
       2.560000      -0.276493      -0.663699       1.960680
       2.570000      -0.258736      -0.662837       1.960693
       2.580000      -0.243635      -0.650359       1.960718
       2.590000      -0.231068      -0.627801       1.960748
       2.600000      -0.220928      -0.596694       1.960789
       2.610000      -0.213138      -0.558592       1.960855
       2.620000      -0.207618      -0.515096       1.960960
       2.630000      -0.204214      -0.467819       1.961114
       2.640000      -0.202611      -0.418298       1.961329
       2.650000      -0.202270      -0.367879       1.961620
       2.660000      -0.202383      -0.317607       1.962007
       2.670000      -0.201896      -0.268144       1.962516
       2.680000      -0.199616      -0.219736       1.963168
       2.690000      -0.194387      -0.172264       1.963982
       2.700000      -0.185289      -0.125365       1.964960
       2.710000      -0.171798      -0.078584       1.966093
       2.720000      -0.153841      -0.031544       1.967348
       2.730000      -0.131746       0.015932       1.968666
       2.740000      -0.106123       0.063755       1.969960
       2.750000      -0.077723       0.111578       1.971122
       2.760000      -0.047300       0.158872       1.972037
       2.770000      -0.015516       0.205047       1.972590
       2.780000       0.017129       0.249602       1.972688
       2.790000       0.050317       0.292243       1.972265
       2.800000       0.083905       0.332957       1.971290
       2.810000       0.117878       0.371987       1.969779
       2.820000       0.152287       0.409728       1.967802
       2.830000       0.187185       0.446559       1.965484
       2.840000       0.222588       0.482706       1.962998
       2.850000       0.258447       0.518177       1.960545
       2.860000       0.294655       0.552798       1.958321
       2.870000       0.331064       0.586313       1.956484
       2.880000       0.367499       0.618501       1.955128
       2.890000       0.403777       0.649254       1.954275
       2.900000       0.439721       0.678619       1.953882
       2.910000       0.475168       0.706804       1.953860
       2.920000       0.509982       0.734199       1.954106
       2.930000       0.544070       0.761387       1.954524
       2.940000       0.577399       0.789117       1.955047
       2.950000       0.610013       0.818222       1.955647
       2.960000       0.642032       0.849496       1.956327
       2.970000       0.673643       0.883557       1.957113
       2.980000       0.705072       0.920763       1.958035
       2.990000       0.736549       0.961199       1.959098
       3.000000       0.768278       1.004714       1.960280
       3.010000       0.800422       1.050999       1.961522
       3.020000       0.833102       1.099648       1.962744
       3.030000       0.866399       1.150196       1.963859
       3.040000       0.900359       1.202116       1.964793
       3.050000       0.934991       1.254808       1.965490
       3.060000       0.970269       1.307583       1.965921
       3.070000       1.006136       1.359673       1.966080
       3.080000       1.042510       1.410249       1.965971
       3.090000       1.079294       1.458454       1.965605
       3.100000       1.116383       1.503428       1.964989
       3.110000       1.153672       1.544331       1.964133
       3.120000       1.191060       1.580352       1.963060
       3.130000       1.228454       1.610735       1.961819
       3.140000       1.265777       1.634806       1.960497
       3.150000       1.302968       1.652016       1.959219
       3.160000       1.339992       1.661967       1.958132
       3.170000       1.376838       1.664426       1.957384
       3.180000       1.413511       1.659326       1.957094
       3.190000       1.450013       1.646800       1.957331
       3.200000       1.486315       1.627243       1.958098
       3.210000       1.522322       1.601423       1.959336
       3.220000       1.557844       1.570574       1.960932
       3.230000       1.592585       1.536423       1.962745
       3.240000       1.626136       1.501081       1.964625
       3.250000       1.658007       1.466790       1.966439
       3.260000       1.687669       1.435600       1.968096
       3.270000       1.714634       1.409070       1.969556
       3.280000       1.738542       1.388110       1.970841
       3.290000       1.759227       1.372999       1.972028
       3.300000       1.776733       1.363514       1.973226
       3.310000       1.791245       1.359130       1.974548
       3.320000       1.802960       1.359207       1.976082
       3.330000       1.811949       1.363142       1.977876
       3.340000       1.818087       1.370445       1.979932
       3.350000       1.821107       1.380738       1.982214
       3.360000       1.820757       1.393661       1.984662
       3.370000       1.816990       1.408737       1.987198
       3.380000       1.810086       1.425251       1.989733
       3.390000       1.800625       1.442222       1.992168
       3.400000       1.789336       1.458500       1.994388
       3.410000       1.776901       1.472964       1.996268
       3.420000       1.763840       1.484758       1.997678
       3.430000       1.750513       1.493453       1.998501
       3.440000       1.737190       1.499098       1.998647
       3.450000       1.724090       1.502159       1.998072
       3.460000       1.711330       1.503380       1.996792
       3.470000       1.698825       1.503624       1.994889
       3.480000       1.686249       1.503695       1.992501
       3.490000       1.673140       1.504171       1.989805
       3.500000       1.659125       1.505292       1.986995
       3.510000       1.644181       1.506973       1.984253
       3.520000       1.628778       1.508951       1.981739
       3.530000       1.613819       1.511027       1.979589
       3.540000       1.600400       1.513291       1.977918
       3.550000       1.589516       1.516243       1.976827
       3.560000       1.581867       1.520722       1.976395
       3.570000       1.577834       1.527684       1.976672
       3.580000       1.577603       1.537891       1.977665
       3.590000       1.581335       1.551663       1.979335
       3.600000       1.589271       1.568771       1.981601
       3.610000       1.601714       1.588497       1.984357
       3.620000       1.618874       1.609816       1.987486
       3.630000       1.640682       1.631646       1.990869
       3.640000       1.666663       1.653092       1.994394
       3.650000       1.695902       1.673626       1.997954
       3.660000       1.727119       1.693114       2.001456
       3.670000       1.758811       1.711672       2.004818
       3.680000       1.789416       1.729404       2.007981
       3.690000       1.817526       1.746135       2.010918
       3.700000       1.842105       1.761276       2.013641
       3.710000       1.862721       1.773860       2.016196
       3.720000       1.879711       1.782749       2.018656
       3.730000       1.894200       1.786930       2.021104
       3.740000       1.907910       1.785835       2.023607
       3.750000       1.922767       1.779609       2.026213
       3.760000       1.940453       1.769225       2.028944
       3.770000       1.962040       1.756414       2.031803
       3.780000       1.987825       1.743379       2.034783
       3.790000       2.017372       1.732382       2.037869
       3.800000       2.049688       1.725323       2.041038
       3.810000       2.083448       1.723432       2.044252
       3.820000       2.117227       1.727131       2.047461
       3.830000       2.149681       1.736078       2.050605
       3.840000       2.179689       1.749360       2.053617
       3.850000       2.206414       1.765788       2.056433
       3.860000       2.229311       1.784228       2.058991
       3.870000       2.248102       1.803877       2.061226
       3.880000       2.262752       1.824399       2.063071
       3.890000       2.273482       1.845884       2.064454
       3.900000       2.280768       1.868634       2.065310
       3.910000       2.285322       1.892884       2.065594
       3.920000       2.288001       1.918551       2.065293
       3.930000       2.289651       1.945076       2.064434
       3.940000       2.290913       1.971376       2.063086
       3.950000       2.292039       1.995879       2.061351
       3.960000       2.292772       2.016653       2.059351
       3.970000       2.292340       2.031584       2.057211
       3.980000       2.289564       2.038614       2.055041
       3.990000       2.283072       2.036014       2.052928
       4.000000       2.271598       2.022645       2.050925
       4.010000       2.254302       1.998175       2.049067
       4.020000       2.231028       1.963164       2.047378
       4.030000       2.202385       1.918979       2.045893
       4.040000       2.169628       1.867526       2.044666
       4.050000       2.134394       1.810901       2.043775
       4.060000       2.098391       1.751025       2.043307
       4.070000       2.063119       1.689384       2.043345
       4.080000       2.029654       1.626941       2.043948
       4.090000       1.998495       1.564234       2.045147
       4.100000       1.969521       1.501633       2.046940
       4.110000       1.942090       1.439644       2.049292
       4.120000       1.915238       1.379134       2.052143
       4.130000       1.887942       1.321412       2.055405
       4.140000       1.859310       1.268133       2.058968
       4.150000       1.828685       1.221114       2.062705
       4.160000       1.795667       1.182114       2.066478
       4.170000       1.760153       1.152598       2.070139
       4.180000       1.722448       1.133532       2.073542
       4.190000       1.683427       1.125250       2.076544
       4.200000       1.644622       1.127440       2.079016
       4.210000       1.608078       1.139254       2.080853
       4.220000       1.575936       1.159480       2.081986
       4.230000       1.549875       1.186714       2.082401
       4.240000       1.530615       1.219475       2.082140
       4.250000       1.517712       1.256268       2.081313
       4.260000       1.509706       1.295615       2.080086
       4.270000       1.504581       1.336081       2.078668
       4.280000       1.500341       1.376282       2.077281
       4.290000       1.495533       1.414871       2.076115
       4.300000       1.489542       1.450509       2.075297
       4.310000       1.482604       1.481876       2.074866
       4.320000       1.475587       1.507749       2.074774
       4.330000       1.469635       1.527132       2.074911
       4.340000       1.465818       1.539398       2.075131
       4.350000       1.464879       1.544347       2.075281
       4.360000       1.467120       1.542163       2.075226
       4.370000       1.472430       1.533313       2.074856
       4.380000       1.480405       1.518462       2.074091
       4.390000       1.490493       1.498460       2.072887
       4.400000       1.502103       1.474365       2.071241
       4.410000       1.514636       1.447436       2.069189
       4.420000       1.527441       1.419037       2.066810
       4.430000       1.539722       1.390446       2.064210
       4.440000       1.550454       1.362631       2.061512
       4.450000       1.558374       1.336087       2.058842
       4.460000       1.562087       1.310827       2.056315
       4.470000       1.560249       1.286516       2.054020
       4.480000       1.551786       1.262694       2.052011
       4.490000       1.536057       1.238983       2.050297
       4.500000       1.512919       1.215196       2.048839
       4.510000       1.482671       1.191348       2.047568
       4.520000       1.445931       1.167608       2.046394
       4.530000       1.403513       1.144247       2.045232
       4.540000       1.356353       1.121607       2.044024
       4.550000       1.305503       1.100084       2.042752
       4.560000       1.252171       1.080159       2.041434
       4.570000       1.197798       1.062434       2.040115
       4.580000       1.144098       1.047697       2.038845
       4.590000       1.093010       1.036925       2.037664
       4.600000       1.046540       1.031192       2.036603
       4.610000       1.006495       1.031450       2.035683
       4.620000       0.974216       1.038262       2.034932
       4.630000       0.950399       1.051607       2.034383
       4.640000       0.935083       1.070855       2.034076
       4.650000       0.927789       1.094905       2.034043
       4.660000       0.927751       1.122427       2.034309
       4.670000       0.934113       1.152107       2.034883
       4.680000       0.946018       1.182805       2.035765
       4.690000       0.962592       1.213621       2.036951
       4.700000       0.982884       1.243863       2.038426
       4.710000       1.005853       1.272965       2.040164
       4.720000       1.030441       1.300379       2.042115
       4.730000       1.055734       1.325471       2.044200
       4.740000       1.081146       1.347449       2.046318
       4.750000       1.106553       1.365321       2.048353
       4.760000       1.132284       1.377905       2.050194
       4.770000       1.158957       1.383872       2.051751
       4.780000       1.187185       1.381836       2.052975
       4.790000       1.217282       1.370519       2.053852
       4.800000       1.249087       1.348993       2.054407
       4.810000       1.281957       1.316958       2.054680
       4.820000       1.314900       1.274972       2.054717
       4.830000       1.346770       1.224535       2.054555
       4.840000       1.376457       1.167964       2.054222
       4.850000       1.403045       1.108119       2.053743
       4.860000       1.425927       1.048073       2.053147
       4.870000       1.444881       0.990800       2.052480
       4.880000       1.460079       0.938954       2.051815
       4.890000       1.472002       0.894702       2.051246
       4.900000       1.481283       0.859630       2.050889
       4.910000       1.488513       0.834676       2.050863
       4.920000       1.494064       0.820103       2.051276
       4.930000       1.498002       0.815491       2.052205
       4.940000       1.500079       0.819782       2.053683
       4.950000       1.499824       0.831370       2.055697
       4.960000       1.496704       0.848235       2.058197
       4.970000       1.490308       0.868103       2.061105
       4.980000       1.480483       0.888614       2.064342
       4.990000       1.467371       0.907506       2.067834
       5.000000       1.451334       0.922820       2.071526
       5.010000       1.432813       0.933109       2.075377
       5.020000       1.412217       0.937618       2.079360
       5.030000       1.389874       0.936379       2.083456
       5.040000       1.366089       0.930189       2.087648
       5.050000       1.341258       0.920474       2.091915
       5.060000       1.315979       0.909062       2.096235
       5.070000       1.291068       0.897894       2.100576
       5.080000       1.267456       0.888707       2.104897
       5.090000       1.245974       0.882748       2.109138
       5.100000       1.227140       0.880586       2.113231
       5.110000       1.211048       0.882103       2.117093
       5.120000       1.197413       0.886674       2.120640
       5.130000       1.185732       0.893479       2.123795
       5.140000       1.175476       0.901821       2.126494
       5.150000       1.166222       0.911330       2.128691
       5.160000       1.157689       0.921992       2.130359
       5.170000       1.149744       0.934041       2.131488
       5.180000       1.142392       0.947783       2.132084
       5.190000       1.135783       0.963439       2.132179
       5.200000       1.130203       0.981031       2.131834
       5.210000       1.126025       1.000329       2.131151
       5.220000       1.123624       1.020844       2.130274
       5.230000       1.123306       1.041902       2.129375
       5.240000       1.125283       1.062753       2.128630
       5.250000       1.129712       1.082715       2.128191
       5.260000       1.136755       1.101287       2.128163
       5.270000       1.146649       1.118214       2.128594
       5.280000       1.159737       1.133486       2.129481
       5.290000       1.176447       1.147292       2.130775
       5.300000       1.197188       1.159917       2.132412
       5.310000       1.222211       1.171626       2.134323
       5.320000       1.251472       1.182561       2.136459
       5.330000       1.284564       1.192692       2.138797
       5.340000       1.320751       1.201835       2.141339
       5.350000       1.359050       1.209722       2.144104
       5.360000       1.398341       1.216070       2.147115
       5.370000       1.437445       1.220659       2.150385
       5.380000       1.475194       1.223416       2.153915
       5.390000       1.510494       1.224487       2.157693
       5.400000       1.542384       1.224287       2.161707
       5.410000       1.570100       1.223460       2.165942
       5.420000       1.593112       1.222767       2.170383
       5.430000       1.611137       1.222938       2.175013
       5.440000       1.624147       1.224546       2.179802
       5.450000       1.632382       1.227942       2.184712
       5.460000       1.636376       1.233233       2.189695
       5.470000       1.636954       1.240298       2.194698
       5.480000       1.635171       1.248814       2.199670
       5.490000       1.632164       1.258316       2.204564
       5.500000       1.628938       1.268253       2.209332
       5.510000       1.626151       1.278045       2.213928
       5.520000       1.623985       1.287129       2.218303
       5.530000       1.622158       1.294993       2.222404
       5.540000       1.620055       1.301204       2.226183
       5.550000       1.616913       1.305430       2.229602
       5.560000       1.612001       1.307467       2.232634
       5.570000       1.604781       1.307265       2.235255
       5.580000       1.595031       1.304955       2.237437
       5.590000       1.582930       1.300842       2.239141
       5.600000       1.569073       1.295368       2.240322
       5.610000       1.554411       1.289042       2.240949
       5.620000       1.540094       1.282365       2.241028
       5.630000       1.527250       1.275768       2.240618
       5.640000       1.516763       1.269585       2.239831
       5.650000       1.509108       1.264078       2.238823
       5.660000       1.504318       1.259496       2.237766
       5.670000       1.502068       1.256106       2.236831
       5.680000       1.501825       1.254169       2.236162
       5.690000       1.502984       1.253809       2.235874
       5.700000       1.504970       1.254862       2.236045
       5.710000       1.507296       1.256777       2.236721
       5.720000       1.509627       1.258667       2.237929
       5.730000       1.511836       1.259515       2.239679
       5.740000       1.514046       1.258476       2.241971
       5.750000       1.516594       1.255154       2.244800
       5.760000       1.519941       1.249774       2.248145
       5.770000       1.524561       1.243176       2.251974
       5.780000       1.530873       1.236651       2.256232
       5.790000       1.539241       1.231684       2.260845
       5.800000       1.550023       1.229680       2.265727
       5.810000       1.563605       1.231743       2.270789
       5.820000       1.580402       1.238548       2.275940
       5.830000       1.600793       1.250281       2.281100
       5.840000       1.625022       1.266645       2.286198
       5.850000       1.653070       1.286889       2.291176
       5.860000       1.684548       1.309864       2.295997
       5.870000       1.718649       1.334114       2.300645
       5.880000       1.754187       1.358034       2.305127
       5.890000       1.789737       1.380072       2.309471
       5.900000       1.823830       1.398962       2.313718
       5.910000       1.855174       1.413924       2.317914
       5.920000       1.882846       1.424771       2.322101
       5.930000       1.906385       1.431877       2.326313
       5.940000       1.925794       1.435990       2.330563
       5.950000       1.941425       1.437947       2.334841
       5.960000       1.953841       1.438387       2.339106
       5.970000       1.963691       1.437582       2.343286
       5.980000       1.971643       1.435463       2.347296
       5.990000       1.978354       1.431821       2.351049
       6.000000       1.984402       1.426588       2.354476
       6.010000       1.990182       1.420056       2.357529
       6.020000       1.995784       1.412918       2.360177
       6.030000       2.000972       1.406137       2.362394
       6.040000       2.005285       1.400719       2.364156
       6.050000       2.008251       1.397496       2.365438
       6.060000       2.009609       1.397000       2.366224
       6.070000       2.009398       1.399429       2.366523
       6.080000       2.007874       1.404664       2.366379
       6.090000       2.005287       1.412303       2.365882
       6.100000       2.001653       1.421685       2.365163
       6.110000       1.996671       1.431946       2.364388
       6.120000       1.989818       1.442122       2.363728
       6.130000       1.980580       1.451315       2.363342
       6.140000       1.968661       1.458884       2.363355
       6.150000       1.954055       1.464571       2.363847
       6.160000       1.936960       1.468509       2.364848
       6.170000       1.917615       1.471115       2.366343
       6.180000       1.896206       1.472918       2.368285
       6.190000       1.872908       1.474421       2.370612
       6.200000       1.848016       1.476023       2.373261
       6.210000       1.822038       1.478011       2.376180
       6.220000       1.795648       1.480581       2.379338
       6.230000       1.769517       1.483863       2.382716
       6.240000       1.744127       1.487929       2.386308
       6.250000       1.719680       1.492777       2.390106
       6.260000       1.696129       1.498278       2.394099
       6.270000       1.673285       1.504132       2.398264
       6.280000       1.650925       1.509835       2.402572
       6.290000       1.628871       1.514725       2.406989
       6.300000       1.607043       1.518110       2.411480
       6.310000       1.585477       1.519456       2.416008
       6.320000       1.564292       1.518591       2.420527
       6.330000       1.543619       1.515835       2.424984
       6.340000       1.523563       1.512040       2.429317
       6.350000       1.504193       1.508480       2.433460
       6.360000       1.485530       1.506603       2.437359
       6.370000       1.467447       1.507694       2.440976
       6.380000       1.449489       1.512543       2.444298
       6.390000       1.430723       1.521246       2.447336
       6.400000       1.409727       1.533203       2.450127
       6.410000       1.384803       1.547313       2.452725
       6.420000       1.354352       1.562286       2.455197
       6.430000       1.317281       1.576945       2.457615
       6.440000       1.273319       1.590413       2.460045
       6.450000       1.223145       1.602123       2.462542
       6.460000       1.168287       1.611672       2.465147
       6.470000       1.110838       1.618629       2.467887
       6.480000       1.053055       1.622399       2.470775
       6.490000       0.996971       1.622195       2.473812
       6.500000       0.944103       1.617102       2.476987
       6.510000       0.895318       1.606175       2.480287
       6.520000       0.850849       1.588553       2.483697
       6.530000       0.810424       1.563607       2.487207
       6.540000       0.773485       1.531151       2.490811
       6.550000       0.739482       1.491676       2.494511
       6.560000       0.708161       1.446505       2.498323
       6.570000       0.679747       1.397742       2.502284
       6.580000       0.654922       1.347952       2.506456
       6.590000       0.634563       1.299640       2.510917
       6.600000       0.619352       1.254662       2.515747
       6.610000       0.609400       1.213751       2.521003
       6.620000       0.604044       1.176295       2.526707
       6.630000       0.601875       1.140438       2.532838
       6.640000       0.600927       1.103467       2.539338
       6.650000       0.598933       1.062366       2.546116
       6.660000       0.593512       1.014399       2.553064
       6.670000       0.582311       0.957577       2.560067
       6.680000       0.563128       0.890978       2.567014
       6.690000       0.534072       0.814892       2.573813
       6.700000       0.493784       0.730823       2.580402
       6.710000       0.441637       0.641349       2.586755
       6.720000       0.377882       0.549829       2.592881
       6.730000       0.303673       0.460013       2.598819
       6.740000       0.221025       0.375603       2.604629
       6.750000       0.132681       0.299843       2.610386
       6.760000       0.041916       0.235194       2.616178
       6.770000      -0.047782       0.183108       2.622107
       6.780000      -0.133119       0.143925       2.628276
       6.790000      -0.211408       0.116906       2.634785
       6.800000      -0.280875       0.100394       2.641717
       6.810000      -0.340771       0.092069       2.649123
       6.820000      -0.391280       0.089253       2.657015
       6.830000      -0.433272       0.089251       2.665372
       6.840000      -0.467979       0.089716       2.674143
       6.850000      -0.496662       0.088979       2.683265
       6.860000      -0.520337       0.086283       2.692672
       6.870000      -0.539586       0.081828       2.702300
       6.880000      -0.554489       0.076622       2.712088
       6.890000      -0.564672       0.072174       2.721979
       6.900000      -0.569482       0.070111       2.731922
       6.910000      -0.568235       0.071794       2.741893
       6.920000      -0.560479       0.078015       2.751902
       6.930000      -0.546200       0.088830       2.762010
       6.940000      -0.525904       0.103563       2.772318
       6.950000      -0.500570       0.120973       2.782951
       6.960000      -0.471501       0.139514       2.794016
       6.970000      -0.440119       0.157621       2.805572
       6.980000      -0.407778       0.173951       2.817598
       6.990000      -0.375630       0.187536       2.829991
       7.000000      -0.344573       0.197826       2.842567
       7.010000      -0.315286       0.204624       2.855098
       7.020000      -0.288306       0.207986       2.867344
       7.030000      -0.264122       0.208102       2.879103
       7.040000      -0.243236       0.205225       2.890242
       7.050000      -0.226207       0.199592       2.900727
       7.060000      -0.213674       0.191345       2.910632
       7.070000      -0.206340       0.180443       2.920116
       7.080000      -0.204876       0.166633       2.929394
       7.090000      -0.209734       0.149545       2.938685
       7.100000      -0.220917       0.128916       2.948169
       7.110000      -0.237808       0.104887       2.957948
       7.120000      -0.259175       0.078231       2.968031
       7.130000      -0.283372       0.050391       2.978329
       7.140000      -0.308662       0.023297       2.988679
       7.150000      -0.333502      -0.000984       2.998870
       7.160000      -0.356696      -0.020618       3.008698
       7.170000      -0.377377      -0.034272       3.018004
       7.180000      -0.394902      -0.041238       3.026703
       7.190000      -0.408760      -0.041441       3.034793
       7.200000      -0.418547      -0.035378       3.042328
       7.210000      -0.424027      -0.024023       3.049381
       7.220000      -0.425222      -0.008677       3.056006
       7.230000      -0.422473       0.009212       3.062208
       7.240000      -0.416424       0.028254       3.067937
       7.250000      -0.407914       0.047310       3.073104
       7.260000      -0.397821       0.065624       3.077607
       7.270000      -0.386898       0.082878       3.081364
       7.280000      -0.375648       0.099156       3.084323
       7.290000      -0.364267       0.114834       3.086448
       7.300000      -0.352658       0.130439       3.087707
       7.310000      -0.340503       0.146506       3.088075
       7.320000      -0.327377       0.163493       3.087545
       7.330000      -0.312862       0.181743       3.086163
       7.340000      -0.296644       0.201485       3.084043
       7.350000      -0.278591       0.222847       3.081364
       7.360000      -0.258775       0.245858       3.078334
       7.370000      -0.237465       0.270437       3.075153
       7.380000      -0.215078       0.296378       3.071953
       7.390000      -0.192111       0.323355       3.068762
       7.400000      -0.169076       0.350939       3.065474
       7.410000      -0.146449       0.378646       3.061859
       7.420000      -0.124633       0.405986       3.057589
       7.430000      -0.103940       0.432529       3.052310
       7.440000      -0.084595       0.457967       3.045706
       7.450000      -0.066775       0.482143       3.037566
       7.460000      -0.050678       0.505048       3.027805
       7.470000      -0.036596       0.526770       3.016448
       7.480000      -0.024949       0.547441       3.003595
       7.490000      -0.016252       0.567193       2.989378
       7.500000      -0.011011       0.586153       2.973948
       7.510000      -0.009584       0.604468       2.957473
       7.520000      -0.012050       0.622338       2.940145
       7.530000      -0.018128       0.640067       2.922195
       7.540000      -0.027163       0.658092       2.903898
       7.550000      -0.038177       0.676972       2.885580
       7.560000      -0.049979       0.697313       2.867605
       7.570000      -0.061308       0.719628       2.850344
       7.580000      -0.071002       0.744178       2.834124
       7.590000      -0.078139       0.770867       2.819186
       7.600000      -0.082133       0.799213       2.805675
       7.610000      -0.082757       0.828420       2.793648
       7.620000      -0.080107       0.857499       2.783108
       7.630000      -0.074519       0.885419       2.774037
       7.640000      -0.066474       0.911241       2.766432
       7.650000      -0.056516       0.934224       2.760341
       7.660000      -0.045188       0.953876       2.755891
       7.670000      -0.033004       0.969962       2.753305
       7.680000      -0.020430       0.982476       2.752874
       7.690000      -0.007874       0.991571       2.754914
       7.700000       0.004338       0.997491       2.759710
       7.710000       0.015980       1.000476       2.767481
       7.720000       0.026922       1.000677       2.778359
       7.730000       0.037114       0.998085       2.792396
       7.740000       0.046539       0.992495       2.809562
       7.750000       0.055168       0.983508       2.829734
       7.760000       0.062930       0.970581       2.852691
       7.770000       0.069719       0.953140       2.878113
       7.780000       0.075425       0.930746       2.905591
       7.790000       0.079982       0.903297       2.934656
       7.800000       0.083427       0.871180       2.964813
       7.810000       0.085939       0.835321       2.995567
       7.820000       0.087848       0.797071       3.026457
       7.830000       0.089602       0.757993       3.057068
       7.840000       0.091698       0.719641       3.087036
       7.850000       0.094605       0.683406       3.116040
       7.860000       0.098701       0.650436       3.143770
       7.870000       0.104220       0.621572       3.169883
       7.880000       0.111225       0.597240       3.193958
       7.890000       0.119592       0.577344       3.215479
       7.900000       0.129025       0.561209       3.233866
       7.910000       0.139106       0.547654       3.248559
       7.920000       0.149381       0.535210       3.259133
       7.930000       0.159466       0.522406       3.265420
       7.940000       0.169147       0.508035       3.267586
       7.950000       0.178447       0.491310       3.266145
       7.960000       0.187620       0.471909       3.261903
       7.970000       0.197076       0.449939       3.255834
       7.980000       0.207258       0.425858       3.248914
       7.990000       0.218533       0.400408       3.241966
       8.000000       0.231127       0.374531       3.235549
       8.010000       0.245125       0.349278       3.229935
       8.020000       0.260501       0.325700       3.225151
       8.030000       0.277152       0.304726       3.221082
       8.040000       0.294920       0.287036       3.217567
       8.050000       0.313591       0.272946       3.214457
       8.060000       0.332900       0.262339       3.211613
       8.070000       0.352541       0.254706       3.208878
       8.080000       0.372201       0.249317       3.206043
       8.090000       0.391590       0.245479       3.202853
       8.100000       0.410469       0.242787       3.199062
       8.110000       0.428656       0.241242       3.194507
       8.120000       0.446007       0.241210       3.189199
       8.130000       0.462386       0.243243       3.183383
       8.140000       0.477648       0.247879       3.177546
       8.150000       0.491649       0.255473       3.172367
       8.160000       0.504276       0.266117       3.168621
       8.170000       0.515473       0.279619       3.167057
       8.180000       0.525245       0.295514       3.168296
       8.190000       0.533638       0.313103       3.172753
       8.200000       0.540703       0.331484       3.180610
       8.210000       0.546488       0.349608       3.191827
       8.220000       0.551057       0.366356       3.206200
       8.230000       0.554541       0.380643       3.223436
       8.240000       0.557170       0.391534       3.243236
       8.250000       0.559281       0.398339       3.265350
       8.260000       0.561269       0.400675       3.289612
       8.270000       0.563523       0.398492       3.315922
       8.280000       0.566366       0.392052       3.344215
       8.290000       0.570023       0.381883       3.374424
       8.300000       0.574633       0.368717       3.406466
       8.310000       0.580273       0.353417       3.440242
       8.320000       0.586999       0.336916       3.475631
       8.330000       0.594862       0.320169       3.512481
       8.340000       0.603929       0.304116       3.550583
       8.350000       0.614264       0.289636       3.589639
       8.360000       0.625903       0.277472       3.629240
       8.370000       0.638809       0.268172       3.668863
       8.380000       0.652848       0.262051       3.707894
       8.390000       0.667783       0.259206       3.745662
       8.400000       0.683303       0.259582       3.781483
       8.410000       0.699074       0.263050       3.814706
       8.420000       0.714794       0.269478       3.844742
       8.430000       0.730241       0.278782       3.871083
       8.440000       0.745301       0.290931       3.893298
       8.450000       0.759964       0.305929       3.910995
       8.460000       0.774303       0.323756       3.923768
       8.470000       0.788446       0.344299       3.931117
       8.480000       0.802552       0.367268       3.932391
       8.490000       0.816815       0.392151       3.926768
       8.500000       0.831461       0.418214       3.913289
       8.510000       0.846735       0.444583       3.890960
       8.520000       0.862865       0.470380       3.858859
       8.530000       0.880002       0.494871       3.816237
       8.540000       0.898177       0.517575       3.762552
       8.550000       0.917283       0.538290       3.697455
       8.560000       0.937099       0.557015       3.620755
       8.570000       0.957342       0.573785       3.532432
       8.580000       0.977737       0.588494       3.432709
       8.590000       0.998080       0.600747       3.322183
       8.600000       1.018295       0.609825       3.201933
       8.610000       1.038448       0.614772       3.073571
       8.620000       1.058726       0.614601       2.939164
       8.630000       1.079364       0.608543       2.801058
       8.640000       1.100555       0.596250       2.661628
       8.650000       1.122375       0.577889       2.523053
       8.660000       1.144753       0.554093       2.387174
       8.670000       1.167489       0.525823       2.255482
       8.680000       1.190322       0.494229       2.129187
       8.690000       1.213004       0.460553       2.009304
       8.700000       1.235379       0.426124       1.896667
       8.710000       1.257429       0.392375       1.791899
       8.720000       1.279272       0.360835       1.695373
       8.730000       1.301108       0.333047       1.607242
       8.740000       1.323127       0.310389       1.527509
       8.750000       1.345379       0.293854       1.456116
       8.760000       1.367670       0.283858       1.392960
       8.770000       1.389500       0.280158       1.337834
       8.780000       1.410081       0.281917       1.290323
       8.790000       1.428412       0.287905       1.249748
       8.800000       1.443413       0.296769       1.215215
       8.810000       1.454064       0.307297       1.185767
       8.820000       1.459529       0.318580       1.160597
       8.830000       1.459228       0.330033       1.139207
       8.840000       1.452851       0.341273       1.121442
       8.850000       1.440302       0.351920       1.107403
       8.860000       1.421617       0.361455       1.097257
       8.870000       1.396892       0.369175       1.091038
       8.880000       1.366259       0.374305       1.088523
       8.890000       1.329921       0.376192       1.089204
       8.900000       1.288221       0.374487       1.092346
       8.910000       1.241723       0.369246       1.097082
       8.920000       1.191257       0.360902       1.102519
       8.930000       1.137880       0.350135       1.107849
       8.940000       1.082759       0.337737       1.112466
       8.950000       1.026968       0.324528       1.116078
       8.960000       0.971319       0.311347       1.118744
       8.970000       0.916281       0.299060       1.120815
       8.980000       0.862048       0.288507       1.122784
       8.990000       0.808721       0.280358       1.125119
       9.000000       0.756510       0.274932       1.128126
       9.010000       0.705844       0.272099       1.131879
       9.020000       0.657368       0.271299       1.136200
       9.030000       0.611825       0.271710       1.140668
       9.040000       0.569946       0.272466       1.144671
       9.050000       0.532394       0.272852       1.147487
       9.060000       0.499784       0.272402       1.148425
       9.070000       0.472708       0.270888       1.146999
       9.080000       0.451672       0.268212       1.143117
       9.090000       0.436951       0.264291       1.137218
       9.100000       0.428428       0.258982       1.130283
       9.110000       0.425517       0.252114       1.123679
       9.120000       0.427222       0.243619       1.118872
       9.130000       0.432295       0.233711       1.117098
       9.140000       0.439411       0.223043       1.119132
       9.150000       0.447314       0.212729       1.125224
       9.160000       0.454890       0.204218       1.135201
       9.170000       0.461214       0.199019       1.148672
       9.180000       0.465601       0.198401       1.165249
       9.190000       0.467660       0.203151       1.184699
       9.200000       0.467331       0.213481       1.206978
       9.210000       0.464863       0.229076       1.232183
       9.220000       0.460732       0.249209       1.260442
       9.230000       0.455541       0.272863       1.291839
       9.240000       0.449961       0.298818       1.326374
       9.250000       0.444728       0.325720       1.363964
       9.260000       0.440646       0.352137       1.404452
       9.270000       0.438539       0.376632       1.447595
       9.280000       0.439127       0.397831       1.493036
       9.290000       0.442867       0.414505       1.540275
       9.300000       0.449817       0.425641       1.588657
       9.310000       0.459596       0.430511       1.637392
       9.320000       0.471429       0.428750       1.685606
       9.330000       0.484261       0.420452       1.732403
       9.340000       0.496918       0.406250       1.776941
       9.350000       0.508271       0.387361       1.818512
       9.360000       0.517401       0.365552       1.856606
       9.370000       0.523739       0.342996       1.890949
       9.380000       0.527164       0.322035       1.921498
       9.390000       0.528036       0.304881       1.948357
       9.400000       0.527147       0.293336       1.971665
       9.410000       0.525565       0.288594       1.991462
       9.420000       0.524410       0.291175       2.007599
       9.430000       0.524611       0.300966       2.019712
       9.440000       0.526746       0.317355       2.027254
       9.450000       0.530995       0.339384       2.029567
       9.460000       0.537226       0.365922       2.025958
       9.470000       0.545146       0.395802       2.015772
       9.480000       0.554441       0.427922       1.998449
       9.490000       0.564850       0.461294       1.973578
       9.500000       0.576163       0.495059       1.940960
       9.510000       0.588158       0.528480       1.900682
       9.520000       0.600540       0.560946       1.853193
       9.530000       0.612897       0.591963       1.799347
       9.540000       0.624713       0.621150       1.740401
       9.550000       0.635419       0.648196       1.677939
       9.560000       0.644484       0.672807       1.613728
       9.570000       0.651528       0.694643       1.549540
       9.580000       0.656425       0.713265       1.486948
       9.590000       0.659361       0.728107       1.427152
       9.600000       0.660831       0.738484       1.370856
       9.610000       0.661568       0.743645       1.318244
       9.620000       0.662434       0.742878       1.269044
       9.630000       0.664281       0.735648       1.222660
       9.640000       0.667830       0.721739       1.178321
       9.650000       0.673566       0.701366       1.135205
       9.660000       0.681704       0.675206       1.092549
       9.670000       0.692199       0.644343       1.049729
       9.680000       0.704823       0.610146       1.006354
       9.690000       0.719251       0.574100       0.962321
       9.700000       0.735156       0.537657       0.917835
       9.710000       0.752278       0.502113       0.873384
       9.720000       0.770469       0.468514       0.829660
       9.730000       0.789681       0.437586       0.787465
       9.740000       0.809913       0.409706       0.747591
       9.750000       0.831137       0.384915       0.710705
       9.760000       0.853215       0.362993       0.677240
       9.770000       0.875866       0.343566       0.647335
       9.780000       0.898677       0.326188       0.620818
       9.790000       0.921147       0.310368       0.597241
       9.800000       0.942745       0.295523       0.575967
       9.810000       0.962937       0.280906       0.556278
       9.820000       0.981170       0.265561       0.537521
       9.830000       0.996832       0.248375       0.519244
       9.840000       1.009219       0.228239       0.501302
       9.850000       1.017539       0.204296       0.483890
       9.860000       1.020989       0.176186       0.467477
       9.870000       1.018899       0.144206       0.452648
       9.880000       1.010904       0.109294       0.439920
       9.890000       0.997109       0.072849       0.429596
       9.900000       0.978188       0.036442       0.421725
       9.910000       0.955369       0.001543       0.416150
       9.920000       0.930303      -0.030659       0.412619
       9.930000       0.904831      -0.059321       0.410886
       9.940000       0.880705      -0.083924       0.410786
       9.950000       0.859313      -0.104233       0.412244
       9.960000       0.841475      -0.120256       0.415249
       9.970000       0.827327      -0.132187       0.419781
       9.980000       0.816332      -0.140362       0.425721
       9.990000       0.807377      -0.145205       0.432772
      10.000000       0.798965      -0.147196       0.440440
      10.010000       0.789440      -0.146840       0.448089
      10.020000       0.777259      -0.144639       0.455076
      10.030000       0.761259      -0.141071       0.460921
      10.040000       0.740908      -0.136582       0.465446
      10.050000       0.716443      -0.131600       0.468833
      10.060000       0.688857      -0.126561       0.471558
      10.070000       0.659693      -0.121910       0.474225
      10.080000       0.630715      -0.118067       0.477372
      10.090000       0.603559      -0.115351       0.481311
      10.100000       0.579492      -0.113897       0.486067
      10.110000       0.559298      -0.113609       0.491420
      10.120000       0.543283      -0.114184       0.497026
      10.130000       0.531347      -0.115183       0.502574
      10.140000       0.523073      -0.116141       0.507950
      10.150000       0.517841      -0.116654       0.513356
      10.160000       0.514971      -0.116414       0.519356
      10.170000       0.513853      -0.115218       0.526820
      10.180000       0.514054      -0.112949       0.536784
      10.190000       0.515329      -0.109568       0.550238
      10.200000       0.517554      -0.105110       0.567925
      10.210000       0.520602      -0.099685       0.590162
      10.220000       0.524245      -0.093472       0.616758
      10.230000       0.528112      -0.086704       0.647029
      10.240000       0.531719      -0.079631       0.679905
      10.250000       0.534547      -0.072458       0.714101
      10.260000       0.536131      -0.065290       0.748309
      10.270000       0.536127      -0.058085       0.781363
      10.280000       0.534353      -0.050660       0.812355
      10.290000       0.530801      -0.042738       0.840704
      10.300000       0.525616      -0.034043       0.866170
      10.310000       0.519040      -0.024402       0.888839
      10.320000       0.511313      -0.013825       0.909062
      10.330000       0.502573      -0.002529       0.927376
      10.340000       0.492756       0.009094       0.944401
      10.350000       0.481548       0.020538       0.960737
      10.360000       0.468413       0.031263       0.976860
      10.370000       0.452708       0.040739       0.993051
      10.380000       0.433863       0.048473       1.009331
      10.390000       0.411584       0.054012       1.025432
      10.400000       0.385995       0.056950       1.040795
      10.410000       0.357658       0.056933       1.054601
      10.420000       0.327454       0.053689       1.065849
      10.430000       0.296369       0.047037       1.073463
      10.440000       0.265277       0.036902       1.076405
      10.450000       0.234813       0.023292       1.073773
      10.460000       0.205379       0.006273       1.064854
      10.470000       0.177251      -0.014065       1.049127
      10.480000       0.150733      -0.037611       1.026218
      10.490000       0.126258      -0.064176       0.995818
      10.500000       0.104399      -0.093394       0.957580
      10.510000       0.085772      -0.124633       0.911034
      10.520000       0.070914      -0.156969       0.855562
      10.530000       0.060170      -0.189267       0.790491
      10.540000       0.053666      -0.220351       0.715290
      10.550000       0.051325      -0.249188       0.629850
      10.560000       0.052914      -0.275019       0.534747
      10.570000       0.058057      -0.297419       0.431377
      10.580000       0.066216      -0.316268       0.321891
      10.590000       0.076666      -0.331685       0.208943
      10.600000       0.088508      -0.343936       0.095321
      10.610000       0.100747      -0.353346      -0.016413
      10.620000       0.112436      -0.360207      -0.124161
      10.630000       0.122855      -0.364702      -0.226375
      10.640000       0.131668      -0.366852      -0.321998
      10.650000       0.138996      -0.366517      -0.410333
      10.660000       0.145377      -0.363456      -0.490923
      10.670000       0.151601      -0.357435      -0.563496
      10.680000       0.158485      -0.348332      -0.627979
      10.690000       0.166652      -0.336207      -0.684528
      10.700000       0.176395      -0.321311      -0.733527
      10.710000       0.187655      -0.304054      -0.775522
      10.720000       0.200090      -0.284952      -0.811118
      10.730000       0.213182      -0.264570      -0.840893
      10.740000       0.226342      -0.243472      -0.865348
      10.750000       0.238986      -0.222183      -0.884910
      10.760000       0.250601      -0.201150      -0.899945
      10.770000       0.260787      -0.180721      -0.910767
      10.780000       0.269282      -0.161144      -0.917625
      10.790000       0.275945      -0.142591      -0.920678
      10.800000       0.280705      -0.125197      -0.919992
      10.810000       0.283480      -0.109105      -0.915566
      10.820000       0.284107      -0.094486      -0.907386
      10.830000       0.282318      -0.081528      -0.895509
      10.840000       0.277754      -0.070384      -0.880104
      10.850000       0.270017      -0.061112      -0.861484
      10.860000       0.258744      -0.053630      -0.840092
      10.870000       0.243696      -0.047719      -0.816479
      10.880000       0.224851      -0.043079      -0.791276
      10.890000       0.202502      -0.039400      -0.765144
      10.900000       0.177297      -0.036432      -0.738729
      10.910000       0.150198      -0.034012      -0.712624
      10.920000       0.122339      -0.032079      -0.687350
      10.930000       0.094828      -0.030664      -0.663357
      10.940000       0.068554      -0.029889      -0.641045
      10.950000       0.044067      -0.029946      -0.620775
      10.960000       0.021570      -0.031067      -0.602872
      10.970000       0.001025      -0.033458      -0.587609
      10.980000      -0.017683      -0.037226      -0.575193
      10.990000      -0.034590      -0.042316      -0.565747
      11.000000      -0.049584      -0.048481      -0.559303
      11.010000      -0.062403      -0.055286      -0.555779
      11.020000      -0.072708      -0.062140      -0.554934
      11.030000      -0.080162      -0.068347      -0.556339
      11.040000      -0.084517      -0.073181      -0.559369
      11.050000      -0.085686      -0.075978      -0.563267
      11.060000      -0.083806      -0.076240      -0.567264
      11.070000      -0.079259      -0.073710      -0.570716
      11.080000      -0.072652      -0.068419      -0.573222
      11.090000      -0.064732      -0.060655      -0.574674
      11.100000      -0.056265      -0.050893      -0.575253
      11.110000      -0.047900      -0.039693      -0.575375
      11.120000      -0.040066      -0.027613      -0.575605
      11.130000      -0.032920      -0.015156      -0.576567
      11.140000      -0.026350      -0.002757      -0.578842
      11.150000      -0.020032       0.009195      -0.582879
      11.160000      -0.013495       0.020315      -0.588900
      11.170000      -0.006205       0.030190      -0.596827
      11.180000       0.002343       0.038359      -0.606256
      11.190000       0.012538       0.044346      -0.616501
      11.200000       0.024589       0.047720      -0.626726
      11.210000       0.038490       0.048199      -0.636112
      11.220000       0.054040       0.045745      -0.644016
      11.230000       0.070891       0.040619      -0.650061
      11.240000       0.088626       0.033363      -0.654160
      11.250000       0.106822       0.024714      -0.656490
      11.260000       0.125109       0.015462      -0.657426
      11.270000       0.143197       0.006327      -0.657470
      11.280000       0.160875      -0.002119      -0.657155
      11.290000       0.177992      -0.009450      -0.656943
      11.300000       0.194431      -0.015353      -0.657125
      11.310000       0.210088      -0.019587      -0.657762
      11.320000       0.224869      -0.021964      -0.658667
      11.330000       0.238679      -0.022361      -0.659451
      11.340000       0.251416      -0.020714      -0.659602
      11.350000       0.262953      -0.017023      -0.658581
      11.360000       0.273111      -0.011341      -0.655894
      11.370000       0.281634      -0.003770      -0.651147
      11.380000       0.288177       0.005543      -0.644092
      11.390000       0.292312       0.016393      -0.634640
      11.400000       0.293535       0.028509      -0.622876
      11.410000       0.291309       0.041545      -0.609045
      11.420000       0.285117       0.055068      -0.593527
      11.430000       0.274543       0.068566      -0.576793
      11.440000       0.259365       0.081450      -0.559358
      11.450000       0.239629       0.093073      -0.541720
      11.460000       0.215697       0.102763      -0.524311
      11.470000       0.188258       0.109865      -0.507441
      11.480000       0.158291       0.113818      -0.491282
      11.490000       0.126969       0.114233      -0.475858
      11.500000       0.095528       0.110981      -0.461078
      11.510000       0.065116       0.104249      -0.446771
      11.520000       0.036667       0.094557      -0.432732
      11.530000       0.010828       0.082695      -0.418767
      11.540000      -0.012057       0.069609      -0.404744
      11.550000      -0.031914       0.056251      -0.390618
      11.560000      -0.048861       0.043451      -0.376447
      11.570000      -0.063122       0.031839      -0.362361
      11.580000      -0.074941       0.021828      -0.348516
      11.590000      -0.084521       0.013644      -0.335041
      11.600000      -0.091998       0.007343      -0.322012
      11.610000      -0.097441       0.002835      -0.309451
      11.620000      -0.100879      -0.000114      -0.297361
      11.630000      -0.102345      -0.001863      -0.285754
      11.640000      -0.101898      -0.002864      -0.274668
      11.650000      -0.099641      -0.003605      -0.264167
      11.660000      -0.095705      -0.004553      -0.254321
      11.670000      -0.090235      -0.006089      -0.245191
      11.680000      -0.083367      -0.008461      -0.236820
      11.690000      -0.075241      -0.011732      -0.229223
      11.700000      -0.066008      -0.015766      -0.222384
      11.710000      -0.055848      -0.020227      -0.216253
      11.720000      -0.044983      -0.024627      -0.210741
      11.730000      -0.033666      -0.028402      -0.205716
      11.740000      -0.022154      -0.031003      -0.201017
      11.750000      -0.010675      -0.031990      -0.196454
      11.760000       0.000618      -0.031095      -0.191825
      11.770000       0.011662      -0.028260      -0.186929
      11.780000       0.022486      -0.023624      -0.181580
      11.790000       0.033175      -0.017493      -0.175624
      11.800000       0.043839      -0.010279      -0.168948
      11.810000       0.054564      -0.002430      -0.161493
      11.820000       0.065382       0.005617      -0.153260
      11.830000       0.076246       0.013473      -0.144306
      11.840000       0.087027       0.020812      -0.134739
      11.850000       0.097523       0.027374      -0.124694
      11.860000       0.107492       0.032976      -0.114305
      11.870000       0.116701       0.037517      -0.103690
      11.880000       0.124967       0.040989      -0.092946
      11.890000       0.132196       0.043462      -0.082166
      11.900000       0.138406       0.045066      -0.071472
      11.910000       0.143725       0.045968      -0.061030
      11.920000       0.148380       0.046349      -0.051062
      11.930000       0.152668       0.046393      -0.041816
      11.940000       0.156905       0.046273      -0.033532
      11.950000       0.161378       0.046159      -0.026397
      11.960000       0.166298       0.046215      -0.020518
      11.970000       0.171767       0.046600      -0.015911
      11.980000       0.177777       0.047445      -0.012519
      11.990000       0.184225       0.048816      -0.010228
      12.000000       0.190953       0.050683      -0.008893
      12.010000       0.197777       0.052894      -0.008352
      12.020000       0.204508       0.055192      -0.008430
      12.030000       0.210957       0.057255      -0.008953
      12.040000       0.216918       0.058766      -0.009752
      12.050000       0.222164       0.059492      -0.010677
      12.060000       0.226445       0.059340      -0.011606
      12.070000       0.229511       0.058387      -0.012451
      12.080000       0.231159       0.056871      -0.013159
      12.090000       0.231279       0.055136      -0.013713
      12.100000       0.229894       0.053572      -0.014123
      12.110000       0.227154       0.052543      -0.014415
      12.120000       0.223297       0.052330      -0.014603
      12.130000       0.218558       0.053093      -0.014676
      12.140000       0.213080       0.054852      -0.014581
      12.150000       0.206839       0.057489      -0.014242
      12.160000       0.199626       0.060780      -0.013580
      12.170000       0.191080       0.064442      -0.012555
      12.180000       0.180752       0.068180      -0.011186
      12.190000       0.168200       0.071735      -0.009560
      12.200000       0.153081       0.074908      -0.007814
      12.210000       0.135251       0.077572      -0.006102
      12.220000       0.114842       0.079664      -0.004555
      12.230000       0.092315       0.081185      -0.003250
      12.240000       0.068448       0.082194      -0.002189
      12.250000       0.044242       0.082817      -0.001307
      12.260000       0.020789       0.083240      -0.000494
      12.270000      -0.000880       0.083698       0.000364
      12.280000      -0.019916       0.084451       0.001354
      12.290000      -0.035721       0.085738       0.002502
      12.300000      -0.047978       0.087743       0.003775
      12.310000      -0.056640       0.090569       0.005095
      12.320000      -0.061897       0.094233       0.006373
      12.330000      -0.064113       0.098685       0.007548
      12.340000      -0.063753       0.103845       0.008626
      12.350000      -0.061297       0.109624       0.009690
      12.360000      -0.057182       0.115949       0.010902
      12.370000      -0.051769       0.122756       0.012474
      12.380000      -0.045333       0.129989       0.014632
      12.390000      -0.038078       0.137584       0.017563
      12.400000      -0.030158       0.145459       0.021379
      12.410000      -0.021697       0.153518       0.026090
      12.420000      -0.012804       0.161653       0.031598
      12.430000      -0.003586       0.169762       0.037718
      12.440000       0.005846       0.177748       0.044198
      12.450000       0.015394       0.185533       0.050754
      12.460000       0.024978       0.193048       0.057098
      12.470000       0.034550       0.200246       0.062983
      12.480000       0.044099       0.207100       0.068233
      12.490000       0.053633       0.213615       0.072772
      12.500000       0.063164       0.219834       0.076632
      12.510000       0.072690       0.225837       0.079943
      12.520000       0.082178       0.231724       0.082899
      12.530000       0.091566       0.237600       0.085720
      12.540000       0.100767       0.243548       0.088615
      12.550000       0.109688       0.249616       0.091747
      12.560000       0.118245       0.255805       0.095228
      12.570000       0.126381       0.262084       0.099115
      12.580000       0.134073       0.268402       0.103415
      12.590000       0.141336       0.274711       0.108095
      12.600000       0.148215       0.280970       0.113085
      12.610000       0.154772       0.287140       0.118275
      12.620000       0.161073       0.293179       0.123531
      12.630000       0.167182       0.299028       0.128702
      12.640000       0.173159       0.304625       0.133647
      12.650000       0.179067       0.309908       0.138261
      12.660000       0.184977       0.314829       0.142497
      12.670000       0.190975       0.319353       0.146381
      12.680000       0.197143       0.323453       0.150003
      12.690000       0.203544       0.327106       0.153496
      12.700000       0.210190       0.330292       0.157002
      12.710000       0.217021       0.333010       0.160628
      12.720000       0.223895       0.335293       0.164433
      12.730000       0.230593       0.337208       0.168415
      12.740000       0.236823       0.338842       0.172529
      12.750000       0.242247       0.340266       0.176701
      12.760000       0.246498       0.341495       0.180846
      12.770000       0.249223       0.342473       0.184884
      12.780000       0.250132       0.343058       0.188744
      12.790000       0.249051       0.343042       0.192370
      12.800000       0.245980       0.342178       0.195728
      12.810000       0.241133       0.340217       0.198815
      12.820000       0.234942       0.336958       0.201668
      12.830000       0.228022       0.332299       0.204367
      12.840000       0.221065       0.326285       0.207019
      12.850000       0.214709       0.319129       0.209738
      12.860000       0.209429       0.311209       0.212622
      12.870000       0.205472       0.303023       0.215741
      12.880000       0.202875       0.295121       0.219137
      12.890000       0.201529       0.288030       0.222835
      12.900000       0.201264       0.282181       0.226859
      12.910000       0.201923       0.277855       0.231239
      12.920000       0.203404       0.275148       0.236014
      12.930000       0.205654       0.273977       0.241216
      12.940000       0.208647       0.274113       0.246863
      12.950000       0.212327       0.275240       0.252943
      12.960000       0.216574       0.277031       0.259418
      12.970000       0.221186       0.279220       0.266222
      12.980000       0.225894       0.281639       0.273278
      12.990000       0.230402       0.284234       0.280507
      13.000000       0.234437       0.287028       0.287838
      13.010000       0.237784       0.290068       0.295212
      13.020000       0.240308       0.293366       0.302577
      13.030000       0.241941       0.296851       0.309891
      13.040000       0.242673       0.300352       0.317110
      13.050000       0.242529       0.303613       0.324190
      13.060000       0.241571       0.306342       0.331086
      13.070000       0.239915       0.308270       0.337755
      13.080000       0.237742       0.309217       0.344153
      13.090000       0.235306       0.309139       0.350246
      13.100000       0.232907       0.308139       0.356008
      13.110000       0.230847       0.306446       0.361428
      13.120000       0.229373       0.304356       0.366521
      13.130000       0.228636       0.302173       0.371330
      13.140000       0.228672       0.300149       0.375921
      13.150000       0.229397       0.298452       0.380377
      13.160000       0.230628       0.297162       0.384781
      13.170000       0.232115       0.296292       0.389201
      13.180000       0.233585       0.295822       0.393677
      13.190000       0.234802       0.295744       0.398222
      13.200000       0.235614       0.296088       0.402828
      13.210000       0.235991       0.296926       0.407477
      13.220000       0.236019       0.298364       0.412156
      13.230000       0.235883       0.300508       0.416856
      13.240000       0.235812       0.303438       0.421579
      13.250000       0.236041       0.307181       0.426319
      13.260000       0.236763       0.311704       0.431064
      13.270000       0.238109       0.316904       0.435783
      13.280000       0.240136       0.322610       0.440436
      13.290000       0.242833       0.328594       0.444977
      13.300000       0.246127       0.334580       0.449371
      13.310000       0.249900       0.340280       0.453608
      13.320000       0.254018       0.345424       0.457713
      13.330000       0.258356       0.349804       0.461742
      13.340000       0.262821       0.353293       0.465783
      13.350000       0.267360       0.355846       0.469932
      13.360000       0.271938       0.357481       0.474280
      13.370000       0.276515       0.358243       0.478890
      13.380000       0.281021       0.358177       0.483786
      13.390000       0.285359       0.357319       0.488944
      13.400000       0.289414       0.355705       0.494300
      13.410000       0.293083       0.353388       0.499754
      13.420000       0.296287       0.350447       0.505188
      13.430000       0.298976       0.347000       0.510482
      13.440000       0.301121       0.343193       0.515530
      13.450000       0.302688       0.339199       0.520255
      13.460000       0.303632       0.335201       0.524623
      13.470000       0.303893       0.331376       0.528648
      13.480000       0.303417       0.327883       0.532392
      13.490000       0.302194       0.324850       0.535957
      13.500000       0.300286       0.322371       0.539474
      13.510000       0.297858       0.320506       0.543080
      13.520000       0.295182       0.319291       0.546889
      13.530000       0.292612       0.318748       0.550974
      13.540000       0.290532       0.318865       0.555348
      13.550000       0.289283       0.319574       0.559974
      13.560000       0.289097       0.320726       0.564776
      13.570000       0.290062       0.322085       0.569660
      13.580000       0.292118       0.323368       0.574539
      13.590000       0.295097       0.324310       0.579337
      13.600000       0.298770       0.324729       0.583996
      13.610000       0.302897       0.324569       0.588467
      13.620000       0.307272       0.323901       0.592698
      13.630000       0.311746       0.322882       0.596621
      13.640000       0.316231       0.321703       0.600145
      13.650000       0.320699       0.320541       0.603157
      13.660000       0.325155       0.319519       0.605526
      13.670000       0.329613       0.318697       0.607120
      13.680000       0.334073       0.318063       0.607823
      13.690000       0.338503       0.317538       0.607557
      13.700000       0.342838       0.316991       0.606297
      13.710000       0.346993       0.316261       0.604085
      13.720000       0.350873       0.315195       0.601031
      13.730000       0.354393       0.313678       0.597311
      13.740000       0.357475       0.311659       0.593139
      13.750000       0.360049       0.309153       0.588737
      13.760000       0.362051       0.306240       0.584303
      13.770000       0.363421       0.303054       0.579988
      13.780000       0.364112       0.299778       0.575892
      13.790000       0.364104       0.296625       0.572073
      13.800000       0.363415       0.293824       0.568564
      13.810000       0.362101       0.291586       0.565384
      13.820000       0.360258       0.290071       0.562546
      13.830000       0.358005       0.289346       0.560059
      13.840000       0.355473       0.289378       0.557923
      13.850000       0.352788       0.290043       0.556133
      13.860000       0.350050       0.291150       0.554685
      13.870000       0.347315       0.292488       0.553579
      13.880000       0.344595       0.293855       0.552818
      13.890000       0.341866       0.295085       0.552397
      13.900000       0.339103       0.296052       0.552298
      13.910000       0.336326       0.296662       0.552478
      13.920000       0.333633       0.296841       0.552874
      13.930000       0.331212       0.296525       0.553402
      13.940000       0.329311       0.295643       0.553968
      13.950000       0.328198       0.294108       0.554477
      13.960000       0.328102       0.291801       0.554829
      13.970000       0.329174       0.288575       0.554931
      13.980000       0.331473       0.284270       0.554697
      13.990000       0.334952       0.278746       0.554058
      14.000000       0.339474       0.271925       0.552971
      14.010000       0.344821       0.263837       0.551427
      14.020000       0.350720       0.254655       0.549445
      14.030000       0.356866       0.244709       0.547065
      14.040000       0.362950       0.234460       0.544337
      14.050000       0.368680       0.224448       0.541314
      14.060000       0.373797       0.215197       0.538050
      14.070000       0.378085       0.207135       0.534612
      14.080000       0.381358       0.200534       0.531093
      14.090000       0.383447       0.195499       0.527620
      14.100000       0.384174       0.191996       0.524361
      14.110000       0.383348       0.189914       0.521509
      14.120000       0.380783       0.189112       0.519253
      14.130000       0.376341       0.189457       0.517756
      14.140000       0.370001       0.190840       0.517128
      14.150000       0.361902       0.193163       0.517409
      14.160000       0.352368       0.196333       0.518575
      14.170000       0.341880       0.200243       0.520545
      14.180000       0.331001       0.204769       0.523202
      14.190000       0.320300       0.209757       0.526409
      14.200000       0.310267       0.215026       0.530029
      14.210000       0.301257       0.220369       0.533931
      14.220000       0.293473       0.225563       0.538000
      14.230000       0.286972       0.230386       0.542140
      14.240000       0.281714       0.234647       0.546286
      14.250000       0.277615       0.238206       0.550408
      14.260000       0.274602       0.240990       0.554517
      14.270000       0.272638       0.242995       0.558660
      14.280000       0.271714       0.244277       0.562908
      14.290000       0.271820       0.244929       0.567327
      14.300000       0.272902       0.245070       0.571960
      14.310000       0.274845       0.244821       0.576809
      14.320000       0.277467       0.244298       0.581838
      14.330000       0.280545       0.243600       0.586983
      14.340000       0.283843       0.242808       0.592171
      14.350000       0.287149       0.241993       0.597337
      14.360000       0.290302       0.241234       0.602431
      14.370000       0.293221       0.240624       0.607426
      14.380000       0.295912       0.240275       0.612312
      14.390000       0.298464       0.240302       0.617098
      14.400000       0.301017       0.240791       0.621802
      14.410000       0.303728       0.241777       0.626452
      14.420000       0.306730       0.243227       0.631076
      14.430000       0.310103       0.245043       0.635703
      14.440000       0.313872       0.247093       0.640357
      14.450000       0.318014       0.249249       0.645054
      14.460000       0.322470       0.251418       0.649805
      14.470000       0.327159       0.253551       0.654609
      14.480000       0.331984       0.255637       0.659461
      14.490000       0.336853       0.257687       0.664341
      14.500000       0.341687       0.259714       0.669217
      14.510000       0.346436       0.261722       0.674037
      14.520000       0.351083       0.263694       0.678733
      14.530000       0.355643       0.265587       0.683223
      14.540000       0.360149       0.267335       0.687428
      14.550000       0.364641       0.268861       0.691296
      14.560000       0.369153       0.270095       0.694812
      14.570000       0.373696       0.270987       0.698013
      14.580000       0.378251       0.271513       0.700979
      14.590000       0.382766       0.271659       0.703820
      14.600000       0.387158       0.271405       0.706646
      14.610000       0.391322       0.270697       0.709550
      14.620000       0.395139       0.269446       0.712587
      14.630000       0.398489       0.267538       0.715773
      14.640000       0.401272       0.264859       0.719088
      14.650000       0.403424       0.261335       0.722489
      14.660000       0.404941       0.256954       0.725934
      14.670000       0.405895       0.251800       0.729385
      14.680000       0.406436       0.246052       0.732822
      14.690000       0.406785       0.239986       0.736239
      14.700000       0.407189       0.233939       0.739640
      14.710000       0.407888       0.228270       0.743033
      14.720000       0.409075       0.223302       0.746433
      14.730000       0.410874       0.219274       0.749854
      14.740000       0.413331       0.216309       0.753318
      14.750000       0.416422       0.214412       0.756840
      14.760000       0.420055       0.213481       0.760427
      14.770000       0.424077       0.213344       0.764066
      14.780000       0.428294       0.213794       0.767727
      14.790000       0.432488       0.214615       0.771365
      14.800000       0.436439       0.215617       0.774933
      14.810000       0.439945       0.216645       0.778390
      14.820000       0.442830       0.217605       0.781708
      14.830000       0.444939       0.218458       0.784868
      14.840000       0.446133       0.219223       0.787849
      14.850000       0.446288       0.219961       0.790617
      14.860000       0.445307       0.220760       0.793118
      14.870000       0.443148       0.221713       0.795277
      14.880000       0.439868       0.222902       0.797012
      14.890000       0.435655       0.224391       0.798247
      14.900000       0.430841       0.226221       0.798928
      14.910000       0.425871       0.228413       0.799036
      14.920000       0.421237       0.230967       0.798585
      14.930000       0.417382       0.233871       0.797614
      14.940000       0.414627       0.237092       0.796179
      14.950000       0.413119       0.240581       0.794328
      14.960000       0.412836       0.244272       0.792087
      14.970000       0.413624       0.248080       0.789445
      14.980000       0.415255       0.251907       0.786353
      14.990000       0.417478       0.255652       0.782745
      15.000000       0.420068       0.259219       0.778561
      15.010000       0.422830       0.262532       0.773779
      15.020000       0.425598       0.265539       0.768432
      15.030000       0.428212       0.268221       0.762594
      15.040000       0.430499       0.270589       0.756355
      15.050000       0.432254       0.272679       0.749774
      15.060000       0.433260       0.274547       0.742840
      15.070000       0.433300       0.276256       0.735463
      15.080000       0.432198       0.277869       0.727486
      15.090000       0.429841       0.279439       0.718719
      15.100000       0.426213       0.281006       0.708978
      15.110000       0.421402       0.282592       0.698108
      15.120000       0.415613       0.284208       0.686006
      15.130000       0.409154       0.285854       0.672621
      15.140000       0.402413       0.287524       0.657968
      15.150000       0.395809       0.289208       0.642131
      15.160000       0.389728       0.290900       0.625265
      15.170000       0.384468       0.292597       0.607601
      15.180000       0.380202       0.294301       0.589430
      15.190000       0.376968       0.296014       0.571084
      15.200000       0.374687       0.297738       0.552901
      15.210000       0.373199       0.299469       0.535183
      15.220000       0.372314       0.301203       0.518174
      15.230000       0.371854       0.302938       0.502051
      15.240000       0.371690       0.304674       0.486939
      15.250000       0.371772       0.306420       0.472937
      15.260000       0.372126       0.308191       0.460124
      15.270000       0.372847       0.310002       0.448558
      15.280000       0.374052       0.311871       0.438264
      15.290000       0.375845       0.313809       0.429227
      15.300000       0.378276       0.315825       0.421394
      15.310000       0.381328       0.317920       0.414682
      15.320000       0.384927       0.320088       0.408992
      15.330000       0.388955       0.322315       0.404210
      15.340000       0.393272       0.324576       0.400217
      15.350000       0.397732       0.326841       0.396893
      15.360000       0.402187       0.329071       0.394128
      15.370000       0.406497       0.331226       0.391837
      15.380000       0.410539       0.333268       0.389960
      15.390000       0.414223       0.335172       0.388453
      15.400000       0.417512       0.336931       0.387264
      15.410000       0.420433       0.338568       0.386310
      15.420000       0.423094       0.340136       0.385459
      15.430000       0.425663       0.341715       0.384546
      15.440000       0.428340       0.343398       0.383398
      15.450000       0.431318       0.345269       0.381876
      15.460000       0.434738       0.347384       0.379913
      15.470000       0.438668       0.349758       0.377534
      15.480000       0.443098       0.352364       0.374862
      15.490000       0.447954       0.355143       0.372101
      15.500000       0.453123       0.358014       0.369503
      15.510000       0.458470       0.360896       0.367333
      15.520000       0.463852       0.363719       0.365827
      15.530000       0.469126       0.366429       0.365171
      15.540000       0.474145       0.368991       0.365493
      15.550000       0.478760       0.371383       0.366861
      15.560000       0.482814       0.373591       0.369284
      15.570000       0.486148       0.375607       0.372720
      15.580000       0.488599       0.377427       0.377076
      15.590000       0.490001       0.379048       0.382221
      15.600000       0.490183       0.380473       0.387998
      15.610000       0.488984       0.381710       0.394245
      15.620000       0.486267       0.382777       0.400808
      15.630000       0.481954       0.383703       0.407554
      15.640000       0.476065       0.384526       0.414374
      15.650000       0.468764       0.385289       0.421181
      15.660000       0.460374       0.386035       0.427905
      15.670000       0.451358       0.386799       0.434486
      15.680000       0.442251       0.387601       0.440866
      15.690000       0.433567       0.388445       0.446988
      15.700000       0.425707       0.389318       0.452791
      15.710000       0.418905       0.390188       0.458211
      15.720000       0.413234       0.391016       0.463189
      15.730000       0.408645       0.391755       0.467679
      15.740000       0.405018       0.392370       0.471662
      15.750000       0.402214       0.392836       0.475149
      15.760000       0.400101       0.393151       0.478183
      15.770000       0.398569       0.393332       0.480832
      15.780000       0.397533       0.393418       0.483182
      15.790000       0.396931       0.393463       0.485322
      15.800000       0.396724       0.393530       0.487341
      15.810000       0.396899       0.393684       0.489316
      15.820000       0.397472       0.393988       0.491306
      15.830000       0.398486       0.394490       0.493349
      15.840000       0.399991       0.395224       0.495463
      15.850000       0.402028       0.396206       0.497651
      15.860000       0.404608       0.397431       0.499903
      15.870000       0.407694       0.398881       0.502210
      15.880000       0.411211       0.400529       0.504559
      15.890000       0.415049       0.402346       0.506945
      15.900000       0.419093       0.404307       0.509366
      15.910000       0.423231       0.406392       0.511832
      15.920000       0.427381       0.408581       0.514359
      15.930000       0.431489       0.410851       0.516969
      15.940000       0.435533       0.413164       0.519680
      15.950000       0.439509       0.415465       0.522503
      15.960000       0.443419       0.417684       0.525428
      15.970000       0.447250       0.419744       0.528428
      15.980000       0.450968       0.421575       0.531455
      15.990000       0.454519       0.423129       0.534451
      16.000000       0.457839       0.424388       0.537352
      16.010000       0.460866       0.425369       0.540102
      16.020000       0.463555       0.426119       0.542658
      16.030000       0.465878       0.426703       0.544999
      16.040000       0.467830       0.427190       0.547122
      16.050000       0.469429       0.427643       0.549036
      16.060000       0.470705       0.428115       0.550755
      16.070000       0.471698       0.428640       0.552289
      16.080000       0.472442       0.429245       0.553645
      16.090000       0.472960       0.429946       0.554829
      16.100000       0.473255       0.430756       0.555856
      16.110000       0.473317       0.431686       0.556754
      16.120000       0.473140       0.432745       0.557573
      16.130000       0.472731       0.433939       0.558380
      16.140000       0.472125       0.435274       0.559253
      16.150000       0.471383       0.436744       0.560265
      16.160000       0.470579       0.438341       0.561471
      16.170000       0.469781       0.440043       0.562900
      16.180000       0.469034       0.441820       0.564552
      16.190000       0.468349       0.443631       0.566399
      16.200000       0.467693       0.445428       0.568404
      16.210000       0.467005       0.447164       0.570528
      16.220000       0.466210       0.448802       0.572742
      16.230000       0.465250       0.450313       0.575029
      16.240000       0.464101       0.451685       0.577389
      16.250000       0.462785       0.452918       0.579823
      16.260000       0.461360       0.454025       0.582330
      16.270000       0.459903       0.455030       0.584897
      16.280000       0.458489       0.455961       0.587500
      16.290000       0.457177       0.456854       0.590108
      16.300000       0.455999       0.457744       0.592685
      16.310000       0.454972       0.458667       0.595203
      16.320000       0.454094       0.459659       0.597643
      16.330000       0.453350       0.460749       0.599996
      16.340000       0.452716       0.461961       0.602264
      16.350000       0.452161       0.463301       0.604452
      16.360000       0.451654       0.464760       0.606565
      16.370000       0.451168       0.466311       0.608609
      16.380000       0.450681       0.467906       0.610585
      16.390000       0.450161       0.469487       0.612495
      16.400000       0.449555       0.470987       0.614338
      16.410000       0.448773       0.472342       0.616109
      16.420000       0.447694       0.473496       0.617803
      16.430000       0.446183       0.474413       0.619410
      16.440000       0.444120       0.475077       0.620929
      16.450000       0.441433       0.475494       0.622362
      16.460000       0.438129       0.475695       0.623727
      16.470000       0.434311       0.475718       0.625051
      16.480000       0.430174       0.475610       0.626370
      16.490000       0.425978       0.475414       0.627724
      16.500000       0.422000       0.475170       0.629151
      16.510000       0.418481       0.474915       0.630685
      16.520000       0.415597       0.474685       0.632350
      16.530000       0.413441       0.474521       0.634162
      16.540000       0.412038       0.474470       0.636129
      16.550000       0.411361       0.474576       0.638245
      16.560000       0.411354       0.474879       0.640497
      16.570000       0.411936       0.475400       0.642864
      16.580000       0.413017       0.476136       0.645315
      16.590000       0.414497       0.477061       0.647813
      16.600000       0.416275       0.478131       0.650317
      16.610000       0.418261       0.479294       0.652782
      16.620000       0.420381       0.480498       0.655168
      16.630000       0.422586       0.481703       0.657437
      16.640000       0.424857       0.482880       0.659565
      16.650000       0.427200       0.484013       0.661534
      16.660000       0.429646       0.485099       0.663339
      16.670000       0.432235       0.486139       0.664982
      16.680000       0.435014       0.487141       0.666471
      16.690000       0.438017       0.488110       0.667822
      16.700000       0.441257       0.489053       0.669056
      16.710000       0.444726       0.489974       0.670201
      16.720000       0.448389       0.490879       0.671290
      16.730000       0.452194       0.491774       0.672362
      16.740000       0.456083       0.492669       0.673456
      16.750000       0.459999       0.493565       0.674608
      16.760000       0.463894       0.494461       0.675851
      16.770000       0.467732       0.495343       0.677208
      16.780000       0.471482       0.496186       0.678690
      16.790000       0.475124       0.496962       0.680294
      16.800000       0.478642       0.497645       0.682005
      16.810000       0.482029       0.498221       0.683799
      16.820000       0.485283       0.498695       0.685647
      16.830000       0.488414       0.499091       0.687518
      16.840000       0.491435       0.499448       0.689384
      16.850000       0.494363       0.499809       0.691217
      16.860000       0.497212       0.500217       0.692992
      16.870000       0.499987       0.500704       0.694685
      16.880000       0.502681       0.501294       0.696277
      16.890000       0.505267       0.501999       0.697751
      16.900000       0.507701       0.502822       0.699105
      16.910000       0.509920       0.503758       0.700346
      16.920000       0.511855       0.504801       0.701499
      16.930000       0.513445       0.505939       0.702598
      16.940000       0.514649       0.507157       0.703682
      16.950000       0.515468       0.508441       0.704789
      16.960000       0.515954       0.509779       0.705949
      16.970000       0.516202       0.511160       0.707181
      16.980000       0.516341       0.512573       0.708492
      16.990000       0.516500       0.514004       0.709881
      17.000000       0.516784       0.515435       0.711341
      17.010000       0.517244       0.516838       0.712865
      17.020000       0.517870       0.518182       0.714445
      17.030000       0.518593       0.519431       0.716077
      17.040000       0.519304       0.520552       0.717756
      17.050000       0.519877       0.521520       0.719478
      17.060000       0.520200       0.522323       0.721237
      17.070000       0.520192       0.522965       0.723021
      17.080000       0.519823       0.523472       0.724818
      17.090000       0.519109       0.523880       0.726609
      17.100000       0.518101       0.524236       0.728379
      17.110000       0.516870       0.524576       0.730117
      17.120000       0.515488       0.524920       0.731817
      17.130000       0.514011       0.525267       0.733484
      17.140000       0.512477       0.525595       0.735127
      17.150000       0.510903       0.525874       0.736759
      17.160000       0.509289       0.526077       0.738392
      17.170000       0.507627       0.526189       0.740035
      17.180000       0.505902       0.526210       0.741698
      17.190000       0.504105       0.526157       0.743388
      17.200000       0.502230       0.526053       0.745114
      17.210000       0.500269       0.525930       0.746882
      17.220000       0.498213       0.525815       0.748689
      17.230000       0.496040       0.525735       0.750525
      17.240000       0.493725       0.525707       0.752373
      17.250000       0.491250       0.525745       0.754210
      17.260000       0.488627       0.525849       0.756017
      17.270000       0.485914       0.526014       0.757784
      17.280000       0.483221       0.526217       0.759518
      17.290000       0.480700       0.526427       0.761241
      17.300000       0.478529       0.526603       0.762987
      17.310000       0.476873       0.526702       0.764793
      17.320000       0.475866       0.526688       0.766692
      17.330000       0.475581       0.526546       0.768703
      17.340000       0.476028       0.526281       0.770831
      17.350000       0.477165       0.525925       0.773071
      17.360000       0.478910       0.525531       0.775408
      17.370000       0.481164       0.525166       0.777825
      17.380000       0.483823       0.524900       0.780306
      17.390000       0.486791       0.524795       0.782836
      17.400000       0.489984       0.524898       0.785401
      17.410000       0.493333       0.525227       0.787990
      17.420000       0.496780       0.525772       0.790590
      17.430000       0.500280       0.526494       0.793189
      17.440000       0.503796       0.527337       0.795779
      17.450000       0.507296       0.528241       0.798353
      17.460000       0.510749       0.529148       0.800905
      17.470000       0.514127       0.530022       0.803434
      17.480000       0.517396       0.530844       0.805941
      17.490000       0.520517       0.531621       0.808434
      17.500000       0.523449       0.532380       0.810927
      17.510000       0.526145       0.533154       0.813439
      17.520000       0.528564       0.533982       0.815988
      17.530000       0.530677       0.534894       0.818585
      17.540000       0.532475       0.535910       0.821232
      17.550000       0.533976       0.537036       0.823916
      17.560000       0.535222       0.538260       0.826619
      17.570000       0.536278       0.539558       0.829315
      17.580000       0.537219       0.540893       0.831985
      17.590000       0.538115       0.542219       0.834613
      17.600000       0.539029       0.543487       0.837195
      17.610000       0.540002       0.544645       0.839733
      17.620000       0.541061       0.545647       0.842240
      17.630000       0.542216       0.546451       0.844736
      17.640000       0.543467       0.547029       0.847243
      17.650000       0.544809       0.547367       0.849783
      17.660000       0.546225       0.547472       0.852378
      17.670000       0.547694       0.547375       0.855039
      17.680000       0.549185       0.547124       0.857771
      17.690000       0.550665       0.546785       0.860566
      17.700000       0.552103       0.546420       0.863402
      17.710000       0.553475       0.546082       0.866245
      17.720000       0.554772       0.545800       0.869051
      17.730000       0.556003       0.545578       0.871775
      17.740000       0.557191       0.545399       0.874373
      17.750000       0.558374       0.545234       0.876813
      17.760000       0.559590       0.545058       0.879073
      17.770000       0.560881       0.544859       0.881145
      17.780000       0.562276       0.544637       0.883031
      17.790000       0.563799       0.544410       0.884746
      17.800000       0.565461       0.544202       0.886322
      17.810000       0.567264       0.544039       0.887808
      17.820000       0.569202       0.543945       0.889271
      17.830000       0.571255       0.543932       0.890789
      17.840000       0.573396       0.544003       0.892435
      17.850000       0.575580       0.544150       0.894264
      17.860000       0.577750       0.544354       0.896302
      17.870000       0.579836       0.544593       0.898546
      17.880000       0.581757       0.544841       0.900967
      17.890000       0.583427       0.545074       0.903527
      17.900000       0.584768       0.545271       0.906189
      17.910000       0.585715       0.545423       0.908924
      17.920000       0.586231       0.545533       0.911715
      17.930000       0.586311       0.545617       0.914559
      17.940000       0.585981       0.545700       0.917465
      17.950000       0.585289       0.545812       0.920453
      17.960000       0.584290       0.545971       0.923544
      17.970000       0.583032       0.546183       0.926755
      17.980000       0.581551       0.546438       0.930081
      17.990000       0.579866       0.546716       0.933494
      18.000000       0.577983       0.546995       0.936938
      18.010000       0.575898       0.547256       0.940337
      18.020000       0.573608       0.547486       0.943612
      18.030000       0.571121       0.547681       0.946688
      18.040000       0.568469       0.547840       0.949498
      18.050000       0.565714       0.547971       0.951987
      18.060000       0.562951       0.548090       0.954112
      18.070000       0.560288       0.548222       0.955841
      18.080000       0.557831       0.548402       0.957158
      18.090000       0.555668       0.548671       0.958058
      18.100000       0.553851       0.549071       0.958541
      18.110000       0.552405       0.549637       0.958601
      18.120000       0.551327       0.550390       0.958208
      18.130000       0.550602       0.551330       0.957314
      18.140000       0.550202       0.552437       0.955863
      18.150000       0.550095       0.553668       0.953811
      18.160000       0.550240       0.554968       0.951156
      18.170000       0.550599       0.556270       0.947953
      18.180000       0.551133       0.557512       0.944320
      18.190000       0.551810       0.558639       0.940426
      18.200000       0.552609       0.559618       0.936457
      18.210000       0.553512       0.560437       0.932582
      18.220000       0.554509       0.561104       0.928911
      18.230000       0.555589       0.561649       0.925480
      18.240000       0.556745       0.562109       0.922245
      18.250000       0.557971       0.562523       0.919103
      18.260000       0.559264       0.562931       0.915934
      18.270000       0.560626       0.563364       0.912630
      18.280000       0.562064       0.563849       0.909126
      18.290000       0.563594       0.564403       0.905407
      18.300000       0.565229       0.565032       0.901512
      18.310000       0.566985       0.565738       0.897526
      18.320000       0.568867       0.566515       0.893573
      18.330000       0.570868       0.567357       0.889804
      18.340000       0.572971       0.568257       0.886381
      18.350000       0.575149       0.569213       0.883448
      18.360000       0.577369       0.570222       0.881099
      18.370000       0.579595       0.571286       0.879363
      18.380000       0.581795       0.572403       0.878187
      18.390000       0.583937       0.573569       0.877444
      18.400000       0.585995       0.574777       0.876959
      18.410000       0.587946       0.576017       0.876534
      18.420000       0.589775       0.577271       0.875988
      18.430000       0.591470       0.578519       0.875190
      18.440000       0.593029       0.579734       0.874078
      18.450000       0.594453       0.580890       0.872667
      18.460000       0.595749       0.581958       0.871031
      18.470000       0.596930       0.582915       0.869274
      18.480000       0.598009       0.583738       0.867484
      18.490000       0.599003       0.584415       0.865707
      18.500000       0.599926       0.584944       0.863923
      18.510000       0.600798       0.585336       0.862052
      18.520000       0.601636       0.585615       0.859976
      18.530000       0.602457       0.585813       0.857568
      18.540000       0.603271       0.585969       0.854724
      18.550000       0.604081       0.586121       0.851388
      18.560000       0.604877       0.586305       0.847557
      18.570000       0.605640       0.586552       0.843288
      18.580000       0.606349       0.586891       0.838681
      18.590000       0.606983       0.587340       0.833871
      18.600000       0.607532       0.587908       0.829008
      18.610000       0.607999       0.588595       0.824244
      18.620000       0.608394       0.589387       0.819725
      18.630000       0.608733       0.590259       0.815583
      18.640000       0.609025       0.591175       0.811937
      18.650000       0.609269       0.592095       0.808889
      18.660000       0.609457       0.592975       0.806515
      18.670000       0.609579       0.593773       0.804858
      18.680000       0.609632       0.594456       0.803909
      18.690000       0.609622       0.594994       0.803609
      18.700000       0.609562       0.595372       0.803850
      18.710000       0.609471       0.595583       0.804491
      18.720000       0.609362       0.595632       0.805371
      18.730000       0.609242       0.595534       0.806331
      18.740000       0.609108       0.595319       0.807228
      18.750000       0.608953       0.595024       0.807948
      18.760000       0.608769       0.594698       0.808416
      18.770000       0.608548       0.594390       0.808597
      18.780000       0.608287       0.594147       0.808491
      18.790000       0.607992       0.594009       0.808116
      18.800000       0.607669       0.594010       0.807496
      18.810000       0.607331       0.594169       0.806647
      18.820000       0.606988       0.594501       0.805568
      18.830000       0.606651       0.595008       0.804242
      18.840000       0.606324       0.595686       0.802640
      18.850000       0.606005       0.596524       0.800730
      18.860000       0.605690       0.597506       0.798490
      18.870000       0.605372       0.598613       0.795919
      18.880000       0.605049       0.599824       0.793050
      18.890000       0.604730       0.601120       0.789946
      18.900000       0.604433       0.602484       0.786695
      18.910000       0.604184       0.603897       0.783404
      18.920000       0.604015       0.605345       0.780186
      18.930000       0.603953       0.606813       0.777146
      18.940000       0.604019       0.608288       0.774371
      18.950000       0.604228       0.609759       0.771914
      18.960000       0.604585       0.611218       0.769800
      18.970000       0.605090       0.612658       0.768027
      18.980000       0.605728       0.614071       0.766590
      18.990000       0.606478       0.615449       0.765496
      19.000000       0.607306       0.616780       0.764774
      19.010000       0.608179       0.618050       0.764468
      19.020000       0.609057       0.619245       0.764614
      19.030000       0.609907       0.620355       0.765214
      19.040000       0.610700       0.621373       0.766223
      19.050000       0.611418       0.622297       0.767539
      19.060000       0.612052       0.623135       0.769027
      19.070000       0.612609       0.623896       0.770544
      19.080000       0.613109       0.624594       0.771968
      19.090000       0.613582       0.625245       0.773211
      19.100000       0.614056       0.625864       0.774224
      19.110000       0.614560       0.626464       0.774987
      19.120000       0.615111       0.627052       0.775486
      19.130000       0.615716       0.627625       0.775703
      19.140000       0.616376       0.628176       0.775614
      19.150000       0.617083       0.628690       0.775190
      19.160000       0.617828       0.629155       0.774417
      19.170000       0.618598       0.629561       0.773298
      19.180000       0.619385       0.629913       0.771860
      19.190000       0.620181       0.630225       0.770144
      19.200000       0.620981       0.630522       0.768202
      19.210000       0.621783       0.630835       0.766094
      19.220000       0.622585       0.631193       0.763897
      19.230000       0.623388       0.631620       0.761697
      19.240000       0.624190       0.632129       0.759600
      19.250000       0.624988       0.632723       0.757720
      19.260000       0.625778       0.633395       0.756173
      19.270000       0.626552       0.634133       0.755058
      19.280000       0.627295       0.634919       0.754452
      19.290000       0.627992       0.635735       0.754394
      19.300000       0.628623       0.636559       0.754881
      19.310000       0.629172       0.637367       0.755862
      19.320000       0.629626       0.638140       0.757234
      19.330000       0.629979       0.638856       0.758850
      19.340000       0.630233       0.639503       0.760531
      19.350000       0.630393       0.640073       0.762088
      19.360000       0.630468       0.640568       0.763350
      19.370000       0.630467       0.640997       0.764189
      19.380000       0.630401       0.641376       0.764539
      19.390000       0.630282       0.641720       0.764401
      19.400000       0.630127       0.642042       0.763843
      19.410000       0.629960       0.642346       0.762978
      19.420000       0.629805       0.642630       0.761942
      19.430000       0.629685       0.642885       0.760874
      19.440000       0.629616       0.643099       0.759902
      19.450000       0.629603       0.643260       0.759129
      19.460000       0.629642       0.643360       0.758639
      19.470000       0.629716       0.643395       0.758488
      19.480000       0.629807       0.643361       0.758702
      19.490000       0.629891       0.643262       0.759280
      19.500000       0.629954       0.643104       0.760186
      19.510000       0.629986       0.642896       0.761347
      19.520000       0.629987       0.642655       0.762658
      19.530000       0.629969       0.642397       0.763985
      19.540000       0.629950       0.642141       0.765177
      19.550000       0.629953       0.641907       0.766082
      19.560000       0.630002       0.641710       0.766562
      19.570000       0.630112       0.641562       0.766511
      19.580000       0.630295       0.641472       0.765864
      19.590000       0.630553       0.641441       0.764622
      19.600000       0.630887       0.641466       0.762857
      19.610000       0.631293       0.641542       0.760722
      19.620000       0.631767       0.641660       0.758432
      19.630000       0.632304       0.641810       0.756246
      19.640000       0.632895       0.641984       0.754423
      19.650000       0.633532       0.642171       0.753191
      19.660000       0.634206       0.642367       0.752711
      19.670000       0.634908       0.642567       0.753067
      19.680000       0.635632       0.642768       0.754265
      19.690000       0.636374       0.642965       0.756236
      19.700000       0.637130       0.643154       0.758855
      19.710000       0.637896       0.643332       0.761955
      19.720000       0.638667       0.643497       0.765341
      19.730000       0.639439       0.643651       0.768811
      19.740000       0.640202       0.643799       0.772170
      19.750000       0.640951       0.643949       0.775255
      19.760000       0.641675       0.644108       0.777945
      19.770000       0.642368       0.644282       0.780179
      19.780000       0.643022       0.644477       0.781960
      19.790000       0.643632       0.644692       0.783354
      19.800000       0.644196       0.644927       0.784472
      19.810000       0.644713       0.645179       0.785451
      19.820000       0.645189       0.645447       0.786425
      19.830000       0.645631       0.645728       0.787504
      19.840000       0.646052       0.646021       0.788761
      19.850000       0.646465       0.646325       0.790230
      19.860000       0.646884       0.646639       0.791905
      19.870000       0.647321       0.646956       0.793755
      19.880000       0.647781       0.647268       0.795727
      19.890000       0.648267       0.647562       0.797758
      19.900000       0.648775       0.647825       0.799786
      19.910000       0.649301       0.648043       0.801755
      19.920000       0.649836       0.648206       0.803622
      19.930000       0.650374       0.648307       0.805353
      19.940000       0.650906       0.648340       0.806921
      19.950000       0.651425       0.648304       0.808299
      19.960000       0.651928       0.648203       0.809464
      19.970000       0.652414       0.648047       0.810393
      19.980000       0.652889       0.647854       0.811073
      19.990000       0.653362       0.647652       0.811496
      20.000000       0.653848       0.647475       0.811666
