  # energy grid [eV]     epsi_x  epsi_y  epsi_z
       0.000000            NaN            NaN            NaN
       0.010000       0.000101       0.000019       0.000148
       0.020000       0.000202       0.000038       0.000295
       0.030000       0.000303       0.000057       0.000443
       0.040000       0.000404       0.000076       0.000592
       0.050000       0.000505       0.000095       0.000741
       0.060000       0.000606       0.000114       0.000891
       0.070000       0.000707       0.000134       0.001042
       0.080000       0.000808       0.000153       0.001194
       0.090000       0.000909       0.000172       0.001348
       0.100000       0.001011       0.000191       0.001503
       0.110000       0.001112       0.000210       0.001660
       0.120000       0.001213       0.000229       0.001819
       0.130000       0.001314       0.000248       0.001981
       0.140000       0.001416       0.000267       0.002145
       0.150000       0.001517       0.000286       0.002311
       0.160000       0.001619       0.000305       0.002481
       0.170000       0.001720       0.000324       0.002654
       0.180000       0.001822       0.000344       0.002831
       0.190000       0.001924       0.000363       0.003011
       0.200000       0.002025       0.000382       0.003196
       0.210000       0.002127       0.000401       0.003386
       0.220000       0.002229       0.000420       0.003581
       0.230000       0.002331       0.000439       0.003782
       0.240000       0.002433       0.000459       0.003989
       0.250000       0.002536       0.000478       0.004203
       0.260000       0.002638       0.000497       0.004424
       0.270000       0.002741       0.000516       0.004653
       0.280000       0.002843       0.000535       0.004891
       0.290000       0.002946       0.000555       0.005138
       0.300000       0.003049       0.000574       0.005396
       0.310000       0.003152       0.000593       0.005666
       0.320000       0.003255       0.000612       0.005948
       0.330000       0.003358       0.000632       0.006245
       0.340000       0.003461       0.000651       0.006557
       0.350000       0.003565       0.000670       0.006886
       0.360000       0.003669       0.000689       0.007234
       0.370000       0.003773       0.000709       0.007603
       0.380000       0.003877       0.000728       0.007995
       0.390000       0.003981       0.000747       0.008413
       0.400000       0.004085       0.000767       0.008860
       0.410000       0.004190       0.000786       0.009339
       0.420000       0.004294       0.000806       0.009854
       0.430000       0.004399       0.000825       0.010409
       0.440000       0.004504       0.000844       0.011010
       0.450000       0.004610       0.000864       0.011663
       0.460000       0.004715       0.000883       0.012373
       0.470000       0.004821       0.000903       0.013150
       0.480000       0.004927       0.000922       0.014001
       0.490000       0.005033       0.000942       0.014937
       0.500000       0.005139       0.000961       0.015969
       0.510000       0.005246       0.000981       0.017112
       0.520000       0.005352       0.001001       0.018379
       0.530000       0.005459       0.001020       0.019790
       0.540000       0.005567       0.001040       0.021362
       0.550000       0.005674       0.001059       0.023118
       0.560000       0.005782       0.001079       0.025079
       0.570000       0.005890       0.001099       0.027268
       0.580000       0.005998       0.001119       0.029707
       0.590000       0.006107       0.001138       0.032411
       0.600000       0.006216       0.001158       0.035387
       0.610000       0.006325       0.001178       0.038626
       0.620000       0.006434       0.001198       0.042092
       0.630000       0.006544       0.001217       0.045715
       0.640000       0.006654       0.001237       0.049374
       0.650000       0.006764       0.001257       0.052900
       0.660000       0.006875       0.001277       0.056073
       0.670000       0.006985       0.001297       0.058648
       0.680000       0.007097       0.001317       0.060391
       0.690000       0.007208       0.001337       0.061130
       0.700000       0.007320       0.001357       0.060799
       0.710000       0.007432       0.001377       0.059452
       0.720000       0.007544       0.001397       0.057254
       0.730000       0.007657       0.001417       0.054436
       0.740000       0.007770       0.001437       0.051243
       0.750000       0.007883       0.001457       0.047899
       0.760000       0.007997       0.001478       0.044581
       0.770000       0.008111       0.001498       0.041411
       0.780000       0.008225       0.001518       0.038467
       0.790000       0.008340       0.001538       0.035787
       0.800000       0.008456       0.001559       0.033382
       0.810000       0.008571       0.001579       0.031248
       0.820000       0.008687       0.001600       0.029370
       0.830000       0.008804       0.001620       0.027728
       0.840000       0.008921       0.001640       0.026298
       0.850000       0.009038       0.001661       0.025060
       0.860000       0.009156       0.001681       0.023993
       0.870000       0.009274       0.001702       0.023078
       0.880000       0.009392       0.001723       0.022298
       0.890000       0.009511       0.001743       0.021638
       0.900000       0.009631       0.001764       0.021086
       0.910000       0.009751       0.001785       0.020630
       0.920000       0.009871       0.001805       0.020261
       0.930000       0.009992       0.001826       0.019972
       0.940000       0.010113       0.001847       0.019755
       0.950000       0.010235       0.001868       0.019605
       0.960000       0.010357       0.001889       0.019518
       0.970000       0.010480       0.001910       0.019490
       0.980000       0.010604       0.001931       0.019518
       0.990000       0.010727       0.001952       0.019600
       1.000000       0.010852       0.001973       0.019735
       1.010000       0.010977       0.001994       0.019922
       1.020000       0.011102       0.002015       0.020162
       1.030000       0.011228       0.002036       0.020454
       1.040000       0.011355       0.002058       0.020800
       1.050000       0.011482       0.002079       0.021201
       1.060000       0.011609       0.002100       0.021661
       1.070000       0.011738       0.002122       0.022183
       1.080000       0.011866       0.002143       0.022770
       1.090000       0.011996       0.002165       0.023428
       1.100000       0.012126       0.002186       0.024163
       1.110000       0.012257       0.002208       0.024980
       1.120000       0.012388       0.002229       0.025890
       1.130000       0.012520       0.002251       0.026900
       1.140000       0.012652       0.002273       0.028023
       1.150000       0.012785       0.002295       0.029272
       1.160000       0.012919       0.002316       0.030661
       1.170000       0.013054       0.002338       0.032208
       1.180000       0.013189       0.002360       0.033934
       1.190000       0.013325       0.002382       0.035862
       1.200000       0.013461       0.002404       0.038019
       1.210000       0.013599       0.002427       0.040436
       1.220000       0.013737       0.002449       0.043147
       1.230000       0.013875       0.002471       0.046190
       1.240000       0.014015       0.002493       0.049608
       1.250000       0.014155       0.002516       0.053445
       1.260000       0.014296       0.002538       0.057745
       1.270000       0.014438       0.002560       0.062546
       1.280000       0.014580       0.002583       0.067877
       1.290000       0.014723       0.002606       0.073746
       1.300000       0.014867       0.002628       0.080123
       1.310000       0.015012       0.002651       0.086930
       1.320000       0.015158       0.002674       0.094011
       1.330000       0.015305       0.002697       0.101127
       1.340000       0.015452       0.002719       0.107942
       1.350000       0.015600       0.002742       0.114040
       1.360000       0.015749       0.002766       0.118969
       1.370000       0.015899       0.002789       0.122312
       1.380000       0.016050       0.002812       0.123760
       1.390000       0.016202       0.002835       0.123186
       1.400000       0.016355       0.002858       0.120671
       1.410000       0.016509       0.002882       0.116483
       1.420000       0.016663       0.002905       0.111019
       1.430000       0.016819       0.002929       0.104728
       1.440000       0.016975       0.002952       0.098035
       1.450000       0.017133       0.002976       0.091296
       1.460000       0.017291       0.003000       0.084779
       1.470000       0.017451       0.003024       0.078657
       1.480000       0.017612       0.003047       0.073030
       1.490000       0.017773       0.003071       0.067939
       1.500000       0.017936       0.003095       0.063387
       1.510000       0.018100       0.003120       0.059350
       1.520000       0.018264       0.003144       0.055793
       1.530000       0.018430       0.003168       0.052674
       1.540000       0.018598       0.003192       0.049950
       1.550000       0.018766       0.003217       0.047578
       1.560000       0.018935       0.003241       0.045521
       1.570000       0.019106       0.003266       0.043743
       1.580000       0.019278       0.003291       0.042213
       1.590000       0.019451       0.003316       0.040906
       1.600000       0.019625       0.003340       0.039798
       1.610000       0.019800       0.003365       0.038869
       1.620000       0.019977       0.003391       0.038103
       1.630000       0.020155       0.003416       0.037485
       1.640000       0.020334       0.003441       0.037003
       1.650000       0.020515       0.003466       0.036648
       1.660000       0.020697       0.003492       0.036413
       1.670000       0.020880       0.003517       0.036290
       1.680000       0.021065       0.003543       0.036277
       1.690000       0.021251       0.003569       0.036369
       1.700000       0.021439       0.003594       0.036565
       1.710000       0.021628       0.003620       0.036865
       1.720000       0.021818       0.003646       0.037270
       1.730000       0.022010       0.003672       0.037783
       1.740000       0.022204       0.003699       0.038407
       1.750000       0.022399       0.003725       0.039147
       1.760000       0.022595       0.003751       0.040012
       1.770000       0.022794       0.003778       0.041008
       1.780000       0.022993       0.003805       0.042147
       1.790000       0.023195       0.003831       0.043442
       1.800000       0.023398       0.003858       0.044907
       1.810000       0.023603       0.003885       0.046560
       1.820000       0.023809       0.003912       0.048422
       1.830000       0.024017       0.003939       0.050518
       1.840000       0.024227       0.003967       0.052876
       1.850000       0.024439       0.003994       0.055528
       1.860000       0.024653       0.004022       0.058513
       1.870000       0.024868       0.004049       0.061872
       1.880000       0.025086       0.004077       0.065654
       1.890000       0.025305       0.004105       0.069912
       1.900000       0.025526       0.004133       0.074701
       1.910000       0.025749       0.004161       0.080080
       1.920000       0.025974       0.004190       0.086104
       1.930000       0.026202       0.004218       0.092818
       1.940000       0.026431       0.004247       0.100248
       1.950000       0.026663       0.004275       0.108384
       1.960000       0.026896       0.004304       0.117165
       1.970000       0.027132       0.004333       0.126453
       1.980000       0.027370       0.004362       0.136019
       1.990000       0.027610       0.004392       0.145527
       2.000000       0.027853       0.004421       0.154549
       2.010000       0.028098       0.004450       0.162590
       2.020000       0.028345       0.004480       0.169151
       2.030000       0.028595       0.004510       0.173793
       2.040000       0.028847       0.004540       0.176203
       2.050000       0.029101       0.004570       0.176234
       2.060000       0.029358       0.004600       0.173925
       2.070000       0.029618       0.004631       0.169486
       2.080000       0.029881       0.004661       0.163261
       2.090000       0.030146       0.004692       0.155686
       2.100000       0.030414       0.004723       0.147231
       2.110000       0.030684       0.004754       0.138350
       2.120000       0.030958       0.004785       0.129436
       2.130000       0.031234       0.004817       0.120799
       2.140000       0.031513       0.004848       0.112656
       2.150000       0.031795       0.004880       0.105143
       2.160000       0.032081       0.004912       0.098324
       2.170000       0.032369       0.004944       0.092213
       2.180000       0.032661       0.004976       0.086788
       2.190000       0.032955       0.005009       0.082011
       2.200000       0.033254       0.005041       0.077828
       2.210000       0.033555       0.005074       0.074188
       2.220000       0.033860       0.005107       0.071035
       2.230000       0.034168       0.005140       0.068320
       2.240000       0.034480       0.005174       0.065998
       2.250000       0.034795       0.005207       0.064029
       2.260000       0.035114       0.005241       0.062378
       2.270000       0.035437       0.005275       0.061014
       2.280000       0.035764       0.005309       0.059913
       2.290000       0.036095       0.005344       0.059053
       2.300000       0.036429       0.005379       0.058417
       2.310000       0.036768       0.005413       0.057991
       2.320000       0.037111       0.005449       0.057765
       2.330000       0.037458       0.005484       0.057731
       2.340000       0.037809       0.005519       0.057884
       2.350000       0.038165       0.005555       0.058222
       2.360000       0.038525       0.005591       0.058745
       2.370000       0.038890       0.005627       0.059457
       2.380000       0.039259       0.005664       0.060362
       2.390000       0.039634       0.005701       0.061469
       2.400000       0.040013       0.005738       0.062790
       2.410000       0.040397       0.005775       0.064338
       2.420000       0.040786       0.005812       0.066132
       2.430000       0.041181       0.005850       0.068193
       2.440000       0.041581       0.005888       0.070547
       2.450000       0.041986       0.005926       0.073225
       2.460000       0.042397       0.005965       0.076263
       2.470000       0.042814       0.006004       0.079703
       2.480000       0.043237       0.006043       0.083592
       2.490000       0.043665       0.006082       0.087985
       2.500000       0.044100       0.006122       0.092943
       2.510000       0.044541       0.006162       0.098531
       2.520000       0.044988       0.006203       0.104819
       2.530000       0.045442       0.006243       0.111879
       2.540000       0.045903       0.006284       0.119771
       2.550000       0.046370       0.006326       0.128546
       2.560000       0.046845       0.006367       0.138220
       2.570000       0.047326       0.006409       0.148765
       2.580000       0.047816       0.006451       0.160083
       2.590000       0.048312       0.006494       0.171985
       2.600000       0.048817       0.006537       0.184185
       2.610000       0.049330       0.006580       0.196294
       2.620000       0.049850       0.006624       0.207852
       2.630000       0.050379       0.006668       0.218370
       2.640000       0.050917       0.006713       0.227391
       2.650000       0.051464       0.006758       0.234540
       2.660000       0.052020       0.006803       0.239560
       2.670000       0.052585       0.006849       0.242319
       2.680000       0.053159       0.006895       0.242799
       2.690000       0.053744       0.006942       0.241079
       2.700000       0.054338       0.006989       0.237305
       2.710000       0.054943       0.007036       0.231678
       2.720000       0.055559       0.007084       0.224441
       2.730000       0.056186       0.007132       0.215873
       2.740000       0.056824       0.007181       0.206286
       2.750000       0.057473       0.007230       0.196013
       2.760000       0.058135       0.007280       0.185400
       2.770000       0.058809       0.007331       0.174776
       2.780000       0.059496       0.007381       0.164434
       2.790000       0.060195       0.007433       0.154612
       2.800000       0.060909       0.007485       0.145480
       2.810000       0.061636       0.007537       0.137141
       2.820000       0.062378       0.007590       0.129641
       2.830000       0.063134       0.007644       0.122982
       2.840000       0.063906       0.007698       0.117136
       2.850000       0.064693       0.007753       0.112056
       2.860000       0.065497       0.007809       0.107687
       2.870000       0.066318       0.007865       0.103970
       2.880000       0.067156       0.007922       0.100852
       2.890000       0.068012       0.007979       0.098279
       2.900000       0.068886       0.008037       0.096209
       2.910000       0.069780       0.008096       0.094602
       2.920000       0.070694       0.008156       0.093427
       2.930000       0.071628       0.008216       0.092658
       2.940000       0.072584       0.008278       0.092277
       2.950000       0.073562       0.008340       0.092271
       2.960000       0.074563       0.008403       0.092632
       2.970000       0.075588       0.008466       0.093360
       2.980000       0.076638       0.008531       0.094459
       2.990000       0.077713       0.008597       0.095939
       3.000000       0.078815       0.008663       0.097817
       3.010000       0.079945       0.008731       0.100115
       3.020000       0.081104       0.008799       0.102863
       3.030000       0.082292       0.008869       0.106097
       3.040000       0.083512       0.008939       0.109862
       3.050000       0.084765       0.009011       0.114208
       3.060000       0.086051       0.009084       0.119197
       3.070000       0.087373       0.009158       0.124896
       3.080000       0.088732       0.009233       0.131377
       3.090000       0.090130       0.009310       0.138719
       3.100000       0.091568       0.009388       0.146998
       3.110000       0.093048       0.009467       0.156279
       3.120000       0.094572       0.009547       0.166610
       3.130000       0.096143       0.009630       0.178000
       3.140000       0.097762       0.009713       0.190399
       3.150000       0.099432       0.009799       0.203681
       3.160000       0.101155       0.009886       0.217619
       3.170000       0.102934       0.009974       0.231885
       3.180000       0.104772       0.010065       0.246062
       3.190000       0.106672       0.010157       0.259679
       3.200000       0.108638       0.010251       0.272267
       3.210000       0.110672       0.010348       0.283417
       3.220000       0.112779       0.010446       0.292822
       3.230000       0.114963       0.010547       0.300294
       3.240000       0.117227       0.010651       0.305761
       3.250000       0.119578       0.010756       0.309240
       3.260000       0.122020       0.010865       0.310815
       3.270000       0.124558       0.010976       0.310607
       3.280000       0.127199       0.011090       0.308749
       3.290000       0.129948       0.011207       0.305376
       3.300000       0.132814       0.011327       0.300614
       3.310000       0.135804       0.011450       0.294577
       3.320000       0.138926       0.011577       0.287372
       3.330000       0.142189       0.011708       0.279105
       3.340000       0.145604       0.011843       0.269896
       3.350000       0.149181       0.011982       0.259887
       3.360000       0.152933       0.012126       0.249256
       3.370000       0.156872       0.012274       0.238217
       3.380000       0.161014       0.012428       0.227020
       3.390000       0.165375       0.012587       0.215929
       3.400000       0.169972       0.012752       0.205203
       3.410000       0.174826       0.012923       0.195069
       3.420000       0.179959       0.013101       0.185704
       3.430000       0.185395       0.013286       0.177227
       3.440000       0.191162       0.013479       0.169703
       3.450000       0.197292       0.013680       0.163152
       3.460000       0.203818       0.013890       0.157562
       3.470000       0.210779       0.014110       0.152897
       3.480000       0.218219       0.014341       0.149115
       3.490000       0.226186       0.014583       0.146165
       3.500000       0.234736       0.014838       0.144000
       3.510000       0.243927       0.015107       0.142575
       3.520000       0.253826       0.015390       0.141848
       3.530000       0.264507       0.015691       0.141782
       3.540000       0.276048       0.016009       0.142343
       3.550000       0.288531       0.016348       0.143505
       3.560000       0.302039       0.016709       0.145244
       3.570000       0.316658       0.017094       0.147552
       3.580000       0.332463       0.017508       0.150434
       3.590000       0.349524       0.017951       0.153918
       3.600000       0.367903       0.018429       0.158051
       3.610000       0.387660       0.018946       0.162902
       3.620000       0.408867       0.019505       0.168557
       3.630000       0.431633       0.020112       0.175108
       3.640000       0.456131       0.020773       0.182647
       3.650000       0.482615       0.021494       0.191257
       3.660000       0.511424       0.022281       0.200993
       3.670000       0.542959       0.023141       0.211873
       3.680000       0.577645       0.024082       0.223855
       3.690000       0.615875       0.025108       0.236815
       3.700000       0.657952       0.026224       0.250538
       3.710000       0.704025       0.027430       0.264706
       3.720000       0.754018       0.028721       0.278918
       3.730000       0.807575       0.030089       0.292729
       3.740000       0.864022       0.031515       0.305699
       3.750000       0.922406       0.032978       0.317450
       3.760000       0.981616       0.034450       0.327705
       3.770000       1.040603       0.035911       0.336295
       3.780000       1.098630       0.037348       0.343160
       3.790000       1.155434       0.038766       0.348319
       3.800000       1.211193       0.040186       0.351849
       3.810000       1.266251       0.041640       0.353859
       3.820000       1.320687       0.043166       0.354469
       3.830000       1.373904       0.044795       0.353796
       3.840000       1.424419       0.046548       0.351947
       3.850000       1.469969       0.048425       0.349012
       3.860000       1.507963       0.050414       0.345064
       3.870000       1.536136       0.052481       0.340157
       3.880000       1.553154       0.054582       0.334339
       3.890000       1.558895       0.056651       0.327654
       3.900000       1.554297       0.058605       0.320161
       3.910000       1.540919       0.060345       0.311951
       3.920000       1.520474       0.061766       0.303161
       3.930000       1.494598       0.062775       0.293981
       3.940000       1.464877       0.063320       0.284658
       3.950000       1.433002       0.063410       0.275469
       3.960000       1.400855       0.063112       0.266699
       3.970000       1.370425       0.062543       0.258605
       3.980000       1.343597       0.061842       0.251397
       3.990000       1.321901       0.061141       0.245223
       4.000000       1.306344       0.060543       0.240181
       4.010000       1.297351       0.060112       0.236325
       4.020000       1.294806       0.059868       0.233687
       4.030000       1.298165       0.059787       0.232288
       4.040000       1.306615       0.059814       0.232156
       4.050000       1.319258       0.059872       0.233325
       4.060000       1.335316       0.059885       0.235838
       4.070000       1.354333       0.059793       0.239745
       4.080000       1.376295       0.059573       0.245101
       4.090000       1.401629       0.059241       0.251958
       4.100000       1.431035       0.058850       0.260363
       4.110000       1.465212       0.058471       0.270338
       4.120000       1.504585       0.058179       0.281871
       4.130000       1.549125       0.058039       0.294891
       4.140000       1.598331       0.058098       0.309247
       4.150000       1.651344       0.058386       0.324688
       4.160000       1.707116       0.058915       0.340862
       4.170000       1.764517       0.059681       0.357325
       4.180000       1.822284       0.060670       0.373592
       4.190000       1.878836       0.061851       0.389190
       4.200000       1.932088       0.063179       0.403720
       4.210000       1.979436       0.064599       0.416891
       4.220000       2.018027       0.066053       0.428538
       4.230000       2.045283       0.067492       0.438613
       4.240000       2.059528       0.068890       0.447156
       4.250000       2.060492       0.070253       0.454269
       4.260000       2.049517       0.071616       0.460090
       4.270000       2.029382       0.073032       0.464776
       4.280000       2.003796       0.074553       0.468477
       4.290000       1.976725       0.076219       0.471338
       4.300000       1.951775       0.078044       0.473481
       4.310000       1.931790       0.080025       0.475005
       4.320000       1.918734       0.082146       0.475977
       4.330000       1.913778       0.084395       0.476435
       4.340000       1.917489       0.086771       0.476377
       4.350000       1.929983       0.089283       0.475770
       4.360000       1.950990       0.091940       0.474553
       4.370000       1.979849       0.094732       0.472654
       4.380000       2.015473       0.097611       0.470012
       4.390000       2.056346       0.100481       0.466615
       4.400000       2.100547       0.103199       0.462533
       4.410000       2.145774       0.105586       0.457945
       4.420000       2.189365       0.107456       0.453152
       4.430000       2.228296       0.108643       0.448553
       4.440000       2.259225       0.109038       0.444603
       4.450000       2.278635       0.108605       0.441754
       4.460000       2.283155       0.107393       0.440408
       4.470000       2.270069       0.105516       0.440871
       4.480000       2.237956       0.103132       0.443344
       4.490000       2.187237       0.100421       0.447923
       4.500000       2.120368       0.097566       0.454612
       4.510000       2.041531       0.094740       0.463348
       4.520000       1.955887       0.092099       0.473996
       4.530000       1.868702       0.089774       0.486345
       4.540000       1.784620       0.087866       0.500088
       4.550000       1.707255       0.086450       0.514825
       4.560000       1.639089       0.085571       0.530090
       4.570000       1.581565       0.085256       0.545397
       4.580000       1.535277       0.085509       0.560309
       4.590000       1.500150       0.086318       0.574481
       4.600000       1.475594       0.087654       0.587683
       4.610000       1.460616       0.089470       0.599794
       4.620000       1.453924       0.091700       0.610793
       4.630000       1.454035       0.094261       0.620732
       4.640000       1.459426       0.097053       0.629722
       4.650000       1.468703       0.099975       0.637915
       4.660000       1.480771       0.102931       0.645482
       4.670000       1.494954       0.105846       0.652594
       4.680000       1.511031       0.108668       0.659388
       4.690000       1.529176       0.111377       0.665952
       4.700000       1.549817       0.113970       0.672300
       4.710000       1.573474       0.116450       0.678367
       4.720000       1.600611       0.118817       0.684013
       4.730000       1.631525       0.121057       0.689032
       4.740000       1.666272       0.123135       0.693179
       4.750000       1.704593       0.124990       0.696197
       4.760000       1.745871       0.126536       0.697858
       4.770000       1.789132       0.127673       0.698016
       4.780000       1.833085       0.128307       0.696675
       4.790000       1.876184       0.128381       0.694040
       4.800000       1.916660       0.127886       0.690541
       4.810000       1.952555       0.126878       0.686801
       4.820000       1.981840       0.125460       0.683563
       4.830000       2.002661       0.123771       0.681590
       4.840000       2.013726       0.121957       0.681565
       4.850000       2.014695       0.120159       0.684032
       4.860000       2.006405       0.118503       0.689336
       4.870000       1.990801       0.117098       0.697609
       4.880000       1.970598       0.116045       0.708750
       4.890000       1.948788       0.115439       0.722447
       4.900000       1.928195       0.115363       0.738220
       4.910000       1.911188       0.115884       0.755499
       4.920000       1.899621       0.117040       0.773718
       4.930000       1.894902       0.118831       0.792400
       4.940000       1.898097       0.121211       0.811196
       4.950000       1.909943       0.124074       0.829890
       4.960000       1.930751       0.127256       0.848355
       4.970000       1.960246       0.130536       0.866509
       4.980000       1.997421       0.133652       0.884268
       4.990000       2.040491       0.136334       0.901533
       5.000000       2.086957       0.138344       0.918189
       5.010000       2.133778       0.139522       0.934121
       5.020000       2.177577       0.139825       0.949232
       5.030000       2.214868       0.139329       0.963445
       5.040000       2.242301       0.138208       0.976708
       5.050000       2.256969       0.136690       0.989008
       5.060000       2.256799       0.135003       1.000411
       5.070000       2.240903       0.133339       1.011120
       5.080000       2.209765       0.131838       1.021527
       5.090000       2.165162       0.130586       1.032218
       5.100000       2.109836       0.129632       1.043901
       5.110000       2.047064       0.128996       1.057272
       5.120000       1.980239       0.128692       1.072850
       5.130000       1.912575       0.128732       1.090833
       5.140000       1.846908       0.129136       1.111038
       5.150000       1.785592       0.129920       1.132909
       5.160000       1.730417       0.131084       1.155611
       5.170000       1.682574       0.132604       1.178149
       5.180000       1.642648       0.134414       1.199497
       5.190000       1.610692       0.136412       1.218695
       5.200000       1.586346       0.138474       1.234923
       5.210000       1.569009       0.140475       1.247534
       5.220000       1.557985       0.142318       1.256061
       5.230000       1.552571       0.143934       1.260217
       5.240000       1.552083       0.145291       1.259897
       5.250000       1.555847       0.146372       1.255200
       5.260000       1.563208       0.147174       1.246456
       5.270000       1.573592       0.147708       1.234218
       5.280000       1.586576       0.148007       1.219195
       5.290000       1.601895       0.148132       1.202095
       5.300000       1.619346       0.148160       1.183434
       5.310000       1.638617       0.148158       1.163367
       5.320000       1.659110       0.148158       1.141630
       5.330000       1.679833       0.148134       1.117639
       5.340000       1.699394       0.148000       1.090713
       5.350000       1.716099       0.147624       1.060370
       5.360000       1.728157       0.146849       1.026569
       5.370000       1.734009       0.145542       0.989800
       5.380000       1.732731       0.143629       0.951004
       5.390000       1.724392       0.141130       0.911358
       5.400000       1.710216       0.138164       0.872044
       5.410000       1.692432       0.134923       0.834073
       5.420000       1.673887       0.131637       0.798206
       5.430000       1.657574       0.128533       0.764963
       5.440000       1.646240       0.125804       0.734663
       5.450000       1.642170       0.123600       0.707472
       5.460000       1.647130       0.122030       0.683451
       5.470000       1.662419       0.121165       0.662585
       5.480000       1.688953       0.121052       0.644818
       5.490000       1.727343       0.121720       0.630077
       5.500000       1.777917       0.123192       0.618281
       5.510000       1.840688       0.125479       0.609349
       5.520000       1.915253       0.128590       0.603191
       5.530000       2.000637       0.132524       0.599698
       5.540000       2.095112       0.137263       0.598735
       5.550000       2.196055       0.142770       0.600147
       5.560000       2.299927       0.148980       0.603762
       5.570000       2.402472       0.155793       0.609411
       5.580000       2.499165       0.163072       0.616949
       5.590000       2.585837       0.170642       0.626277
       5.600000       2.659274       0.178290       0.637358
       5.610000       2.717591       0.185774       0.650225
       5.620000       2.760286       0.192837       0.664976
       5.630000       2.788068       0.199233       0.681755
       5.640000       2.802613       0.204751       0.700730
       5.650000       2.806315       0.209237       0.722065
       5.660000       2.802039       0.212591       0.745890
       5.670000       2.792824       0.214758       0.772285
       5.680000       2.781573       0.215714       0.801259
       5.690000       2.770816       0.215455       0.832750
       5.700000       2.762637       0.214003       0.866617
       5.710000       2.758786       0.211427       0.902640
       5.720000       2.760927       0.207861       0.940523
       5.730000       2.770900       0.203512       0.979904
       5.740000       2.790869       0.198656       1.020391
       5.750000       2.823293       0.193611       1.061631
       5.760000       2.870748       0.188693       1.103397
       5.770000       2.935673       0.184178       1.145651
       5.780000       3.020120       0.180264       1.188563
       5.790000       3.125570       0.177053       1.232480
       5.800000       3.252791       0.174546       1.277868
       5.810000       3.401744       0.172653       1.325242
       5.820000       3.571534       0.171219       1.375083
       5.830000       3.760414       0.170047       1.427707
       5.840000       3.965874       0.168954       1.483147
       5.850000       4.184799       0.167799       1.541071
       5.860000       4.413667       0.166519       1.600825
       5.870000       4.648756       0.165133       1.661612
       5.880000       4.886329       0.163719       1.722763
       5.890000       5.122797       0.162386       1.783987
       5.900000       5.354831       0.161247       1.845498
       5.910000       5.579425       0.160402       1.907943
       5.920000       5.793912       0.159942       1.972146
       5.930000       5.995916       0.159956       2.038777
       5.940000       6.183277       0.160535       2.108063
       5.950000       6.353945       0.161771       2.179640
       5.960000       6.505934       0.163751       2.252552
       5.970000       6.637369       0.166539       2.325382
       5.980000       6.746666       0.170163       2.396446
       5.990000       6.832775       0.174601       2.464035
       6.000000       6.895420       0.179769       2.526686
       6.010000       6.935281       0.185517       2.583440
       6.020000       6.954068       0.191629       2.634021
       6.030000       6.954402       0.197837       2.678870
       6.040000       6.939437       0.203852       2.718991
       6.050000       6.912251       0.209395       2.755673
       6.060000       6.875229       0.214236       2.790170
       6.070000       6.829704       0.218212       2.823462
       6.080000       6.775992       0.221230       2.856166
       6.090000       6.713710       0.223260       2.888585
       6.100000       6.642138       0.224313       2.920866
       6.110000       6.560393       0.224424       2.953176
       6.120000       6.467409       0.223640       2.985855
       6.130000       6.361880       0.222030       3.019491
       6.140000       6.242382       0.219689       3.054908
       6.150000       6.107781       0.216753       3.093105
       6.160000       5.957864       0.213396       3.135168
       6.170000       5.793934       0.209823       3.182209
       6.180000       5.619053       0.206258       3.235339
       6.190000       5.437799       0.202929       3.295645
       6.200000       5.255613       0.200051       3.364137
       6.210000       5.078034       0.197811       3.441609
       6.220000       4.910085       0.196351       3.528423
       6.230000       4.755920       0.195761       3.624230
       6.240000       4.618702       0.196074       3.727684
       6.250000       4.500555       0.197272       3.836202
       6.260000       4.402553       0.199293       3.945867
       6.270000       4.324701       0.202047       4.051614
       6.280000       4.265995       0.205436       4.147777
       6.290000       4.224568       0.209372       4.228926
       6.300000       4.197907       0.213802       4.290769
       6.310000       4.183119       0.218721       4.330824
       6.320000       4.177192       0.224169       4.348663
       6.330000       4.177199       0.230209       4.345752
       6.340000       4.180394       0.236898       4.324985
       6.350000       4.184166       0.244245       4.290056
       6.360000       4.185874       0.252187       4.244782
       6.370000       4.182733       0.260580       4.192471
       6.380000       4.171867       0.269222       4.135459
       6.390000       4.150662       0.277892       4.074943
       6.400000       4.117326       0.286396       4.011165
       6.410000       4.071446       0.294594       3.943907
       6.420000       4.014261       0.302395       3.873090
       6.430000       3.948455       0.309720       3.799260
       6.440000       3.877492       0.316449       3.723780
       6.450000       3.804755       0.322391       3.648659
       6.460000       3.732814       0.327280       3.576150
       6.470000       3.663057       0.330824       3.508264
       6.480000       3.595735       0.332765       3.446384
       6.490000       3.530293       0.332955       3.391062
       6.500000       3.465850       0.331399       3.341990
       6.510000       3.401711       0.328285       3.298104
       6.520000       3.337819       0.323961       3.257766
       6.530000       3.275059       0.318886       3.218990
       6.540000       3.215268       0.313551       3.179680
       6.550000       3.160929       0.308403       3.137870
       6.560000       3.114636       0.303784       3.091965
       6.570000       3.078526       0.299909       3.041010
       6.580000       3.053867       0.296877       2.984954
       6.590000       3.040900       0.294715       2.924812
       6.600000       3.038922       0.293423       2.862624
       6.610000       3.046526       0.293020       2.801185
       6.620000       3.061936       0.293552       2.743595
       6.630000       3.083348       0.295088       2.692755
       6.640000       3.109210       0.297679       2.650899
       6.650000       3.138378       0.301320       2.619242
       6.660000       3.170055       0.305918       2.597768
       6.670000       3.203531       0.311274       2.585186
       6.680000       3.237831       0.317095       2.579076
       6.690000       3.271398       0.323030       2.576181
       6.700000       3.301968       0.328729       2.572809
       6.710000       3.326660       0.333912       2.565253
       6.720000       3.342268       0.338424       2.550193
       6.730000       3.345663       0.342258       2.525054
       6.740000       3.334228       0.345534       2.488336
       6.750000       3.306260       0.348441       2.439875
       6.760000       3.261296       0.351177       2.380976
       6.770000       3.200332       0.353887       2.314314
       6.780000       3.125860       0.356652       2.243576
       6.790000       3.041683       0.359511       2.172899
       6.800000       2.952469       0.362516       2.106281
       6.810000       2.863159       0.365786       2.047112
       6.820000       2.778362       0.369538       1.997930
       6.830000       2.701877       0.374074       1.960370
       6.840000       2.636399       0.379740       1.935258
       6.850000       2.583380       0.386873       1.922749
       6.860000       2.543036       0.395752       1.922446
       6.870000       2.514452       0.406572       1.933475
       6.880000       2.495763       0.419423       1.954475
       6.890000       2.484438       0.434286       1.983533
       6.900000       2.477641       0.451040       2.018075
       6.910000       2.472687       0.469472       2.054806
       6.920000       2.467494       0.489308       2.089770
       6.930000       2.460929       0.510243       2.118625
       6.940000       2.452891       0.531984       2.137140
       6.950000       2.444110       0.554262       2.141855
       6.960000       2.435775       0.576832       2.130702
       6.970000       2.429160       0.599443       2.103396
       6.980000       2.425413       0.621805       2.061428
       6.990000       2.425515       0.643589       2.007664
       7.000000       2.430309       0.664443       1.945684
       7.010000       2.440472       0.684066       1.879119
       7.020000       2.456361       0.702299       1.811185
       7.030000       2.477800       0.719222       1.744508
       7.040000       2.503941       0.735221       1.681185
       7.050000       2.533342       0.750985       1.622940
       7.060000       2.564298       0.767417       1.571244
       7.070000       2.595343       0.785479       1.527354
       7.080000       2.625741       0.806015       1.492285
       7.090000       2.655756       0.829571       1.466777
       7.100000       2.686582       0.856280       1.451280
       7.110000       2.719979       0.885797       1.445975
       7.120000       2.757776       0.917332       1.450809
       7.130000       2.801403       0.949740       1.465517
       7.140000       2.851572       0.981688       1.489611
       7.150000       2.908124       1.011827       1.522296
       7.160000       2.969987       1.038948       1.562319
       7.170000       3.035209       1.062083       1.607787
       7.180000       3.101021       1.080541       1.656006
       7.190000       3.163979       1.093915       1.703451
       7.200000       3.220217       1.102093       1.745941
       7.210000       3.265864       1.105271       1.779078
       7.220000       3.297572       1.103953       1.798901
       7.230000       3.313072       1.098908       1.802607
       7.240000       3.311570       1.091058       1.789126
       7.250000       3.293887       1.081358       1.759350
       7.260000       3.262334       1.070713       1.715922
       7.270000       3.220411       1.059944       1.662661
       7.280000       3.172420       1.049790       1.603826
       7.290000       3.123020       1.040896       1.543411
       7.300000       3.076749       1.033760       1.484661
       7.310000       3.037574       1.028676       1.429840
       7.320000       3.008553       1.025697       1.380246
       7.330000       2.991690       1.024666       1.336398
       7.340000       2.987964       1.025302       1.298303
       7.350000       2.997478       1.027315       1.265734
       7.360000       3.019607       1.030484       1.238432
       7.370000       3.053096       1.034680       1.216219
       7.380000       3.096095       1.039815       1.199016
       7.390000       3.146188       1.045786       1.186825
       7.400000       3.200440       1.052451       1.179699
       7.410000       3.255498       1.059683       1.177726
       7.420000       3.307721       1.067460       1.181012
       7.430000       3.353380       1.075942       1.189665
       7.440000       3.389021       1.085452       1.203752
       7.450000       3.411972       1.096364       1.223258
       7.460000       3.420909       1.108938       1.248031
       7.470000       3.416228       1.123168       1.277724
       7.480000       3.400011       1.138711       1.311732
       7.490000       3.375575       1.154896       1.349113
       7.500000       3.346723       1.170818       1.388513
       7.510000       3.316954       1.185453       1.428105
       7.520000       3.288829       1.197771       1.465597
       7.530000       3.263631       1.206817       1.498314
       7.540000       3.241357       1.211773       1.523438
       7.550000       3.221026       1.212033       1.538386
       7.560000       3.201233       1.207277       1.541263
       7.570000       3.180812       1.197531       1.531258
       7.580000       3.159429       1.183161       1.508837
       7.590000       3.137891       1.164809       1.475650
       7.600000       3.118023       1.143329       1.434206
       7.610000       3.102195       1.119742       1.387433
       7.620000       3.092685       1.095227       1.338268
       7.630000       3.091178       1.071098       1.289366
       7.640000       3.098547       1.048733       1.242921
       7.650000       3.114969       1.029463       1.200581
       7.660000       3.140234       1.014471       1.163403
       7.670000       3.174075       1.004718       1.131861
       7.680000       3.216329       1.000909       1.105887
       7.690000       3.266851       1.003481       1.084961
       7.700000       3.325217       1.012577       1.068232
       7.710000       3.390330       1.028000       1.054671
       7.720000       3.460070       1.049156       1.043234
       7.730000       3.531123       1.075009       1.033021
       7.740000       3.599066       1.104074       1.023404
       7.750000       3.658779       1.134506       1.014122
       7.760000       3.705158       1.164275       1.005299
       7.770000       3.733983       1.191433       0.997393
       7.780000       3.742711       1.214385       0.991088
       7.790000       3.730927       1.232097       0.987130
       7.800000       3.700258       1.244181       0.986183
       7.810000       3.653824       1.250863       0.988717
       7.820000       3.595410       1.252871       0.994966
       7.830000       3.528703       1.251291       1.004954
       7.840000       3.456801       1.247420       1.018564
       7.850000       3.382081       1.242623       1.035623
       7.860000       3.306303       1.238176       1.055955
       7.870000       3.230815       1.235125       1.079384
       7.880000       3.156765       1.234185       1.105684
       7.890000       3.085289       1.235704       1.134472
       7.900000       3.017653       1.239675       1.165092
       7.910000       2.955296       1.245780       1.196529
       7.920000       2.899756       1.253457       1.227390
       7.930000       2.852517       1.261980       1.255993
       7.940000       2.814831       1.270605       1.280544
       7.950000       2.787609       1.278732       1.299371
       7.960000       2.771403       1.286067       1.311162
       7.970000       2.766465       1.292687       1.315158
       7.980000       2.772808       1.299003       1.311264
       7.990000       2.790216       1.305609       1.300041
       8.000000       2.818149       1.313102       1.282563
       8.010000       2.855558       1.321917       1.260172
       8.020000       2.900658       1.332241       1.234222
       8.030000       2.950740       1.343980       1.205887
       8.040000       3.002107       1.356791       1.176102
       8.050000       3.050239       1.370142       1.145615
       8.060000       3.090291       1.383403       1.115079
       8.070000       3.117881       1.395944       1.085122
       8.080000       3.130013       1.407199       1.056348
       8.090000       3.125801       1.416650       1.029279
       8.100000       3.106702       1.423737       1.004301
       8.110000       3.076169       1.427746       0.981628
       8.120000       3.038872       1.427759       0.961333
       8.130000       2.999838       1.422758       0.943401
       8.140000       2.963799       1.411875       0.927788
       8.150000       2.934865       1.394727       0.914460
       8.160000       2.916433       1.371676       0.903416
       8.170000       2.911186       1.343898       0.894697
       8.180000       2.921036       1.313223       0.888390
       8.190000       2.946987       1.281787       0.884631
       8.200000       2.988926       1.251627       0.883577
       8.210000       3.045456       1.224339       0.885357
       8.220000       3.113841       1.200873       0.890001
       8.230000       3.190192       1.181505       0.897364
       8.240000       3.269957       1.165948       0.907092
       8.250000       3.348689       1.153578       0.918639
       8.260000       3.422916       1.143700       0.931353
       8.270000       3.490792       1.135793       0.944609
       8.280000       3.552255       1.129647       0.957944
       8.290000       3.608616       1.125398       0.971155
       8.300000       3.661742       1.123460       0.984339
       8.310000       3.713165       1.124423       0.997863
       8.320000       3.763402       1.128947       1.012289
       8.330000       3.811636       1.137642       1.028276
       8.340000       3.855797       1.150938       1.046457
       8.350000       3.892971       1.168965       1.067309
       8.360000       3.920025       1.191461       1.090996
       8.370000       3.934300       1.217747       1.117239
       8.380000       3.934223       1.246804       1.145235
       8.390000       3.919682       1.277446       1.173687
       8.400000       3.892064       1.308544       1.200949
       8.410000       3.853971       1.339226       1.225268
       8.420000       3.808789       1.368978       1.245069
       8.430000       3.760265       1.397584       1.259193
       8.440000       3.712200       1.424931       1.267047
       8.450000       3.668202       1.450779       1.268628
       8.460000       3.631469       1.474590       1.264437
       8.470000       3.604579       1.495510       1.255317
       8.480000       3.589312       1.512471       1.242265
       8.490000       3.586484       1.524359       1.226280
       8.500000       3.595778       1.530173       1.208257
       8.510000       3.615586       1.529143       1.188966
       8.520000       3.642940       1.520851       1.169066
       8.530000       3.673673       1.505368       1.149146
       8.540000       3.702901       1.483371       1.129745
       8.550000       3.725772       1.456189       1.111340
       8.560000       3.738309       1.425698       1.094313
       8.570000       3.738064       1.394080       1.078896
       8.580000       3.724406       1.363495       1.065152
       8.590000       3.698389       1.335780       1.052985
       8.600000       3.662315       1.312251       1.042213
       8.610000       3.619154       1.293654       1.032659
       8.620000       3.572009       1.280237       1.024233
       8.630000       3.523780       1.271918       1.016982
       8.640000       3.477054       1.268478       1.011072
       8.650000       3.434151       1.269730       1.006723
       8.660000       3.397163       1.275621       1.004112
       8.670000       3.367834       1.286229       1.003290
       8.680000       3.347263       1.301681       1.004130
       8.690000       3.335560       1.322038       1.006310
       8.700000       3.331624       1.347196       1.009371
       8.710000       3.333189       1.376835       1.012803
       8.720000       3.337122       1.410436       1.016178
       8.730000       3.339911       1.447325       1.019255
       8.740000       3.338240       1.486736       1.022042
       8.750000       3.329591       1.527856       1.024784
       8.760000       3.312754       1.569859       1.027884
       8.770000       3.288094       1.611908       1.031803
       8.780000       3.257431       1.653158       1.036972
       8.790000       3.223507       1.692735       1.043735
       8.800000       3.189214       1.729710       1.052332
       8.810000       3.156859       1.763074       1.062893
       8.820000       3.127693       1.791762       1.075429
       8.830000       3.101795       1.814759       1.089813
       8.840000       3.078270       1.831276       1.105784
       8.850000       3.055661       1.840927       1.122989
       8.860000       3.032433       1.843815       1.141097
       8.870000       3.007394       1.840474       1.159942
       8.880000       2.979971       1.831709       1.179632
       8.890000       2.950297       1.818416       1.200569
       8.900000       2.919163       1.801477       1.223341
       8.910000       2.887919       1.781737       1.248510
       8.920000       2.858338       1.760012       1.276376
       8.930000       2.832419       1.737051       1.306774
       8.940000       2.812125       1.713452       1.338983
       8.950000       2.799086       1.689592       1.371777
       8.960000       2.794373       1.665650       1.403625
       8.970000       2.798371       1.641738       1.432982
       8.980000       2.810729       1.618087       1.458595
       8.990000       2.830346       1.595169       1.479709
       9.000000       2.855374       1.573705       1.496149
       9.010000       2.883299       1.554544       1.508254
       9.020000       2.911163       1.538479       1.516741
       9.030000       2.935947       1.526070       1.522537
       9.040000       2.955072       1.517508       1.526622
       9.050000       2.966843       1.512558       1.529898
       9.060000       2.970674       1.510585       1.533106
       9.070000       2.966985       1.510658       1.536795
       9.080000       2.956818       1.511735       1.541329
       9.090000       2.941341       1.512884       1.546923
       9.100000       2.921510       1.513498       1.553707
       9.110000       2.898003       1.513414       1.561783
       9.120000       2.871438       1.512909       1.571291
       9.130000       2.842662       1.512578       1.582432
       9.140000       2.812890       1.513154       1.595451
       9.150000       2.783571       1.515316       1.610579
       9.160000       2.756000       1.519535       1.627945
       9.170000       2.730867       1.525970       1.647493
       9.180000       2.707967       1.534433       1.668929
       9.190000       2.686166       1.544478       1.691740
       9.200000       2.663650       1.555599       1.715287
       9.210000       2.638335       1.567494       1.738976
       9.220000       2.608315       1.580269       1.762440
       9.230000       2.572279       1.594490       1.785660
       9.240000       2.529800       1.611029       1.808968
       9.250000       2.481453       1.630785       1.832949
       9.260000       2.428694       1.654388       1.858300
       9.270000       2.373524       1.681998       1.885698
       9.280000       2.318071       1.713285       1.915703
       9.290000       2.264202       1.747576       1.948677
       9.300000       2.213301       1.784129       1.984733
       9.310000       2.166235       1.822414       2.023700
       9.320000       2.123477       1.862280       2.065155
       9.330000       2.085296       1.903939       2.108540
       9.340000       2.051931       1.947773       2.153340
       9.350000       2.023654       1.994045       2.199297
       9.360000       2.000713       2.042617       2.246555
       9.370000       1.983214       2.092746       2.295685
       9.380000       1.971015       2.143003       2.347560
       9.390000       1.963698       2.191309       2.403139
       9.400000       1.960622       2.235103       2.463239
       9.410000       1.961015       2.271625       2.528394
       9.420000       1.964075       2.298304       2.598826
       9.430000       1.969033       2.313182       2.674521
       9.440000       1.975205       2.315308       2.755349
       9.450000       1.982005       2.304976       2.841192
       9.460000       1.988945       2.283734       2.932058
       9.470000       1.995598       2.254140       3.028179
       9.480000       2.001545       2.219328       3.130075
       9.490000       2.006355       2.182507       3.238557
       9.500000       2.009604       2.146522       3.354654
       9.510000       2.010964       2.113577       3.479496
       9.520000       2.010307       2.085157       3.614199
       9.530000       2.007790       2.062119       3.759825
       9.540000       2.003873       2.044879       3.917428
       9.550000       1.999294       2.033611       4.088133
       9.560000       1.994993       2.028413       4.273164
       9.570000       1.992008       2.029386       4.473741
       9.580000       1.991347       2.036655       4.690823
       9.590000       1.993856       2.050297       4.924759
       9.600000       2.000098       2.070229       5.174886
       9.610000       2.010300       2.096078       5.439140
       9.620000       2.024348       2.127111       5.713726
       9.630000       2.041873       2.162262       5.992938
       9.640000       2.062391       2.200274       6.269233
       9.650000       2.085487       2.239874       6.533693
       9.660000       2.110985       2.279937       6.776845
       9.670000       2.139017       2.319562       6.989729
       9.680000       2.169974       2.358092       7.164985
       9.690000       2.204339       2.395065       7.297730
       9.700000       2.242436       2.430158       7.386076
       9.710000       2.284180       2.463110       7.431151
       9.720000       2.328853       2.493645       7.436604
       9.730000       2.374966       2.521390       7.407728
       9.740000       2.420267       2.545812       7.350467
       9.750000       2.461957       2.566233       7.270620
       9.760000       2.497129       2.581940       7.173445
       9.770000       2.523349       2.592354       7.063608
       9.780000       2.539206       2.597184       6.945301
       9.790000       2.544608       2.596554       6.822292
       9.800000       2.540738       2.591076       6.697809
       9.810000       2.529688       2.581904       6.574316
       9.820000       2.513960       2.570743       6.453305
       9.830000       2.496012       2.559749       6.335261
       9.840000       2.477933       2.551266       6.219859
       9.850000       2.461270       2.547408       6.106387
       9.860000       2.446941       2.549562       5.994295
       9.870000       2.435207       2.557968       5.883708
       9.880000       2.425685       2.571519       5.775694
       9.890000       2.417391       2.587878       5.672161
       9.900000       2.408854       2.603944       5.575339
       9.910000       2.398322       2.616539       5.487055
       9.920000       2.384057       2.623166       5.408047
       9.930000       2.364638       2.622575       5.337582
       9.940000       2.339200       2.615008       5.273445
       9.950000       2.307528       2.602041       5.212279
       9.960000       2.270026       2.586127       5.150112
       9.970000       2.227614       2.569966       5.082977
       9.980000       2.181585       2.555918       5.007526
       9.990000       2.133449       2.545586       4.921598
      10.000000       2.084748       2.539677       4.824658
      10.010000       2.036845       2.538064       4.718015
      10.020000       1.990728       2.539987       4.604726
      10.030000       1.946861       2.544250       4.489151
      10.040000       1.905140       2.549388       4.376238
      10.050000       1.864972       2.553827       4.270719
      10.060000       1.825480       2.556036       4.176394
      10.070000       1.785758       2.554704       4.095620
      10.080000       1.745125       2.548875       4.029072
      10.090000       1.703285       2.538069       3.975739
      10.100000       1.660383       2.522354       3.933114
      10.110000       1.616973       2.502391       3.897526
      10.120000       1.573925       2.479383       3.864560
      10.130000       1.532316       2.454904       3.829576
      10.140000       1.493296       2.430602       3.788283
      10.150000       1.457953       2.407864       3.737326
      10.160000       1.427195       2.387538       3.674747
      10.170000       1.401649       2.369833       3.600234
      10.180000       1.381613       2.354392       3.515068
      10.190000       1.367046       2.340515       3.421826
      10.200000       1.357602       2.327478       3.323895
      10.210000       1.352697       2.314834       3.224942
      10.220000       1.351565       2.302608       3.128458
      10.230000       1.353307       2.291288       3.037444
      10.240000       1.356921       2.281602       2.954269
      10.250000       1.361336       2.274160       2.880622
      10.260000       1.365494       2.269117       2.817514
      10.270000       1.368474       2.265992       2.765282
      10.280000       1.369644       2.263730       2.723630
      10.290000       1.368784       2.260955       2.691713
      10.300000       1.366135       2.256327       2.668291
      10.310000       1.362339       2.248871       2.651921
      10.320000       1.358315       2.238218       2.641121
      10.330000       1.355098       2.224696       2.634498
      10.340000       1.353687       2.209300       2.630809
      10.350000       1.354941       2.193539       2.629005
      10.360000       1.359490       2.179189       2.628240
      10.370000       1.367679       2.167960       2.627841
      10.380000       1.379515       2.161157       2.627222
      10.390000       1.394647       2.159415       2.625772
      10.400000       1.412397       2.162595       2.622796
      10.410000       1.431864       2.169877       2.617575
      10.420000       1.452085       2.180011       2.609551
      10.430000       1.472230       2.191619       2.598548
      10.440000       1.491739       2.203438       2.584931
      10.450000       1.510357       2.214425       2.569609
      10.460000       1.528019       2.223709       2.553875
      10.470000       1.544644       2.230490       2.539152
      10.480000       1.559934       2.234006       2.526730
      10.490000       1.573261       2.233646       2.517566
      10.500000       1.583703       2.229208       2.512187
      10.510000       1.590223       2.221133       2.510686
      10.520000       1.591917       2.210573       2.512799
      10.530000       1.588256       2.199202       2.518042
      10.540000       1.579243       2.188866       2.525874
      10.550000       1.565441       2.181205       2.535874
      10.560000       1.547878       2.177398       2.547908
      10.570000       1.527859       2.178008       2.562245
      10.580000       1.506708       2.182885       2.579580
      10.590000       1.485525       2.191070       2.600921
      10.600000       1.464997       2.200727       2.627373
      10.610000       1.445313       2.209208       2.659855
      10.620000       1.426187       2.213336       2.698850
      10.630000       1.406989       2.209929       2.744215
      10.640000       1.386955       2.196452       2.795077
      10.650000       1.365415       2.171586       2.849798
      10.660000       1.341975       2.135507       2.906006
      10.670000       1.316579       2.089791       2.960710
      10.680000       1.289468       2.037001       3.010507
      10.690000       1.261071       1.980147       3.051933
      10.700000       1.231903       1.922183       3.081916
      10.710000       1.202513       1.865672       3.098260
      10.720000       1.173492       1.812615       3.100020
      10.730000       1.145504       1.764426       3.087618
      10.740000       1.119316       1.721986       3.062664
      10.750000       1.095786       1.685735       3.027541
      10.760000       1.075807       1.655798       2.984902
      10.770000       1.060226       1.632113       2.937250
      10.780000       1.049754       1.614541       2.886663
      10.790000       1.044901       1.602913       2.834686
      10.800000       1.045917       1.596999       2.782366
      10.810000       1.052771       1.596444       2.730360
      10.820000       1.065136       1.600731       2.679110
      10.830000       1.082406       1.609187       2.629022
      10.840000       1.103736       1.621034       2.580604
      10.850000       1.128104       1.635411       2.534507
      10.860000       1.154381       1.651373       2.491462
      10.870000       1.181395       1.667852       2.452147
      10.880000       1.207967       1.683660       2.417053
      10.890000       1.232944       1.697569       2.386430
      10.900000       1.255225       1.708493       2.360324
      10.910000       1.273813       1.715698       2.338699
      10.920000       1.287862       1.718983       2.321580
      10.930000       1.296703       1.718712       2.309150
      10.940000       1.299849       1.715689       2.301758
      10.950000       1.296993       1.710897       2.299804
      10.960000       1.288031       1.705238       2.303540
      10.970000       1.273145       1.699399       2.312832
      10.980000       1.252891       1.693883       2.326969
      10.990000       1.228242       1.689154       2.344583
      11.000000       1.200518       1.685774       2.363697
      11.010000       1.171208       1.684441       2.381924
      11.020000       1.141721       1.685907       2.396753
      11.030000       1.113183       1.690855       2.405859
      11.040000       1.086333       1.699788       2.407377
      11.050000       1.061545       1.712979       2.400078
      11.060000       1.038939       1.730490       2.383412
      11.070000       1.018535       1.752238       2.357455
      11.080000       1.000378       1.778092       2.322810
      11.090000       0.984620       1.807988       2.280538
      11.100000       0.971529       1.841972       2.232129
      11.110000       0.961445       1.880133       2.179464
      11.120000       0.954685       1.922382       2.124679
      11.130000       0.951454       1.968176       2.069938
      11.140000       0.951759       2.016283       2.017156
      11.150000       0.955368       2.064704       1.967763
      11.160000       0.961817       2.110810       1.922574
      11.170000       0.970460       2.151663       1.881770
      11.180000       0.980559       2.184470       1.845011
      11.190000       0.991385       2.207039       1.811612
      11.200000       1.002311       2.218149       1.780768
      11.210000       1.012866       2.217712       1.751760
      11.220000       1.022724       2.206691       1.724091
      11.230000       1.031629       2.186802       1.697539
      11.240000       1.039272       2.160121       1.672100
      11.250000       1.045193       2.128719       1.647877
      11.260000       1.048735       2.094412       1.624953
      11.270000       1.049110       2.058650       1.603302
      11.280000       1.045546       2.022524       1.582760
      11.290000       1.037471       1.986817       1.563044
      11.300000       1.024662       1.952093       1.543796
      11.310000       1.007326       1.918760       1.524640
      11.320000       0.986075       1.887116       1.505241
      11.330000       0.961812       1.857345       1.485376
      11.340000       0.935566       1.829486       1.464980
      11.350000       0.908338       1.803396       1.444166
      11.360000       0.880985       1.778753       1.423176
      11.370000       0.854191       1.755125       1.402295
      11.380000       0.828484       1.732113       1.381725
      11.390000       0.804284       1.709505       1.361477
      11.400000       0.781945       1.687376       1.341309
      11.410000       0.761771       1.666077       1.320754
      11.420000       0.744005       1.646107       1.299229
      11.430000       0.728807       1.627933       1.276198
      11.440000       0.716215       1.611810       1.251354
      11.450000       0.706129       1.597672       1.224738
      11.460000       0.698301       1.585118       1.196796
      11.470000       0.692361       1.573468       1.168330
      11.480000       0.687858       1.561886       1.140357
      11.490000       0.684319       1.549526       1.113929
      11.500000       0.681296       1.535678       1.089944
      11.510000       0.678416       1.519870       1.069028
      11.520000       0.675404       1.501898       1.051498
      11.530000       0.672104       1.481807       1.037398
      11.540000       0.668491       1.459828       1.026586
      11.550000       0.664682       1.436322       1.018830
      11.560000       0.660933       1.411714       1.013893
      11.570000       0.657610       1.386427       1.011574
      11.580000       0.655130       1.360836       1.011721
      11.590000       0.653902       1.335293       1.014208
      11.600000       0.654266       1.310216       1.018894
      11.610000       0.656449       1.286205       1.025580
      11.620000       0.660546       1.264095       1.033994
      11.630000       0.666506       1.244898       1.043792
      11.640000       0.674149       1.229647       1.054585
      11.650000       0.683195       1.219217       1.065973
      11.660000       0.693327       1.214182       1.077596
      11.670000       0.704247       1.214768       1.089192
      11.680000       0.715736       1.220887       1.100657
      11.690000       0.727674       1.232251       1.112090
      11.700000       0.740034       1.248520       1.123791
      11.710000       0.752843       1.269427       1.136204
      11.720000       0.766121       1.294842       1.149811
      11.730000       0.779808       1.324721       1.165022
      11.740000       0.793706       1.358966       1.182095
      11.750000       0.807469       1.397230       1.201090
      11.760000       0.820640       1.438758       1.221886
      11.770000       0.832737       1.482311       1.244220
      11.780000       0.843343       1.526208       1.267750
      11.790000       0.852170       1.568466       1.292113
      11.800000       0.859084       1.606997       1.316949
      11.810000       0.864108       1.639806       1.341905
      11.820000       0.867403       1.665197       1.366603
      11.830000       0.869263       1.681949       1.390619
      11.840000       0.870103       1.689492       1.413469
      11.850000       0.870451       1.687994       1.434645
      11.860000       0.870901       1.678356       1.453639
      11.870000       0.872047       1.662080       1.469987
      11.880000       0.874394       1.641074       1.483280
      11.890000       0.878296       1.617429       1.493165
      11.900000       0.883933       1.593189       1.499340
      11.910000       0.891347       1.570136       1.501548
      11.920000       0.900495       1.549598       1.499591
      11.930000       0.911292       1.532341       1.493345
      11.940000       0.923628       1.518573       1.482785
      11.950000       0.937326       1.508055       1.468022
      11.960000       0.952085       1.500260       1.449347
      11.970000       0.967425       1.494503       1.427262
      11.980000       0.982655       1.490001       1.402481
      11.990000       0.996874       1.485883       1.375876
      12.000000       1.009000       1.481205       1.348370
      12.010000       1.017835       1.475060       1.320810
      12.020000       1.022194       1.466753       1.293862
      12.030000       1.021072       1.456017       1.267945
      12.040000       1.013823       1.443152       1.243211
      12.050000       1.000290       1.429046       1.219574
      12.060000       0.980853       1.415028       1.196769
      12.070000       0.956384       1.402617       1.174447
      12.080000       0.928134       1.393230       1.152287
      12.090000       0.897570       1.387921       1.130098
      12.100000       0.866208       1.387201       1.107881
      12.110000       0.835452       1.390970       1.085835
      12.120000       0.806473       1.398564       1.064305
      12.130000       0.780138       1.408891       1.043685
      12.140000       0.756986       1.420594       1.024334
      12.150000       0.737230       1.432200       1.006518
      12.160000       0.720794       1.442229       0.990417
      12.170000       0.707353       1.449275       0.976157
      12.180000       0.696403       1.452098       0.963863
      12.190000       0.687346       1.449742       0.953674
      12.200000       0.679587       1.441630       0.945723
      12.210000       0.672630       1.427612       0.940087
      12.220000       0.666129       1.407937       0.936716
      12.230000       0.659891       1.383181       0.935396
      12.240000       0.653845       1.354163       0.935742
      12.250000       0.647995       1.321898       0.937241
      12.260000       0.642376       1.287569       0.939328
      12.270000       0.637034       1.252509       0.941455
      12.280000       0.631996       1.218138       0.943147
      12.290000       0.627263       1.185846       0.944002
      12.300000       0.622798       1.156844       0.943677
      12.310000       0.618542       1.132013       0.941858
      12.320000       0.614437       1.111816       0.938278
      12.330000       0.610450       1.096275       0.932760
      12.340000       0.606583       1.085033       0.925282
      12.350000       0.602849       1.077483       0.916021
      12.360000       0.599240       1.072939       0.905329
      12.370000       0.595698       1.070815       0.893652
      12.380000       0.592110       1.070754       0.881412
      12.390000       0.588351       1.072697       0.868916
      12.400000       0.584360       1.076860       0.856318
      12.410000       0.580206       1.083637       0.843653
      12.420000       0.576131       1.093457       0.830907
      12.430000       0.572509       1.106625       0.818105
      12.440000       0.569770       1.123174       0.805377
      12.450000       0.568296       1.142784       0.792983
      12.460000       0.568331       1.164784       0.781287
      12.470000       0.569950       1.188235       0.770709
      12.480000       0.573055       1.212060       0.761664
      12.490000       0.577412       1.235158       0.754513
      12.500000       0.582690       1.256465       0.749529
      12.510000       0.588505       1.274977       0.746889
      12.520000       0.594452       1.289785       0.746673
      12.530000       0.600145       1.300160       0.748876
      12.540000       0.605257       1.305677       0.753441
      12.550000       0.609552       1.306309       0.760281
      12.560000       0.612904       1.302422       0.769300
      12.570000       0.615282       1.294667       0.780402
      12.580000       0.616714       1.283807       0.793486
      12.590000       0.617257       1.270567       0.808428
      12.600000       0.616980       1.255556       0.825066
      12.610000       0.615983       1.239266       0.843171
      12.620000       0.614436       1.222110       0.862419
      12.630000       0.612594       1.204439       0.882370
      12.640000       0.610791       1.186544       0.902457
      12.650000       0.609392       1.168633       0.921999
      12.660000       0.608729       1.150834       0.940250
      12.670000       0.609041       1.133222       0.956467
      12.680000       0.610440       1.115877       0.969987
      12.690000       0.612903       1.098936       0.980297
      12.700000       0.616287       1.082613       0.987089
      12.710000       0.620351       1.067175       0.990292
      12.720000       0.624777       1.052886       0.990085
      12.730000       0.629196       1.039945       0.986870
      12.740000       0.633230       1.028428       0.981210
      12.750000       0.636551       1.018260       0.973728
      12.760000       0.638940       1.009238       0.965006
      12.770000       0.640327       1.001095       0.955501
      12.780000       0.640781       0.993570       0.945498
      12.790000       0.640476       0.986461       0.935104
      12.800000       0.639623       0.979607       0.924282
      12.810000       0.638429       0.972843       0.912919
      12.820000       0.637072       0.965965       0.900917
      12.830000       0.635705       0.958760       0.888281
      12.840000       0.634457       0.951075       0.875178
      12.850000       0.633419       0.942885       0.861939
      12.860000       0.632635       0.934306       0.849000
      12.870000       0.632094       0.925544       0.836826
      12.880000       0.631762       0.916824       0.825831
      12.890000       0.631620       0.908341       0.816336
      12.900000       0.631717       0.900256       0.808570
      12.910000       0.632187       0.892714       0.802702
      12.920000       0.633229       0.885870       0.798876
      12.930000       0.635061       0.879898       0.797235
      12.940000       0.637865       0.875006       0.797934
      12.950000       0.641746       0.871458       0.801124
      12.960000       0.646714       0.869566       0.806938
      12.970000       0.652683       0.869650       0.815470
      12.980000       0.659470       0.871939       0.826766
      12.990000       0.666803       0.876453       0.840827
      13.000000       0.674340       0.882907       0.857619
      13.010000       0.681708       0.890697       0.877096
      13.020000       0.688560       0.898986       0.899215
      13.030000       0.694640       0.906901       0.923932
      13.040000       0.699827       0.913767       0.951190
      13.050000       0.704156       0.919327       0.980886
      13.060000       0.707813       0.923833       1.012827
      13.070000       0.711091       0.927987       1.046696
      13.080000       0.714329       0.932741       1.082013
      13.090000       0.717849       0.939030       1.118128
      13.100000       0.721901       0.947500       1.154239
      13.110000       0.726638       0.958324       1.189456
      13.120000       0.732101       0.971116       1.222883
      13.130000       0.738207       0.984981       1.253723
      13.140000       0.744729       0.998693       1.281368
      13.150000       0.751283       1.010950       1.305472
      13.160000       0.757350       1.020650       1.325990
      13.170000       0.762324       1.027082       1.343177
      13.180000       0.765601       1.029978       1.357522
      13.190000       0.766670       1.029445       1.369634
      13.200000       0.765171       1.025845       1.380098
      13.210000       0.760909       1.019686       1.389343
      13.220000       0.753827       1.011580       1.397584
      13.230000       0.743971       1.002217       1.404856
      13.240000       0.731473       0.992338       1.411114
      13.250000       0.716549       0.982675       1.416363
      13.260000       0.699523       0.973865       1.420749
      13.270000       0.680827       0.966349       1.424573
      13.280000       0.660995       0.960310       1.428222
      13.290000       0.640626       0.955662       1.432081
      13.300000       0.620328       0.952105       1.436432
      13.310000       0.600671       0.949241       1.441401
      13.320000       0.582141       0.946698       1.446949
      13.330000       0.565115       0.944236       1.452902
      13.340000       0.549846       0.941780       1.458991
      13.350000       0.536449       0.939394       1.464877
      13.360000       0.524912       0.937202       1.470146
      13.370000       0.515107       0.935269       1.474284
      13.380000       0.506828       0.933499       1.476674
      13.390000       0.499836       0.931548       1.476645
      13.400000       0.493911       0.928819       1.473584
      13.410000       0.488894       0.924548       1.467078
      13.420000       0.484714       0.917993       1.457023
      13.430000       0.481398       0.908647       1.443669
      13.440000       0.479050       0.896394       1.427589
      13.450000       0.477806       0.881535       1.409576
      13.460000       0.477782       0.864688       1.390533
      13.470000       0.479021       0.846618       1.371362
      13.480000       0.481453       0.828099       1.352897
      13.490000       0.484889       0.809835       1.335858
      13.500000       0.489050       0.792442       1.320820
      13.510000       0.493613       0.776454       1.308169
      13.520000       0.498272       0.762309       1.298052
      13.530000       0.502792       0.750314       1.290321
      13.540000       0.507033       0.740582       1.284508
      13.550000       0.510934       0.732974       1.279859
      13.560000       0.514463       0.727070       1.275424
      13.570000       0.517548       0.722193       1.270203
      13.580000       0.520031       0.717511       1.263298
      13.590000       0.521659       0.712178       1.254046
      13.600000       0.522130       0.705501       1.242094
      13.610000       0.521170       0.697066       1.227414
      13.620000       0.518611       0.686781       1.210265
      13.630000       0.514439       0.674835       1.191130
      13.640000       0.508812       0.661589       1.170631
      13.650000       0.502037       0.647461       1.149438
      13.660000       0.494518       0.632846       1.128196
      13.670000       0.486704       0.618091       1.107466
      13.680000       0.479043       0.603514       1.087692
      13.690000       0.471935       0.589430       1.069203
      13.700000       0.465710       0.576173       1.052226
      13.710000       0.460612       0.564083       1.036919
      13.720000       0.456789       0.553476       1.023404
      13.730000       0.454285       0.544599       1.011795
      13.740000       0.453042       0.537591       1.002209
      13.750000       0.452911       0.532478       0.994766
      13.760000       0.453670       0.529187       0.989576
      13.770000       0.455067       0.527595       0.986723
      13.780000       0.456856       0.527591       0.986245
      13.790000       0.458837       0.529129       0.988110
      13.800000       0.460864       0.532248       0.992202
      13.810000       0.462835       0.537060       0.998298
      13.820000       0.464656       0.543688       1.006031
      13.830000       0.466207       0.552197       1.014854
      13.840000       0.467322       0.562531       1.023995
      13.850000       0.467797       0.574475       1.032454
      13.860000       0.467429       0.587663       1.039058
      13.870000       0.466060       0.601616       1.042610
      13.880000       0.463614       0.615806       1.042097
      13.890000       0.460121       0.629720       1.036907
      13.900000       0.455710       0.642915       1.026961
      13.910000       0.450583       0.655061       1.012698
      13.920000       0.444986       0.665972       0.994947
      13.930000       0.439172       0.675623       0.974726
      13.940000       0.433376       0.684130       0.953060
      13.950000       0.427792       0.691717       0.930863
      13.960000       0.422567       0.698654       0.908886
      13.970000       0.417795       0.705202       0.887730
      13.980000       0.413536       0.711574       0.867871
      13.990000       0.409830       0.717908       0.849691
      14.000000       0.406712       0.724272       0.833492
      14.010000       0.404214       0.730685       0.819503
      14.020000       0.402353       0.737156       0.807877
      14.030000       0.401118       0.743707       0.798698
      14.040000       0.400448       0.750371       0.791984
      14.050000       0.400239       0.757142       0.787684
      14.060000       0.400345       0.763924       0.785663
      14.070000       0.400608       0.770472       0.785688
      14.080000       0.400883       0.776366       0.787412
      14.090000       0.401062       0.781010       0.790373
      14.100000       0.401096       0.783680       0.794013
      14.110000       0.401003       0.783630       0.797708
      14.120000       0.400868       0.780237       0.800836
      14.130000       0.400820       0.773152       0.802826
      14.140000       0.400988       0.762392       0.803216
      14.150000       0.401450       0.748345       0.801689
      14.160000       0.402185       0.731701       0.798099
      14.170000       0.403051       0.713326       0.792495
      14.180000       0.403810       0.694134       0.785122
      14.190000       0.404174       0.674976       0.776390
      14.200000       0.403894       0.656568       0.766823
      14.210000       0.402834       0.639447       0.756976
      14.220000       0.401030       0.623966       0.747356
      14.230000       0.398686       0.610301       0.738366
      14.240000       0.396125       0.598480       0.730258
      14.250000       0.393700       0.588423       0.723138
      14.260000       0.391711       0.579979       0.716974
      14.270000       0.390350       0.572972       0.711640
      14.280000       0.389687       0.567228       0.706962
      14.290000       0.389694       0.562593       0.702778
      14.300000       0.390293       0.558940       0.698979
      14.310000       0.391404       0.556146       0.695549
      14.320000       0.392978       0.554066       0.692556
      14.330000       0.395006       0.552497       0.690133
      14.340000       0.397502       0.551164       0.688427
      14.350000       0.400478       0.549742       0.687555
      14.360000       0.403916       0.547894       0.687577
      14.370000       0.407760       0.545337       0.688481
      14.380000       0.411928       0.541883       0.690208
      14.390000       0.416334       0.537459       0.692678
      14.400000       0.420916       0.532109       0.695836
      14.410000       0.425649       0.525981       0.699692
      14.420000       0.430530       0.519312       0.704327
      14.430000       0.435549       0.512399       0.709879
      14.440000       0.440655       0.505549       0.716467
      14.450000       0.445729       0.499015       0.724102
      14.460000       0.450581       0.492948       0.732588
      14.470000       0.454957       0.487390       0.741450
      14.480000       0.458554       0.482296       0.749943
      14.490000       0.461040       0.477609       0.757142
      14.500000       0.462087       0.473324       0.762124
      14.510000       0.461417       0.469551       0.764177
      14.520000       0.458859       0.466518       0.762975
      14.530000       0.454392       0.464537       0.758635
      14.540000       0.448176       0.463944       0.751646
      14.550000       0.440532       0.465013       0.742707
      14.560000       0.431900       0.467903       0.732543
      14.570000       0.422755       0.472607       0.721771
      14.580000       0.413525       0.478943       0.710824
      14.590000       0.404527       0.486570       0.699939
      14.600000       0.395936       0.495025       0.689183
      14.610000       0.387799       0.503787       0.678506
      14.620000       0.380071       0.512341       0.667798
      14.630000       0.372664       0.520242       0.656947
      14.640000       0.365492       0.527165       0.645881
      14.650000       0.358498       0.532934       0.634605
      14.660000       0.351663       0.537530       0.623214
      14.670000       0.345005       0.541071       0.611898
      14.680000       0.338563       0.543770       0.600919
      14.690000       0.332382       0.545887       0.590572
      14.700000       0.326501       0.547687       0.581127
      14.710000       0.320948       0.549396       0.572775
      14.720000       0.315734       0.551180       0.565589
      14.730000       0.310864       0.553125       0.559509
      14.740000       0.306334       0.555242       0.554341
      14.750000       0.302138       0.557492       0.549784
      14.760000       0.298256       0.559822       0.545466
      14.770000       0.294645       0.562187       0.540995
      14.780000       0.291237       0.564569       0.536010
      14.790000       0.287956       0.566977       0.530233
      14.800000       0.284739       0.569454       0.523502
      14.810000       0.281565       0.572097       0.515791
      14.820000       0.278459       0.575054       0.507209
      14.830000       0.275487       0.578511       0.497977
      14.840000       0.272723       0.582653       0.488392
      14.850000       0.270220       0.587616       0.478783
      14.860000       0.267998       0.593461       0.469458
      14.870000       0.266036       0.600181       0.460664
      14.880000       0.264288       0.607738       0.452564
      14.890000       0.262693       0.616122       0.445226
      14.900000       0.261186       0.625384       0.438641
      14.910000       0.259715       0.635637       0.432743
      14.920000       0.258252       0.647012       0.427438
      14.930000       0.256795       0.659581       0.422626
      14.940000       0.255375       0.673280       0.418224
      14.950000       0.254049       0.687840       0.414173
      14.960000       0.252894       0.702744       0.410443
      14.970000       0.251994       0.717231       0.407026
      14.980000       0.251443       0.730346       0.403929
      14.990000       0.251325       0.741051       0.401166
      15.000000       0.251717       0.748387       0.398763
      15.010000       0.252667       0.751673       0.396763
      15.020000       0.254183       0.750663       0.395244
      15.030000       0.256220       0.745627       0.394320
      15.040000       0.258672       0.737293       0.394144
      15.050000       0.261372       0.726696       0.394886
      15.060000       0.264117       0.714952       0.396708
      15.070000       0.266703       0.703074       0.399741
      15.080000       0.268977       0.691847       0.404056
      15.090000       0.270872       0.681793       0.409656
      15.100000       0.272425       0.673192       0.416469
      15.110000       0.273750       0.666130       0.424369
      15.120000       0.275000       0.660540       0.433190
      15.130000       0.276311       0.656223       0.442750
      15.140000       0.277761       0.652853       0.452858
      15.150000       0.279363       0.649997       0.463303
      15.160000       0.281064       0.647150       0.473839
      15.170000       0.282774       0.643818       0.484171
      15.180000       0.284387       0.639610       0.493948
      15.190000       0.285803       0.634323       0.502781
      15.200000       0.286927       0.627991       0.510267
      15.210000       0.287671       0.620876       0.516029
      15.220000       0.287944       0.613401       0.519760
      15.230000       0.287662       0.606063       0.521260
      15.240000       0.286755       0.599326       0.520463
      15.250000       0.285188       0.593532       0.517438
      15.260000       0.282974       0.588846       0.512372
      15.270000       0.280180       0.585246       0.505526
      15.280000       0.276926       0.582547       0.497201
      15.290000       0.273366       0.580470       0.487706
      15.300000       0.269671       0.578716       0.477344
      15.310000       0.265989       0.577043       0.466409
      15.320000       0.262422       0.575320       0.455194
      15.330000       0.259014       0.573554       0.443994
      15.340000       0.255756       0.571888       0.433098
      15.350000       0.252613       0.570576       0.422764
      15.360000       0.249558       0.569944       0.413196
      15.370000       0.246604       0.570332       0.404522
      15.380000       0.243815       0.572027       0.396781
      15.390000       0.241300       0.575200       0.389924
      15.400000       0.239191       0.579871       0.383819
      15.410000       0.237614       0.585904       0.378274
      15.420000       0.236663       0.593037       0.373060
      15.430000       0.236376       0.600926       0.367950
      15.440000       0.236727       0.609183       0.362761
      15.450000       0.237620       0.617414       0.357389
      15.460000       0.238896       0.625243       0.351823
      15.470000       0.240356       0.632351       0.346134
      15.480000       0.241786       0.638501       0.340444
      15.490000       0.243005       0.643552       0.334898
      15.500000       0.243896       0.647431       0.329623
      15.510000       0.244431       0.650087       0.324717
      15.520000       0.244664       0.651456       0.320232
      15.530000       0.244712       0.651461       0.316179
      15.540000       0.244713       0.650043       0.312535
      15.550000       0.244788       0.647215       0.309250
      15.560000       0.245011       0.643101       0.306263
      15.570000       0.245401       0.637940       0.303516
      15.580000       0.245927       0.632064       0.300966
      15.590000       0.246543       0.625853       0.298599
      15.600000       0.247218       0.619699       0.296435
      15.610000       0.247972       0.613988       0.294526
      15.620000       0.248881       0.609108       0.292945
      15.630000       0.250062       0.605461       0.291759
      15.640000       0.251632       0.603451       0.291023
      15.650000       0.253671       0.603449       0.290758
      15.660000       0.256190       0.605722       0.290958
      15.670000       0.259136       0.610368       0.291596
      15.680000       0.262404       0.617274       0.292641
      15.690000       0.265875       0.626116       0.294075
      15.700000       0.269438       0.636412       0.295890
      15.710000       0.273011       0.647608       0.298093
      15.720000       0.276534       0.659177       0.300684
      15.730000       0.279947       0.670694       0.303648
      15.740000       0.283176       0.681857       0.306942
      15.750000       0.286120       0.692447       0.310502
      15.760000       0.288652       0.702236       0.314252
      15.770000       0.290631       0.710903       0.318117
      15.780000       0.291905       0.717995       0.322034
      15.790000       0.292317       0.722959       0.325954
      15.800000       0.291710       0.725258       0.329845
      15.810000       0.289943       0.724512       0.333688
      15.820000       0.286916       0.720623       0.337478
      15.830000       0.282601       0.713831       0.341228
      15.840000       0.277064       0.704676       0.344974
      15.850000       0.270466       0.693890       0.348773
      15.860000       0.263050       0.682249       0.352695
      15.870000       0.255102       0.670445       0.356817
      15.880000       0.246916       0.658995       0.361202
      15.890000       0.238759       0.648211       0.365888
      15.900000       0.230858       0.638232       0.370874
      15.910000       0.223392       0.629073       0.376114
      15.920000       0.216494       0.620696       0.381522
      15.930000       0.210260       0.613059       0.386969
      15.940000       0.204746       0.606140       0.392288
      15.950000       0.199981       0.599953       0.397275
      15.960000       0.195963       0.594539       0.401695
      15.970000       0.192672       0.589964       0.405289
      15.980000       0.190071       0.586318       0.407796
      15.990000       0.188113       0.583697       0.408986
      16.000000       0.186744       0.582190       0.408694
      16.010000       0.185900       0.581845       0.406847
      16.020000       0.185512       0.582638       0.403479
      16.030000       0.185501       0.584456       0.398723
      16.040000       0.185785       0.587106       0.392786
      16.050000       0.186277       0.590339       0.385934
      16.060000       0.186884       0.593887       0.378463
      16.070000       0.187511       0.597500       0.370676
      16.080000       0.188063       0.600974       0.362850
      16.090000       0.188455       0.604159       0.355201
      16.100000       0.188628       0.606959       0.347860
      16.110000       0.188548       0.609316       0.340872
      16.120000       0.188213       0.611198       0.334218
      16.130000       0.187639       0.612583       0.327847
      16.140000       0.186853       0.613450       0.321712
      16.150000       0.185882       0.613770       0.315787
      16.160000       0.184756       0.613501       0.310063
      16.170000       0.183511       0.612586       0.304538
      16.180000       0.182195       0.610961       0.299202
      16.190000       0.180869       0.608561       0.294029
      16.200000       0.179591       0.605334       0.288978
      16.210000       0.178406       0.601256       0.284012
      16.220000       0.177327       0.596350       0.279102
      16.230000       0.176330       0.590701       0.274238
      16.240000       0.175352       0.584454       0.269427
      16.250000       0.174302       0.577803       0.264689
      16.260000       0.173083       0.570957       0.260052
      16.270000       0.171614       0.564114       0.255540
      16.280000       0.169856       0.557431       0.251175
      16.290000       0.167821       0.551014       0.246975
      16.300000       0.165572       0.544920       0.242946
      16.310000       0.163209       0.539172       0.239088
      16.320000       0.160850       0.533770       0.235393
      16.330000       0.158615       0.528711       0.231845
      16.340000       0.156612       0.524010       0.228433
      16.350000       0.154929       0.519714       0.225149
      16.360000       0.153639       0.515909       0.222003
      16.370000       0.152802       0.512697       0.219020
      16.380000       0.152465       0.510174       0.216242
      16.390000       0.152665       0.508392       0.213720
      16.400000       0.153422       0.507346       0.211509
      16.410000       0.154735       0.506962       0.209657
      16.420000       0.156574       0.507114       0.208200
      16.430000       0.158880       0.507636       0.207150
      16.440000       0.161570       0.508344       0.206496
      16.450000       0.164543       0.509057       0.206200
      16.460000       0.167702       0.509640       0.206200
      16.470000       0.170971       0.510032       0.206421
      16.480000       0.174303       0.510278       0.206787
      16.490000       0.177684       0.510531       0.207232
      16.500000       0.181116       0.511023       0.207711
      16.510000       0.184606       0.512008       0.208205
      16.520000       0.188154       0.513687       0.208724
      16.530000       0.191742       0.516141       0.209301
      16.540000       0.195326       0.519282       0.209992
      16.550000       0.198831       0.522846       0.210856
      16.560000       0.202145       0.526429       0.211947
      16.570000       0.205119       0.529555       0.213296
      16.580000       0.207583       0.531780       0.214907
      16.590000       0.209369       0.532772       0.216761
      16.600000       0.210346       0.532378       0.218823
      16.610000       0.210451       0.530633       0.221070
      16.620000       0.209707       0.527735       0.223497
      16.630000       0.208224       0.523987       0.226131
      16.640000       0.206177       0.519728       0.229023
      16.650000       0.203777       0.515274       0.232242
      16.660000       0.201234       0.510875       0.235855
      16.670000       0.198733       0.506707       0.239916
      16.680000       0.196416       0.502888       0.244450
      16.690000       0.194378       0.499496       0.249442
      16.700000       0.192664       0.496600       0.254844
      16.710000       0.191275       0.494257       0.260575
      16.720000       0.190171       0.492502       0.266524
      16.730000       0.189287       0.491336       0.272556
      16.740000       0.188548       0.490712       0.278509
      16.750000       0.187893       0.490542       0.284193
      16.760000       0.187295       0.490710       0.289403
      16.770000       0.186771       0.491083       0.293927
      16.780000       0.186375       0.491531       0.297570
      16.790000       0.186187       0.491934       0.300174
      16.800000       0.186286       0.492208       0.301638
      16.810000       0.186729       0.492314       0.301928
      16.820000       0.187542       0.492280       0.301071
      16.830000       0.188705       0.492190       0.299137
      16.840000       0.190161       0.492157       0.296219
      16.850000       0.191817       0.492280       0.292415
      16.860000       0.193563       0.492600       0.287820
      16.870000       0.195285       0.493084       0.282533
      16.880000       0.196888       0.493624       0.276660
      16.890000       0.198296       0.494060       0.270324
      16.900000       0.199459       0.494203       0.263668
      16.910000       0.200349       0.493864       0.256842
      16.920000       0.200955       0.492881       0.250002
      16.930000       0.201277       0.491151       0.243291
      16.940000       0.201336       0.488647       0.236832
      16.950000       0.201169       0.485429       0.230723
      16.960000       0.200839       0.481628       0.225030
      16.970000       0.200427       0.477402       0.219790
      16.980000       0.200019       0.472892       0.215012
      16.990000       0.199682       0.468184       0.210687
      17.000000       0.199453       0.463290       0.206792
      17.010000       0.199323       0.458156       0.203308
      17.020000       0.199240       0.452705       0.200226
      17.030000       0.199119       0.446878       0.197553
      17.040000       0.198853       0.440685       0.195306
      17.050000       0.198325       0.434237       0.193505
      17.060000       0.197417       0.427736       0.192167
      17.070000       0.196021       0.421441       0.191292
      17.080000       0.194053       0.415611       0.190861
      17.090000       0.191464       0.410452       0.190835
      17.100000       0.188263       0.406082       0.191154
      17.110000       0.184519       0.402529       0.191734
      17.120000       0.180364       0.399746       0.192477
      17.130000       0.175973       0.397633       0.193266
      17.140000       0.171534       0.396059       0.193978
      17.150000       0.167216       0.394871       0.194487
      17.160000       0.163147       0.393916       0.194683
      17.170000       0.159401       0.393055       0.194477
      17.180000       0.156007       0.392185       0.193819
      17.190000       0.152961       0.391236       0.192707
      17.200000       0.150239       0.390159       0.191190
      17.210000       0.147813       0.388912       0.189368
      17.220000       0.145660       0.387444       0.187389
      17.230000       0.143772       0.385708       0.185432
      17.240000       0.142156       0.383685       0.183692
      17.250000       0.140831       0.381400       0.182354
      17.260000       0.139822       0.378948       0.181579
      17.270000       0.139149       0.376478       0.181486
      17.280000       0.138815       0.374181       0.182149
      17.290000       0.138799       0.372245       0.183595
      17.300000       0.139050       0.370816       0.185807
      17.310000       0.139494       0.369975       0.188726
      17.320000       0.140048       0.369720       0.192259
      17.330000       0.140638       0.369972       0.196284
      17.340000       0.141215       0.370582       0.200665
      17.350000       0.141750       0.371345       0.205262
      17.360000       0.142233       0.372021       0.209951
      17.370000       0.142644       0.372361       0.214631
      17.380000       0.142951       0.372139       0.219236
      17.390000       0.143099       0.371176       0.223738
      17.400000       0.143019       0.369367       0.228155
      17.410000       0.142653       0.366692       0.232545
      17.420000       0.141961       0.363211       0.237003
      17.430000       0.140943       0.359059       0.241654
      17.440000       0.139641       0.354424       0.246631
      17.450000       0.138132       0.349528       0.252063
      17.460000       0.136517       0.344600       0.258058
      17.470000       0.134903       0.339852       0.264682
      17.480000       0.133379       0.335463       0.271954
      17.490000       0.132014       0.331566       0.279838
      17.500000       0.130847       0.328255       0.288244
      17.510000       0.129897       0.325587       0.297035
      17.520000       0.129161       0.323585       0.306043
      17.530000       0.128627       0.322233       0.315081
      17.540000       0.128272       0.321476       0.323951
      17.550000       0.128066       0.321225       0.332456
      17.560000       0.127980       0.321374       0.340400
      17.570000       0.127985       0.321812       0.347598
      17.580000       0.128065       0.322429       0.353879
      17.590000       0.128208       0.323112       0.359100
      17.600000       0.128409       0.323732       0.363146
      17.610000       0.128665       0.324125       0.365937
      17.620000       0.128966       0.324102       0.367427
      17.630000       0.129301       0.323477       0.367605
      17.640000       0.129658       0.322107       0.366501
      17.650000       0.130023       0.319938       0.364192
      17.660000       0.130386       0.317024       0.360804
      17.670000       0.130726       0.313534       0.356505
      17.680000       0.131022       0.309716       0.351489
      17.690000       0.131242       0.305869       0.345951
      17.700000       0.131356       0.302289       0.340070
      17.710000       0.131341       0.299227       0.333992
      17.720000       0.131186       0.296850       0.327829
      17.730000       0.130904       0.295210       0.321671
      17.740000       0.130525       0.294241       0.315586
      17.750000       0.130097       0.293769       0.309630
      17.760000       0.129675       0.293556       0.303840
      17.770000       0.129308       0.293347       0.298230
      17.780000       0.129030       0.292939       0.292788
      17.790000       0.128857       0.292208       0.287488
      17.800000       0.128778       0.291129       0.282296
      17.810000       0.128756       0.289740       0.277189
      17.820000       0.128732       0.288107       0.272158
      17.830000       0.128638       0.286284       0.267211
      17.840000       0.128412       0.284298       0.262366
      17.850000       0.128020       0.282160       0.257646
      17.860000       0.127467       0.279892       0.253071
      17.870000       0.126800       0.277558       0.248651
      17.880000       0.126104       0.275275       0.244384
      17.890000       0.125481       0.273212       0.240255
      17.900000       0.125034       0.271565       0.236236
      17.910000       0.124849       0.270525       0.232299
      17.920000       0.124982       0.270238       0.228423
      17.930000       0.125451       0.270775       0.224603
      17.940000       0.126239       0.272109       0.220864
      17.950000       0.127298       0.274104       0.217256
      17.960000       0.128562       0.276509       0.213851
      17.970000       0.129961       0.278987       0.210722
      17.980000       0.131434       0.281142       0.207931
      17.990000       0.132941       0.282587       0.205517
      18.000000       0.134465       0.282998       0.203485
      18.010000       0.136008       0.282179       0.201814
      18.020000       0.137582       0.280098       0.200459
      18.030000       0.139198       0.276887       0.199351
      18.040000       0.140862       0.272807       0.198407
      18.050000       0.142571       0.268177       0.197533
      18.060000       0.144307       0.263304       0.196643
      18.070000       0.146033       0.258433       0.195672
      18.080000       0.147690       0.253719       0.194593
      18.090000       0.149197       0.249243       0.193427
      18.100000       0.150459       0.245026       0.192233
      18.110000       0.151382       0.241060       0.191103
      18.120000       0.151886       0.237325       0.190138
      18.130000       0.151919       0.233801       0.189424
      18.140000       0.151457       0.230480       0.189024
      18.150000       0.150506       0.227376       0.188967
      18.160000       0.149103       0.224530       0.189254
      18.170000       0.147312       0.222007       0.189865
      18.180000       0.145223       0.219884       0.190773
      18.190000       0.142950       0.218234       0.191950
      18.200000       0.140616       0.217112       0.193371
      18.210000       0.138338       0.216543       0.195012
      18.220000       0.136212       0.216506       0.196855
      18.230000       0.134293       0.216935       0.198875
      18.240000       0.132593       0.217718       0.201037
      18.250000       0.131084       0.218715       0.203294
      18.260000       0.129709       0.219774       0.205583
      18.270000       0.128406       0.220754       0.207830
      18.280000       0.127125       0.221556       0.209964
      18.290000       0.125846       0.222135       0.211921
      18.300000       0.124580       0.222511       0.213652
      18.310000       0.123362       0.222753       0.215120
      18.320000       0.122227       0.222956       0.216291
      18.330000       0.121200       0.223207       0.217124
      18.340000       0.120280       0.223561       0.217563
      18.350000       0.119441       0.224028       0.217551
      18.360000       0.118643       0.224587       0.217053
      18.370000       0.117847       0.225194       0.216075
      18.380000       0.117023       0.225800       0.214684
      18.390000       0.116163       0.226357       0.213001
      18.400000       0.115275       0.226815       0.211177
      18.410000       0.114388       0.227131       0.209359
      18.420000       0.113540       0.227271       0.207654
      18.430000       0.112775       0.227217       0.206110
      18.440000       0.112135       0.226981       0.204717
      18.450000       0.111653       0.226595       0.203420
      18.460000       0.111348       0.226107       0.202144
      18.470000       0.111223       0.225568       0.200814
      18.480000       0.111265       0.225031       0.199378
      18.490000       0.111448       0.224551       0.197809
      18.500000       0.111734       0.224192       0.196110
      18.510000       0.112075       0.224024       0.194301
      18.520000       0.112422       0.224113       0.192411
      18.530000       0.112730       0.224506       0.190464
      18.540000       0.112966       0.225221       0.188478
      18.550000       0.113118       0.226242       0.186458
      18.560000       0.113192       0.227527       0.184410
      18.570000       0.113205       0.229014       0.182346
      18.580000       0.113175       0.230630       0.180296
      18.590000       0.113107       0.232299       0.178308
      18.600000       0.112990       0.233941       0.176454
      18.610000       0.112798       0.235482       0.174814
      18.620000       0.112499       0.236855       0.173473
      18.630000       0.112070       0.238009       0.172502
      18.640000       0.111501       0.238901       0.171951
      18.650000       0.110802       0.239494       0.171849
      18.660000       0.109999       0.239745       0.172197
      18.670000       0.109122       0.239613       0.172976
      18.680000       0.108200       0.239057       0.174146
      18.690000       0.107258       0.238054       0.175656
      18.700000       0.106315       0.236608       0.177440
      18.710000       0.105388       0.234753       0.179430
      18.720000       0.104496       0.232545       0.181559
      18.730000       0.103660       0.230050       0.183768
      18.740000       0.102906       0.227322       0.186013
      18.750000       0.102261       0.224397       0.188267
      18.760000       0.101746       0.221285       0.190522
      18.770000       0.101372       0.217979       0.192791
      18.780000       0.101135       0.214481       0.195102
      18.790000       0.101017       0.210808       0.197483
      18.800000       0.100989       0.207016       0.199956
      18.810000       0.101016       0.203191       0.202514
      18.820000       0.101066       0.199446       0.205121
      18.830000       0.101113       0.195893       0.207710
      18.840000       0.101142       0.192631       0.210197
      18.850000       0.101148       0.189724       0.212496
      18.860000       0.101125       0.187203       0.214537
      18.870000       0.101068       0.185065       0.216267
      18.880000       0.100967       0.183286       0.217662
      18.890000       0.100810       0.181828       0.218720
      18.900000       0.100581       0.180646       0.219457
      18.910000       0.100260       0.179689       0.219899
      18.920000       0.099827       0.178899       0.220068
      18.930000       0.099257       0.178218       0.219972
      18.940000       0.098535       0.177589       0.219589
      18.950000       0.097652       0.176978       0.218865
      18.960000       0.096621       0.176384       0.217722
      18.970000       0.095472       0.175845       0.216074
      18.980000       0.094250       0.175434       0.213860
      18.990000       0.093001       0.175243       0.211065
      19.000000       0.091765       0.175357       0.207737
      19.010000       0.090563       0.175842       0.203976
      19.020000       0.089399       0.176730       0.199921
      19.030000       0.088258       0.178017       0.195720
      19.040000       0.087120       0.179668       0.191513
      19.050000       0.085965       0.181617       0.187418
      19.060000       0.084785       0.183773       0.183534
      19.070000       0.083589       0.186017       0.179945
      19.080000       0.082400       0.188203       0.176723
      19.090000       0.081251       0.190163       0.173928
      19.100000       0.080174       0.191714       0.171607
      19.110000       0.079191       0.192685       0.169792
      19.120000       0.078311       0.192945       0.168495
      19.130000       0.077525       0.192437       0.167716
      19.140000       0.076816       0.191200       0.167442
      19.150000       0.076163       0.189365       0.167652
      19.160000       0.075551       0.187126       0.168316
      19.170000       0.074979       0.184700       0.169389
      19.180000       0.074457       0.182290       0.170811
      19.190000       0.074006       0.180051       0.172499
      19.200000       0.073652       0.178073       0.174348
      19.210000       0.073417       0.176373       0.176236
      19.220000       0.073310       0.174904       0.178028
      19.230000       0.073332       0.173572       0.179584
      19.240000       0.073471       0.172266       0.180774
      19.250000       0.073710       0.170890       0.181492
      19.260000       0.074030       0.169379       0.181673
      19.270000       0.074408       0.167714       0.181302
      19.280000       0.074819       0.165909       0.180414
      19.290000       0.075232       0.164003       0.179082
      19.300000       0.075612       0.162048       0.177397
      19.310000       0.075928       0.160105       0.175455
      19.320000       0.076155       0.158234       0.173347
      19.330000       0.076287       0.156495       0.171157
      19.340000       0.076328       0.154935       0.168963
      19.350000       0.076292       0.153584       0.166839
      19.360000       0.076195       0.152450       0.164851
      19.370000       0.076047       0.151517       0.163052
      19.380000       0.075845       0.150751       0.161474
      19.390000       0.075582       0.150104       0.160126
      19.400000       0.075242       0.149520       0.158996
      19.410000       0.074810       0.148942       0.158057
      19.420000       0.074280       0.148308       0.157273
      19.430000       0.073651       0.147556       0.156615
      19.440000       0.072940       0.146625       0.156062
      19.450000       0.072177       0.145469       0.155604
      19.460000       0.071404       0.144062       0.155238
      19.470000       0.070669       0.142412       0.154964
      19.480000       0.070022       0.140565       0.154783
      19.490000       0.069506       0.138600       0.154703
      19.500000       0.069159       0.136622       0.154739
      19.510000       0.069007       0.134749       0.154913
      19.520000       0.069062       0.133086       0.155255
      19.530000       0.069316       0.131716       0.155795
      19.540000       0.069748       0.130690       0.156564
      19.550000       0.070314       0.130023       0.157584
      19.560000       0.070962       0.129707       0.158868
      19.570000       0.071633       0.129720       0.160419
      19.580000       0.072276       0.130042       0.162224
      19.590000       0.072853       0.130657       0.164256
      19.600000       0.073346       0.131558       0.166475
      19.610000       0.073758       0.132745       0.168824
      19.620000       0.074110       0.134223       0.171232
      19.630000       0.074439       0.135988       0.173622
      19.640000       0.074784       0.138025       0.175909
      19.650000       0.075186       0.140294       0.178020
      19.660000       0.075672       0.142722       0.179897
      19.670000       0.076252       0.145205       0.181508
      19.680000       0.076909       0.147605       0.182844
      19.690000       0.077603       0.149773       0.183917
      19.700000       0.078277       0.151563       0.184739
      19.710000       0.078865       0.152862       0.185324
      19.720000       0.079308       0.153607       0.185683
      19.730000       0.079561       0.153791       0.185839
      19.740000       0.079603       0.153460       0.185831
      19.750000       0.079429       0.152696       0.185731
      19.760000       0.079058       0.151600       0.185636
      19.770000       0.078521       0.150283       0.185660
      19.780000       0.077864       0.148857       0.185905
      19.790000       0.077146       0.147438       0.186445
      19.800000       0.076431       0.146131       0.187313
      19.810000       0.075783       0.145026       0.188493
      19.820000       0.075262       0.144181       0.189931
      19.830000       0.074917       0.143615       0.191552
      19.840000       0.074777       0.143307       0.193267
      19.850000       0.074853       0.143199       0.194990
      19.860000       0.075138       0.143217       0.196639
      19.870000       0.075610       0.143276       0.198138
      19.880000       0.076235       0.143292       0.199420
      19.890000       0.076979       0.143188       0.200420
      19.900000       0.077806       0.142896       0.201082
      19.910000       0.078688       0.142366       0.201362
      19.920000       0.079607       0.141582       0.201242
      19.930000       0.080557       0.140566       0.200735
      19.940000       0.081544       0.139385       0.199895
      19.950000       0.082583       0.138141       0.198806
      19.960000       0.083698       0.136958       0.197567
      19.970000       0.084915       0.135952       0.196279
      19.980000       0.086262       0.135217       0.195031
      19.990000       0.087763       0.134804       0.193899
      20.000000       0.089432       0.134713       0.192951
