  # energy grid [eV]     epsi_x  epsi_y  epsi_z
       0.000000            NaN            NaN            NaN
       0.010000       0.000082       0.000028       0.000138
       0.020000       0.000164       0.000056       0.000277
       0.030000       0.000246       0.000084       0.000416
       0.040000       0.000328       0.000112       0.000555
       0.050000       0.000410       0.000140       0.000695
       0.060000       0.000491       0.000168       0.000835
       0.070000       0.000573       0.000196       0.000976
       0.080000       0.000655       0.000224       0.001118
       0.090000       0.000737       0.000252       0.001261
       0.100000       0.000819       0.000280       0.001406
       0.110000       0.000902       0.000308       0.001551
       0.120000       0.000984       0.000336       0.001699
       0.130000       0.001066       0.000364       0.001847
       0.140000       0.001148       0.000392       0.001998
       0.150000       0.001230       0.000420       0.002151
       0.160000       0.001313       0.000448       0.002306
       0.170000       0.001395       0.000476       0.002463
       0.180000       0.001477       0.000504       0.002623
       0.190000       0.001560       0.000532       0.002786
       0.200000       0.001642       0.000561       0.002952
       0.210000       0.001725       0.000589       0.003122
       0.220000       0.001807       0.000617       0.003295
       0.230000       0.001890       0.000645       0.003472
       0.240000       0.001973       0.000673       0.003654
       0.250000       0.002056       0.000701       0.003841
       0.260000       0.002139       0.000730       0.004032
       0.270000       0.002222       0.000758       0.004229
       0.280000       0.002305       0.000786       0.004433
       0.290000       0.002388       0.000814       0.004643
       0.300000       0.002471       0.000843       0.004860
       0.310000       0.002555       0.000871       0.005084
       0.320000       0.002638       0.000899       0.005318
       0.330000       0.002722       0.000928       0.005560
       0.340000       0.002805       0.000956       0.005813
       0.350000       0.002889       0.000984       0.006077
       0.360000       0.002973       0.001013       0.006353
       0.370000       0.003057       0.001041       0.006642
       0.380000       0.003141       0.001070       0.006946
       0.390000       0.003225       0.001098       0.007266
       0.400000       0.003310       0.001127       0.007603
       0.410000       0.003394       0.001155       0.007960
       0.420000       0.003479       0.001184       0.008339
       0.430000       0.003564       0.001212       0.008742
       0.440000       0.003649       0.001241       0.009171
       0.450000       0.003734       0.001270       0.009630
       0.460000       0.003819       0.001298       0.010122
       0.470000       0.003905       0.001327       0.010651
       0.480000       0.003990       0.001356       0.011222
       0.490000       0.004076       0.001385       0.011840
       0.500000       0.004162       0.001414       0.012510
       0.510000       0.004248       0.001442       0.013239
       0.520000       0.004334       0.001471       0.014036
       0.530000       0.004420       0.001500       0.014909
       0.540000       0.004507       0.001529       0.015869
       0.550000       0.004594       0.001558       0.016927
       0.560000       0.004681       0.001587       0.018097
       0.570000       0.004768       0.001616       0.019396
       0.580000       0.004855       0.001645       0.020840
       0.590000       0.004943       0.001675       0.022449
       0.600000       0.005031       0.001704       0.024246
       0.610000       0.005119       0.001733       0.026254
       0.620000       0.005207       0.001762       0.028498
       0.630000       0.005296       0.001792       0.031001
       0.640000       0.005384       0.001821       0.033785
       0.650000       0.005473       0.001851       0.036860
       0.660000       0.005563       0.001880       0.040227
       0.670000       0.005652       0.001910       0.043859
       0.680000       0.005742       0.001939       0.047697
       0.690000       0.005832       0.001969       0.051638
       0.700000       0.005922       0.001999       0.055521
       0.710000       0.006012       0.002028       0.059131
       0.720000       0.006103       0.002058       0.062213
       0.730000       0.006194       0.002088       0.064501
       0.740000       0.006285       0.002118       0.065776
       0.750000       0.006376       0.002148       0.065912
       0.760000       0.006467       0.002178       0.064909
       0.770000       0.006559       0.002208       0.062897
       0.780000       0.006650       0.002238       0.060098
       0.790000       0.006742       0.002268       0.056775
       0.800000       0.006834       0.002298       0.053185
       0.810000       0.006927       0.002329       0.049543
       0.820000       0.007019       0.002359       0.046006
       0.830000       0.007112       0.002389       0.042680
       0.840000       0.007206       0.002420       0.039623
       0.850000       0.007299       0.002450       0.036859
       0.860000       0.007393       0.002481       0.034390
       0.870000       0.007488       0.002512       0.032204
       0.880000       0.007582       0.002542       0.030281
       0.890000       0.007677       0.002573       0.028598
       0.900000       0.007773       0.002604       0.027129
       0.910000       0.007869       0.002635       0.025853
       0.920000       0.007965       0.002666       0.024748
       0.930000       0.008061       0.002697       0.023793
       0.940000       0.008158       0.002728       0.022972
       0.950000       0.008255       0.002759       0.022271
       0.960000       0.008353       0.002791       0.021675
       0.970000       0.008451       0.002822       0.021173
       0.980000       0.008549       0.002854       0.020757
       0.990000       0.008647       0.002885       0.020418
       1.000000       0.008747       0.002917       0.020148
       1.010000       0.008846       0.002948       0.019942
       1.020000       0.008946       0.002980       0.019795
       1.030000       0.009046       0.003012       0.019703
       1.040000       0.009147       0.003044       0.019662
       1.050000       0.009248       0.003076       0.019670
       1.060000       0.009349       0.003108       0.019725
       1.070000       0.009451       0.003140       0.019826
       1.080000       0.009554       0.003172       0.019971
       1.090000       0.009656       0.003205       0.020160
       1.100000       0.009760       0.003237       0.020393
       1.110000       0.009863       0.003270       0.020671
       1.120000       0.009967       0.003302       0.020994
       1.130000       0.010072       0.003335       0.021364
       1.140000       0.010177       0.003368       0.021784
       1.150000       0.010282       0.003401       0.022255
       1.160000       0.010388       0.003434       0.022781
       1.170000       0.010495       0.003467       0.023366
       1.180000       0.010602       0.003500       0.024014
       1.190000       0.010709       0.003533       0.024730
       1.200000       0.010817       0.003567       0.025521
       1.210000       0.010926       0.003600       0.026395
       1.220000       0.011035       0.003634       0.027359
       1.230000       0.011144       0.003667       0.028423
       1.240000       0.011254       0.003701       0.029600
       1.250000       0.011365       0.003735       0.030902
       1.260000       0.011476       0.003769       0.032344
       1.270000       0.011588       0.003803       0.033945
       1.280000       0.011700       0.003837       0.035724
       1.290000       0.011813       0.003872       0.037707
       1.300000       0.011926       0.003906       0.039918
       1.310000       0.012040       0.003941       0.042391
       1.320000       0.012155       0.003976       0.045160
       1.330000       0.012270       0.004010       0.048263
       1.340000       0.012386       0.004045       0.051745
       1.350000       0.012502       0.004080       0.055651
       1.360000       0.012619       0.004115       0.060028
       1.370000       0.012737       0.004151       0.064920
       1.380000       0.012855       0.004186       0.070363
       1.390000       0.012974       0.004222       0.076375
       1.400000       0.013094       0.004257       0.082944
       1.410000       0.013214       0.004293       0.090011
       1.420000       0.013335       0.004329       0.097451
       1.430000       0.013457       0.004365       0.105055
       1.440000       0.013579       0.004401       0.112520
       1.450000       0.013702       0.004438       0.119455
       1.460000       0.013826       0.004474       0.125414
       1.470000       0.013950       0.004511       0.129948
       1.480000       0.014075       0.004547       0.132686
       1.490000       0.014201       0.004584       0.133395
       1.500000       0.014328       0.004621       0.132034
       1.510000       0.014456       0.004659       0.128754
       1.520000       0.014584       0.004696       0.123866
       1.530000       0.014713       0.004733       0.117786
       1.540000       0.014843       0.004771       0.110958
       1.550000       0.014973       0.004809       0.103798
       1.560000       0.015105       0.004847       0.096649
       1.570000       0.015237       0.004885       0.089768
       1.580000       0.015370       0.004923       0.083321
       1.590000       0.015504       0.004961       0.077402
       1.600000       0.015639       0.005000       0.072049
       1.610000       0.015774       0.005039       0.067259
       1.620000       0.015911       0.005078       0.063008
       1.630000       0.016048       0.005117       0.059257
       1.640000       0.016187       0.005156       0.055962
       1.650000       0.016326       0.005195       0.053076
       1.660000       0.016467       0.005235       0.050555
       1.670000       0.016608       0.005275       0.048360
       1.680000       0.016750       0.005315       0.046454
       1.690000       0.016893       0.005355       0.044804
       1.700000       0.017037       0.005395       0.043382
       1.710000       0.017183       0.005435       0.042164
       1.720000       0.017329       0.005476       0.041129
       1.730000       0.017476       0.005517       0.040258
       1.740000       0.017624       0.005558       0.039536
       1.750000       0.017774       0.005599       0.038950
       1.760000       0.017924       0.005641       0.038490
       1.770000       0.018076       0.005682       0.038146
       1.780000       0.018229       0.005724       0.037911
       1.790000       0.018383       0.005766       0.037780
       1.800000       0.018538       0.005808       0.037747
       1.810000       0.018694       0.005851       0.037809
       1.820000       0.018851       0.005893       0.037965
       1.830000       0.019010       0.005936       0.038214
       1.840000       0.019169       0.005979       0.038555
       1.850000       0.019330       0.006023       0.038990
       1.860000       0.019493       0.006066       0.039521
       1.870000       0.019656       0.006110       0.040152
       1.880000       0.019821       0.006154       0.040888
       1.890000       0.019987       0.006198       0.041734
       1.900000       0.020155       0.006243       0.042698
       1.910000       0.020324       0.006287       0.043789
       1.920000       0.020494       0.006332       0.045017
       1.930000       0.020666       0.006378       0.046396
       1.940000       0.020839       0.006423       0.047940
       1.950000       0.021013       0.006469       0.049667
       1.960000       0.021189       0.006515       0.051597
       1.970000       0.021367       0.006561       0.053755
       1.980000       0.021545       0.006607       0.056167
       1.990000       0.021726       0.006654       0.058866
       2.000000       0.021908       0.006701       0.061888
       2.010000       0.022092       0.006748       0.065275
       2.020000       0.022277       0.006795       0.069073
       2.030000       0.022464       0.006843       0.073337
       2.040000       0.022652       0.006891       0.078123
       2.050000       0.022842       0.006940       0.083491
       2.060000       0.023034       0.006988       0.089505
       2.070000       0.023228       0.007037       0.096221
       2.080000       0.023423       0.007086       0.103684
       2.090000       0.023621       0.007136       0.111914
       2.100000       0.023820       0.007186       0.120895
       2.110000       0.024021       0.007236       0.130550
       2.120000       0.024223       0.007286       0.140722
       2.130000       0.024428       0.007337       0.151165
       2.140000       0.024635       0.007388       0.161534
       2.150000       0.024843       0.007440       0.171406
       2.160000       0.025054       0.007491       0.180319
       2.170000       0.025267       0.007543       0.187827
       2.180000       0.025482       0.007596       0.193556
       2.190000       0.025699       0.007649       0.197247
       2.200000       0.025918       0.007702       0.198774
       2.210000       0.026139       0.007755       0.198140
       2.220000       0.026363       0.007809       0.195458
       2.230000       0.026588       0.007863       0.190924
       2.240000       0.026816       0.007918       0.184799
       2.250000       0.027047       0.007973       0.177383
       2.260000       0.027280       0.008028       0.169003
       2.270000       0.027515       0.008084       0.160000
       2.280000       0.027753       0.008140       0.150703
       2.290000       0.027993       0.008196       0.141416
       2.300000       0.028236       0.008253       0.132399
       2.310000       0.028482       0.008310       0.123849
       2.320000       0.028730       0.008368       0.115904
       2.330000       0.028981       0.008426       0.108641
       2.340000       0.029235       0.008485       0.102087
       2.350000       0.029491       0.008544       0.096236
       2.360000       0.029751       0.008603       0.091054
       2.370000       0.030013       0.008663       0.086496
       2.380000       0.030278       0.008724       0.082509
       2.390000       0.030547       0.008784       0.079041
       2.400000       0.030818       0.008846       0.076041
       2.410000       0.031093       0.008907       0.073459
       2.420000       0.031371       0.008970       0.071256
       2.430000       0.031652       0.009032       0.069391
       2.440000       0.031937       0.009096       0.067834
       2.450000       0.032225       0.009159       0.066557
       2.460000       0.032517       0.009224       0.065535
       2.470000       0.032812       0.009289       0.064750
       2.480000       0.033110       0.009354       0.064185
       2.490000       0.033413       0.009420       0.063827
       2.500000       0.033719       0.009486       0.063668
       2.510000       0.034029       0.009553       0.063700
       2.520000       0.034344       0.009621       0.063920
       2.530000       0.034662       0.009689       0.064324
       2.540000       0.034984       0.009758       0.064916
       2.550000       0.035311       0.009827       0.065696
       2.560000       0.035641       0.009897       0.066672
       2.570000       0.035977       0.009968       0.067852
       2.580000       0.036316       0.010039       0.069247
       2.590000       0.036661       0.010111       0.070873
       2.600000       0.037010       0.010184       0.072745
       2.610000       0.037364       0.010257       0.074887
       2.620000       0.037722       0.010331       0.077324
       2.630000       0.038086       0.010406       0.080086
       2.640000       0.038455       0.010481       0.083209
       2.650000       0.038830       0.010557       0.086734
       2.660000       0.039209       0.010634       0.090708
       2.670000       0.039594       0.010712       0.095187
       2.680000       0.039985       0.010790       0.100229
       2.690000       0.040382       0.010870       0.105902
       2.700000       0.040784       0.010950       0.112276
       2.710000       0.041193       0.011030       0.119424
       2.720000       0.041608       0.011112       0.127413
       2.730000       0.042029       0.011195       0.136299
       2.740000       0.042457       0.011278       0.146111
       2.750000       0.042891       0.011362       0.156837
       2.760000       0.043332       0.011447       0.168403
       2.770000       0.043781       0.011534       0.180654
       2.780000       0.044236       0.011621       0.193336
       2.790000       0.044699       0.011709       0.206100
       2.800000       0.045170       0.011798       0.218522
       2.810000       0.045648       0.011888       0.230142
       2.820000       0.046135       0.011979       0.240525
       2.830000       0.046629       0.012071       0.249308
       2.840000       0.047132       0.012164       0.256242
       2.850000       0.047644       0.012258       0.261201
       2.860000       0.048165       0.012354       0.264174
       2.870000       0.048695       0.012451       0.265242
       2.880000       0.049234       0.012548       0.264548
       2.890000       0.049784       0.012647       0.262266
       2.900000       0.050343       0.012748       0.258586
       2.910000       0.050912       0.012849       0.253693
       2.920000       0.051492       0.012952       0.247762
       2.930000       0.052083       0.013056       0.240956
       2.940000       0.052685       0.013162       0.233425
       2.950000       0.053299       0.013269       0.225310
       2.960000       0.053925       0.013377       0.216753
       2.970000       0.054563       0.013487       0.207895
       2.980000       0.055214       0.013598       0.198887
       2.990000       0.055878       0.013711       0.189890
       3.000000       0.056556       0.013826       0.181071
       3.010000       0.057247       0.013942       0.172596
       3.020000       0.057953       0.014060       0.164615
       3.030000       0.058674       0.014179       0.157253
       3.040000       0.059410       0.014301       0.150594
       3.050000       0.060163       0.014424       0.144684
       3.060000       0.060932       0.014549       0.139523
       3.070000       0.061717       0.014676       0.135077
       3.080000       0.062521       0.014805       0.131283
       3.090000       0.063343       0.014936       0.128060
       3.100000       0.064184       0.015069       0.125321
       3.110000       0.065044       0.015205       0.122985
       3.120000       0.065925       0.015342       0.120987
       3.130000       0.066827       0.015482       0.119287
       3.140000       0.067751       0.015624       0.117869
       3.150000       0.068698       0.015769       0.116739
       3.160000       0.069669       0.015917       0.115919
       3.170000       0.070664       0.016067       0.115438
       3.180000       0.071685       0.016219       0.115327
       3.190000       0.072733       0.016375       0.115618
       3.200000       0.073808       0.016533       0.116340
       3.210000       0.074912       0.016695       0.117522
       3.220000       0.076047       0.016859       0.119193
       3.230000       0.077212       0.017027       0.121385
       3.240000       0.078411       0.017198       0.124135
       3.250000       0.079644       0.017373       0.127485
       3.260000       0.080913       0.017551       0.131484
       3.270000       0.082219       0.017733       0.136187
       3.280000       0.083564       0.017918       0.141656
       3.290000       0.084951       0.018108       0.147962
       3.300000       0.086380       0.018302       0.155179
       3.310000       0.087854       0.018500       0.163378
       3.320000       0.089375       0.018703       0.172627
       3.330000       0.090946       0.018911       0.182971
       3.340000       0.092570       0.019123       0.194423
       3.350000       0.094248       0.019341       0.206941
       3.360000       0.095983       0.019564       0.220406
       3.370000       0.097779       0.019792       0.234607
       3.380000       0.099640       0.020026       0.249235
       3.390000       0.101567       0.020267       0.263893
       3.400000       0.103567       0.020514       0.278136
       3.410000       0.105641       0.020767       0.291523
       3.420000       0.107796       0.021028       0.303671
       3.430000       0.110035       0.021295       0.314294
       3.440000       0.112363       0.021571       0.323219
       3.450000       0.114787       0.021854       0.330376
       3.460000       0.117312       0.022147       0.335774
       3.470000       0.119945       0.022448       0.339475
       3.480000       0.122692       0.022758       0.341566
       3.490000       0.125561       0.023078       0.342147
       3.500000       0.128561       0.023409       0.341321
       3.510000       0.131701       0.023751       0.339191
       3.520000       0.134991       0.024105       0.335868
       3.530000       0.138440       0.024471       0.331467
       3.540000       0.142062       0.024851       0.326112
       3.550000       0.145870       0.025244       0.319927
       3.560000       0.149877       0.025652       0.313036
       3.570000       0.154100       0.026076       0.305558
       3.580000       0.158555       0.026517       0.297601
       3.590000       0.163263       0.026976       0.289265
       3.600000       0.168245       0.027454       0.280643
       3.610000       0.173524       0.027953       0.271823
       3.620000       0.179128       0.028473       0.262894
       3.630000       0.185085       0.029017       0.253955
       3.640000       0.191429       0.029587       0.245114
       3.650000       0.198197       0.030184       0.236495
       3.660000       0.205432       0.030810       0.228229
       3.670000       0.213179       0.031468       0.220453
       3.680000       0.221492       0.032161       0.213291
       3.690000       0.230432       0.032891       0.206852
       3.700000       0.240066       0.033661       0.201219
       3.710000       0.250473       0.034476       0.196453
       3.720000       0.261741       0.035339       0.192594
       3.730000       0.273971       0.036254       0.189667
       3.740000       0.287279       0.037228       0.187689
       3.750000       0.301795       0.038265       0.186669
       3.760000       0.317671       0.039371       0.186617
       3.770000       0.335079       0.040555       0.187546
       3.780000       0.354215       0.041824       0.189474
       3.790000       0.375301       0.043188       0.192430
       3.800000       0.398588       0.044656       0.196452
       3.810000       0.424353       0.046242       0.201590
       3.820000       0.452901       0.047959       0.207905
       3.830000       0.484558       0.049822       0.215464
       3.840000       0.519656       0.051849       0.224338
       3.850000       0.558510       0.054060       0.234592
       3.860000       0.601387       0.056479       0.246270
       3.870000       0.648445       0.059130       0.259378
       3.880000       0.699662       0.062044       0.273862
       3.890000       0.754740       0.065250       0.289580
       3.900000       0.813015       0.068785       0.306285
       3.910000       0.873378       0.072685       0.323612
       3.920000       0.934281       0.076986       0.341099
       3.930000       0.993843       0.081725       0.358222
       3.940000       1.050098       0.086933       0.374453
       3.950000       1.101318       0.092637       0.389326
       3.960000       1.146326       0.098853       0.402475
       3.970000       1.184670       0.105584       0.413665
       3.980000       1.216632       0.112821       0.422787
       3.990000       1.243103       0.120542       0.429846
       4.000000       1.265416       0.128706       0.434936
       4.010000       1.285161       0.137242       0.438216
       4.020000       1.303962       0.146036       0.439881
       4.030000       1.323237       0.154916       0.440144
       4.040000       1.343972       0.163636       0.439220
       4.050000       1.366607       0.171895       0.437315
       4.060000       1.391057       0.179361       0.434618
       4.070000       1.416858       0.185724       0.431299
       4.080000       1.443347       0.190745       0.427508
       4.090000       1.469819       0.194286       0.423372
       4.100000       1.495610       0.196332       0.419001
       4.110000       1.520137       0.196981       0.414483
       4.120000       1.542900       0.196432       0.409889
       4.130000       1.563466       0.194958       0.405270
       4.140000       1.581398       0.192882       0.400659
       4.150000       1.596122       0.190546       0.396070
       4.160000       1.606781       0.188277       0.391499
       4.170000       1.612204       0.186349       0.386928
       4.180000       1.611076       0.184966       0.382325
       4.190000       1.602317       0.184242       0.377661
       4.200000       1.585463       0.184205       0.372913
       4.210000       1.560865       0.184804       0.368091
       4.220000       1.529574       0.185916       0.363252
       4.230000       1.493009       0.187370       0.358519
       4.240000       1.452610       0.188974       0.354088
       4.250000       1.409659       0.190547       0.350218
       4.260000       1.365271       0.191955       0.347214
       4.270000       1.320485       0.193119       0.345396
       4.280000       1.276322       0.194007       0.345067
       4.290000       1.233737       0.194601       0.346488
       4.300000       1.193513       0.194862       0.349865
       4.310000       1.156174       0.194711       0.355336
       4.320000       1.121985       0.194048       0.362965
       4.330000       1.091057       0.192794       0.372730
       4.340000       1.063508       0.190948       0.384515
       4.350000       1.039598       0.188621       0.398085
       4.360000       1.019775       0.186036       0.413088
       4.370000       1.004643       0.183488       0.429058
       4.380000       0.994864       0.181296       0.445453
       4.390000       0.991069       0.179760       0.461712
       4.400000       0.993789       0.179124       0.477328
       4.410000       1.003422       0.179578       0.491899
       4.420000       1.020217       0.181252       0.505161
       4.430000       1.044257       0.184223       0.516982
       4.440000       1.075429       0.188522       0.527345
       4.450000       1.113381       0.194128       0.536308
       4.460000       1.157463       0.200965       0.543977
       4.470000       1.206667       0.208893       0.550470
       4.480000       1.259593       0.217704       0.555904
       4.490000       1.314472       0.227129       0.560384
       4.500000       1.369283       0.236862       0.563999
       4.510000       1.421981       0.246603       0.566834
       4.520000       1.470808       0.256091       0.568976
       4.530000       1.514574       0.265129       0.570527
       4.540000       1.552827       0.273564       0.571603
       4.550000       1.585818       0.281238       0.572339
       4.560000       1.614296       0.287942       0.572881
       4.570000       1.639184       0.293395       0.573382
       4.580000       1.661238       0.297268       0.573993
       4.590000       1.680787       0.299250       0.574853
       4.600000       1.697610       0.299120       0.576087
       4.610000       1.711016       0.296815       0.577791
       4.620000       1.720062       0.292460       0.580031
       4.630000       1.723842       0.286369       0.582829
       4.640000       1.721698       0.279003       0.586163
       4.650000       1.713303       0.270903       0.589965
       4.660000       1.698655       0.262601       0.594143
       4.670000       1.678076       0.254543       0.598594
       4.680000       1.652276       0.247041       0.603244
       4.690000       1.622433       0.240262       0.608071
       4.700000       1.590220       0.234250       0.613127
       4.710000       1.557718       0.228965       0.618531
       4.720000       1.527213       0.224336       0.624432
       4.730000       1.500945       0.220310       0.630960
       4.740000       1.480861       0.216878       0.638167
       4.750000       1.468438       0.214092       0.645982
       4.760000       1.464586       0.212044       0.654209
       4.770000       1.469617       0.210840       0.662560
       4.780000       1.483257       0.210565       0.670720
       4.790000       1.504681       0.211261       0.678412
       4.800000       1.532553       0.212908       0.685439
       4.810000       1.565108       0.215425       0.691698
       4.820000       1.600285       0.218683       0.697174
       4.830000       1.635901       0.222522       0.701922
       4.840000       1.669815       0.226777       0.706045
       4.850000       1.700014       0.231304       0.709675
       4.860000       1.724637       0.236010       0.712959
       4.870000       1.741983       0.240866       0.716050
       4.880000       1.750617       0.245917       0.719100
       4.890000       1.749593       0.251267       0.722259
       4.900000       1.738705       0.257042       0.725669
       4.910000       1.718633       0.263342       0.729474
       4.920000       1.690851       0.270192       0.733812
       4.930000       1.657294       0.277509       0.738814
       4.940000       1.619938       0.285093       0.744613
       4.950000       1.580441       0.292637       0.751331
       4.960000       1.539965       0.299757       0.759085
       4.970000       1.499172       0.306026       0.767975
       4.980000       1.458334       0.311012       0.778076
       4.990000       1.417480       0.314319       0.789433
       5.000000       1.376549       0.315619       0.802043
       5.010000       1.335518       0.314692       0.815849
       5.020000       1.294514       0.311466       0.830729
       5.030000       1.253902       0.306054       0.846488
       5.040000       1.214333       0.298771       0.862859
       5.050000       1.176703       0.290115       0.879508
       5.060000       1.142050       0.280695       0.896043
       5.070000       1.111403       0.271147       0.912051
       5.080000       1.085656       0.262048       0.927142
       5.090000       1.065492       0.253869       0.941003
       5.100000       1.051365       0.246956       0.953448
       5.110000       1.043522       0.241541       0.964443
       5.120000       1.042048       0.237763       0.974110
       5.130000       1.046917       0.235698       0.982706
       5.140000       1.058037       0.235373       0.990578
       5.150000       1.075290       0.236784       0.998131
       5.160000       1.098544       0.239893       1.005780
       5.170000       1.127641       0.244625       1.013930
       5.180000       1.162333       0.250854       1.022951
       5.190000       1.202188       0.258386       1.033158
       5.200000       1.246490       0.266944       1.044816
       5.210000       1.294174       0.276155       1.058138
       5.220000       1.343830       0.285566       1.073296
       5.230000       1.393817       0.294660       1.090419
       5.240000       1.442437       0.302910       1.109587
       5.250000       1.488148       0.309829       1.130805
       5.260000       1.529743       0.315029       1.153979
       5.270000       1.566424       0.318285       1.178886
       5.280000       1.597780       0.319571       1.205158
       5.290000       1.623677       0.319092       1.232271
       5.300000       1.644117       0.317259       1.259549
       5.310000       1.659134       0.314638       1.286192
       5.320000       1.668793       0.311865       1.311356
       5.330000       1.673284       0.309559       1.334267
       5.340000       1.673116       0.308252       1.354366
       5.350000       1.669284       0.308342       1.371412
       5.360000       1.663324       0.310069       1.385511
       5.370000       1.657171       0.313513       1.397051
       5.380000       1.652868       0.318595       1.406578
       5.390000       1.652230       0.325084       1.414636
       5.400000       1.656582       0.332612       1.421642
       5.410000       1.666632       0.340685       1.427791
       5.420000       1.682472       0.348708       1.433003
       5.430000       1.703654       0.356023       1.436913
       5.440000       1.729317       0.361962       1.438909
       5.450000       1.758324       0.365940       1.438203
       5.460000       1.789389       0.367555       1.433953
       5.470000       1.821176       0.366686       1.425409
       5.480000       1.852338       0.363531       1.412066
       5.490000       1.881530       0.358573       1.393780
       5.500000       1.907445       0.352479       1.370811
       5.510000       1.928875       0.345987       1.343786
       5.520000       1.944797       0.339794       1.313615
       5.530000       1.954427       0.334493       1.281395
       5.540000       1.957258       0.330539       1.248353
       5.550000       1.953131       0.328241       1.215801
       5.560000       1.942370       0.327761       1.185086
       5.570000       1.925942       0.329122       1.157506
       5.580000       1.905501       0.332209       1.134211
       5.590000       1.883236       0.336773       1.116118
       5.600000       1.861538       0.342451       1.103856
       5.610000       1.842635       0.348800       1.097765
       5.620000       1.828329       0.355359       1.097918
       5.630000       1.819902       0.361727       1.104161
       5.640000       1.818123       0.367626       1.116161
       5.650000       1.823298       0.372920       1.133454
       5.660000       1.835282       0.377571       1.155487
       5.670000       1.853463       0.381553       1.181646
       5.680000       1.876761       0.384768       1.211273
       5.690000       1.903724       0.387002       1.243664
       5.700000       1.932748       0.387947       1.278061
       5.710000       1.962423       0.387290       1.313678
       5.720000       1.991912       0.384822       1.349778
       5.730000       2.021258       0.380538       1.385784
       5.740000       2.051499       0.374682       1.421394
       5.750000       2.084555       0.367729       1.456634
       5.760000       2.122944       0.360298       1.491843
       5.770000       2.169429       0.353054       1.527597
       5.780000       2.226712       0.346614       1.564609
       5.790000       2.297243       0.341483       1.603633
       5.800000       2.383131       0.338037       1.645360
       5.810000       2.486128       0.336525       1.690296
       5.820000       2.607625       0.337082       1.738637
       5.830000       2.748645       0.339744       1.790195
       5.840000       2.909794       0.344462       1.844425
       5.850000       3.091192       0.351104       1.900602
       5.860000       3.292404       0.359457       1.958074
       5.870000       3.512380       0.369242       2.016514
       5.880000       3.749445       0.380142       2.076028
       5.890000       4.001332       0.391857       2.137090
       5.900000       4.265240       0.404173       2.200334
       5.910000       4.537881       0.417010       2.266304
       5.920000       4.815461       0.430439       2.335273
       5.930000       5.093585       0.444625       2.407164
       5.940000       5.367128       0.459731       2.481614
       5.950000       5.630213       0.475786       2.558132
       5.960000       5.876396       0.492579       2.636322
       5.970000       6.099155       0.509599       2.716116
       5.980000       6.292645       0.526040       2.797943
       5.990000       6.452582       0.540897       2.882788
       6.000000       6.577009       0.553140       2.972116
       6.010000       6.666637       0.561927       3.067652
       6.020000       6.724546       0.566811       3.171061
       6.030000       6.755277       0.567838       3.283623
       6.040000       6.763630       0.565526       3.406000
       6.050000       6.753604       0.560703       3.538161
       6.060000       6.727871       0.554291       3.679457
       6.070000       6.687849       0.547112       3.828760
       6.080000       6.634244       0.539766       3.984547
       6.090000       6.567727       0.532606       4.144867
       6.100000       6.489438       0.525790       4.307209
       6.110000       6.401096       0.519376       4.468380
       6.120000       6.304694       0.513433       4.624521
       6.130000       6.201947       0.508112       4.771345
       6.140000       6.093807       0.503683       4.904577
       6.150000       5.980313       0.500500       5.020496
       6.160000       5.860889       0.498958       5.116373
       6.170000       5.734962       0.499421       5.190683
       6.180000       5.602597       0.502174       5.243046
       6.190000       5.464874       0.507391       5.274000
       6.200000       5.323913       0.515116       5.284724
       6.210000       5.182558       0.525269       5.276808
       6.220000       5.043868       0.537650       5.252092
       6.230000       4.910535       0.551953       5.212592
       6.240000       4.784353       0.567781       5.160496
       6.250000       4.665867       0.584679       5.098164
       6.260000       4.554246       0.602167       5.028028
       6.270000       4.447398       0.619782       4.952375
       6.280000       4.342278       0.637107       4.873064
       6.290000       4.235376       0.653790       4.791344
       6.300000       4.123329       0.669569       4.707875
       6.310000       4.003596       0.684288       4.622944
       6.320000       3.875046       0.697929       4.536805
       6.330000       3.738260       0.710606       4.449990
       6.340000       3.595431       0.722511       4.363500
       6.350000       3.449848       0.733812       4.278785
       6.360000       3.305198       0.744551       4.197521
       6.370000       3.164931       0.754587       4.121238
       6.380000       3.031915       0.763644       4.050909
       6.390000       2.908398       0.771448       3.986621
       6.400000       2.796156       0.777900       3.927422
       6.410000       2.696647       0.783200       3.871437
       6.420000       2.611085       0.787880       3.816225
       6.430000       2.540417       0.792735       3.759324
       6.440000       2.485250       0.798697       3.698826
       6.450000       2.445794       0.806693       3.633844
       6.460000       2.421836       0.817517       3.564721
       6.470000       2.412744       0.831725       3.492920
       6.480000       2.417509       0.849557       3.420668
       6.490000       2.434811       0.870896       3.350487
       6.500000       2.463132       0.895270       3.284774
       6.510000       2.500883       0.921896       3.225485
       6.520000       2.546533       0.949782       3.173915
       6.530000       2.598671       0.977864       3.130534
       6.540000       2.655977       1.005144       3.094867
       6.550000       2.717121       1.030789       3.065464
       6.560000       2.780668       1.054138       3.039992
       6.570000       2.845054       1.074650       3.015501
       6.580000       2.908643       1.091838       2.988856
       6.590000       2.969802       1.105224       2.957299
       6.600000       3.026913       1.114383       2.919003
       6.610000       3.078316       1.119029       2.873444
       6.620000       3.122198       1.119125       2.821477
       6.630000       3.156551       1.114956       2.765090
       6.640000       3.179255       1.107122       2.706953
       6.650000       3.188342       1.096471       2.649914
       6.660000       3.182361       1.084016       2.596583
       6.670000       3.160727       1.070892       2.549041
       6.680000       3.123857       1.058339       2.508680
       6.690000       3.073026       1.047683       2.476129
       6.700000       3.009997       1.040271       2.451267
       6.710000       2.936648       1.037382       2.433289
       6.720000       2.854788       1.040111       2.420836
       6.730000       2.766207       1.049289       2.412170
       6.740000       2.672858       1.065405       2.405363
       6.750000       2.577004       1.088548       2.398473
       6.760000       2.481247       1.118346       2.389696
       6.770000       2.388394       1.153919       2.377497
       6.780000       2.301211       1.193850       2.360745
       6.790000       2.222140       1.236233       2.338857
       6.800000       2.153071       1.278800       2.311922
       6.810000       2.095205       1.319150       2.280731
       6.820000       2.049039       1.355015       2.246631
       6.830000       2.014435       1.384516       2.211227
       6.840000       1.990730       1.406346       2.175995
       6.850000       1.976886       1.419854       2.141984
       6.860000       1.971638       1.425046       2.109680
       6.870000       1.973671       1.422550       2.079079
       6.880000       1.981794       1.413552       2.049886
       6.890000       1.995105       1.399692       2.021731
       6.900000       2.013083       1.382894       1.994333
       6.910000       2.035584       1.365100       1.967573
       6.920000       2.062722       1.347975       1.941504
       6.930000       2.094691       1.332661       1.916353
       6.940000       2.131588       1.319653       1.892508
       6.950000       2.173308       1.308830       1.870491
       6.960000       2.219492       1.299595       1.850882
       6.970000       2.269518       1.291085       1.834182
       6.980000       2.322503       1.282405       1.820667
       6.990000       2.377344       1.272866       1.810264
       7.000000       2.432844       1.262197       1.802494
       7.010000       2.487941       1.250675       1.796493
       7.020000       2.541936       1.239115       1.791106
       7.030000       2.594618       1.228705       1.785081
       7.040000       2.646150       1.220724       1.777330
       7.050000       2.696744       1.216259       1.767224
       7.060000       2.746225       1.215998       1.754799
       7.070000       2.793652       1.220146       1.740752
       7.080000       2.837115       1.228462       1.726217
       7.090000       2.873805       1.240380       1.712367
       7.100000       2.900365       1.255148       1.700013
       7.110000       2.913507       1.271964       1.689320
       7.120000       2.910761       1.290055       1.679727
       7.130000       2.891159       1.308705       1.670065
       7.140000       2.855567       1.327238       1.658843
       7.150000       2.806527       1.344982       1.644613
       7.160000       2.747608       1.361235       1.626327
       7.170000       2.682555       1.375279       1.603597
       7.180000       2.614554       1.386450       1.576787
       7.190000       2.545874       1.394248       1.546934
       7.200000       2.477937       1.398478       1.515493
       7.210000       2.411671       1.399361       1.484033
       7.220000       2.347888       1.397592       1.453964
       7.230000       2.287474       1.394311       1.426387
       7.240000       2.231327       1.390943       1.402078
       7.250000       2.180144       1.388947       1.381553
       7.260000       2.134230       1.389536       1.365154
       7.270000       2.093491       1.393467       1.353115
       7.280000       2.057610       1.400971       1.345588
       7.290000       2.026337       1.411828       1.342649
       7.300000       1.999735       1.425535       1.344257
       7.310000       1.978240       1.441462       1.350192
       7.320000       1.962551       1.458945       1.359958
       7.330000       1.953384       1.477290       1.372704
       7.340000       1.951249       1.495766       1.387211
       7.350000       1.956299       1.513648       1.402011
       7.360000       1.968293       1.530307       1.415628
       7.370000       1.986662       1.545304       1.426879
       7.380000       2.010634       1.558412       1.435107
       7.390000       2.039380       1.569556       1.440232
       7.400000       2.072138       1.578688       1.442564
       7.410000       2.108271       1.585666       1.442476
       7.420000       2.147284       1.590187       1.440068
       7.430000       2.188810       1.591811       1.434984
       7.440000       2.232620       1.590078       1.426463
       7.450000       2.278636       1.584680       1.413594
       7.460000       2.326948       1.575588       1.395693
       7.470000       2.377790       1.563111       1.372611
       7.480000       2.431504       1.547871       1.344836
       7.490000       2.488508       1.530756       1.313370
       7.500000       2.549251       1.512867       1.279451
       7.510000       2.614152       1.495432       1.244297
       7.520000       2.683464       1.479662       1.208971
       7.530000       2.757099       1.466546       1.174382
       7.540000       2.834476       1.456659       1.141360
       7.550000       2.914451       1.450034       1.110688
       7.560000       2.995408       1.446164       1.083077
       7.570000       3.075464       1.444129       1.059090
       7.580000       3.152736       1.442867       1.039081
       7.590000       3.225579       1.441517       1.023164
       7.600000       3.292733       1.439733       1.011250
       7.610000       3.353361       1.437836       1.003099
       7.620000       3.406975       1.436717       0.998398
       7.630000       3.453297       1.437546       0.996827
       7.640000       3.492077       1.441395       0.998139
       7.650000       3.522894       1.448942       1.002228
       7.660000       3.545031       1.460332       1.009170
       7.670000       3.557492       1.475214       1.019210
       7.680000       3.559237       1.492868       1.032689
       7.690000       3.549555       1.512366       1.049914
       7.700000       3.528387       1.532664       1.071007
       7.710000       3.496412       1.552654       1.095767
       7.720000       3.454866       1.571191       1.123564
       7.730000       3.405198       1.587155       1.153327
       7.740000       3.348767       1.599555       1.183614
       7.750000       3.286659       1.607612       1.212785
       7.760000       3.219631       1.610813       1.239228
       7.770000       3.148119       1.608923       1.261557
       7.780000       3.072288       1.602017       1.278714
       7.790000       2.992142       1.590540       1.289943
       7.800000       2.907724       1.575365       1.294710
       7.810000       2.819386       1.557802       1.292635
       7.820000       2.728044       1.539479       1.283536
       7.830000       2.635290       1.522134       1.267540
       7.840000       2.543295       1.507375       1.245183
       7.850000       2.454537       1.496482       1.217425
       7.860000       2.371468       1.490331       1.185558
       7.870000       2.296258       1.489399       1.151040
       7.880000       2.230647       1.493826       1.115323
       7.890000       2.175902       1.503457       1.079703
       7.900000       2.132810       1.517862       1.045218
       7.910000       2.101688       1.536343       1.012596
       7.920000       2.082379       1.557981       0.982260
       7.930000       2.074265       1.581728       0.954388
       7.940000       2.076271       1.606547       0.929008
       7.950000       2.086878       1.631541       0.906106
       7.960000       2.104160       1.656040       0.885700
       7.970000       2.125873       1.679638       0.867872
       7.980000       2.149682       1.702170       0.852744
       7.990000       2.173493       1.723700       0.840440
       8.000000       2.195844       1.744501       0.831049
       8.010000       2.216192       1.765016       0.824596
       8.020000       2.234954       1.785748       0.821023
       8.030000       2.253281       1.807082       0.820178
       8.040000       2.272627       1.829079       0.821826
       8.050000       2.294278       1.851330       0.825685
       8.060000       2.318949       1.872921       0.831478
       8.070000       2.346532       1.892538       0.838982
       8.080000       2.376035       1.908696       0.848032
       8.090000       2.405705       1.920066       0.858492
       8.100000       2.433313       1.925780       0.870215
       8.110000       2.456549       1.925614       0.883038
       8.120000       2.473438       1.919971       0.896821
       8.130000       2.482683       1.909690       0.911532
       8.140000       2.483866       1.895793       0.927293
       8.150000       2.477469       1.879252       0.944373
       8.160000       2.464797       1.860852       0.963093
       8.170000       2.447856       1.841150       0.983685
       8.180000       2.429206       1.820537       1.006118
       8.190000       2.411771       1.799393       1.029974
       8.200000       2.398560       1.778274       1.054380
       8.210000       2.392374       1.758081       1.078047
       8.220000       2.395529       1.740102       1.099401
       8.230000       2.409665       1.725887       1.116808
       8.240000       2.435617       1.717004       1.128830
       8.250000       2.473312       1.714753       1.134477
       8.260000       2.521680       1.719934       1.133368
       8.270000       2.578572       1.732738       1.125799
       8.280000       2.640748       1.752752       1.112659
       8.290000       2.704025       1.779090       1.095270
       8.300000       2.763651       1.810604       1.075174
       8.310000       2.814918       1.846112       1.053920
       8.320000       2.853912       1.884546       1.032897
       8.330000       2.878169       1.924953       1.013210
       8.340000       2.887000       1.966325       0.995612
       8.350000       2.881343       2.007336       0.980485
       8.360000       2.863204       2.046121       0.967864
       8.370000       2.834957       2.080246       0.957486
       8.380000       2.798811       2.106954       0.948854
       8.390000       2.756661       2.123680       0.941338
       8.400000       2.710281       2.128702       0.934278
       8.410000       2.661664       2.121685       0.927091
       8.420000       2.613208       2.103890       0.919353
       8.430000       2.567630       2.077911       0.910833
       8.440000       2.527623       2.047050       0.901496
       8.450000       2.495434       2.014557       0.891490
       8.460000       2.472527       1.983024       0.881114
       8.470000       2.459441       1.954104       0.870776
       8.480000       2.455829       1.928558       0.860914
       8.490000       2.460637       1.906550       0.851905
       8.500000       2.472333       1.888010       0.843976
       8.510000       2.489122       1.872947       0.837177
       8.520000       2.509107       1.861632       0.831433
       8.530000       2.530366       1.854640       0.826649
       8.540000       2.550964       1.852784       0.822851
       8.550000       2.568935       1.856967       0.820264
       8.560000       2.582322       1.867977       0.819311
       8.570000       2.589334       1.886270       0.820526
       8.580000       2.588577       1.911770       0.824422
       8.590000       2.579267       1.943747       0.831362
       8.600000       2.561299       1.980783       0.841475
       8.610000       2.535210       2.020866       0.854621
       8.620000       2.502072       2.061598       0.870409
       8.630000       2.463413       2.100471       0.888264
       8.640000       2.421132       2.135164       0.907518
       8.650000       2.377414       2.163764       0.927519
       8.660000       2.334610       2.184902       0.947728
       8.670000       2.295102       2.197847       0.967785
       8.680000       2.261167       2.202581       0.987534
       8.690000       2.234832       2.199904       1.007020
       8.700000       2.217734       2.191475       1.026435
       8.710000       2.210991       2.179729       1.046032
       8.720000       2.215077       2.167604       1.066020
       8.730000       2.229715       2.158123       1.086468
       8.740000       2.253789       2.153942       1.107236
       8.750000       2.285318       2.156970       1.127959
       8.760000       2.321561       2.168151       1.148069
       8.770000       2.359305       2.187434       1.166869
       8.780000       2.395348       2.213910       1.183640
       8.790000       2.427095       2.246101       1.197767
       8.800000       2.453083       2.282295       1.208866
       8.810000       2.473285       2.320882       1.216848
       8.820000       2.489083       2.360571       1.221901
       8.830000       2.502947       2.400489       1.224386
       8.840000       2.517924       2.440140       1.224699
       8.850000       2.537083       2.479280       1.223158
       8.860000       2.563044       2.517738       1.219985
       8.870000       2.597661       2.555222       1.215356
       8.880000       2.641875       2.591150       1.209500
       8.890000       2.695697       2.624575       1.202774
       8.900000       2.758295       2.654273       1.195691
       8.910000       2.828171       2.679001       1.188896
       8.920000       2.903424       2.697850       1.183111
       8.930000       2.982067       2.710551       1.179039
       8.940000       3.062362       2.717605       1.177269
       8.950000       3.143065       2.720176       1.178195
       8.960000       3.223518       2.719805       1.181959
       8.970000       3.303536       2.718042       1.188434
       8.980000       3.383137       2.716129       1.197246
       8.990000       3.462178       2.714816       1.207809
       9.000000       3.540006       2.714335       1.219392
       9.010000       3.615184       2.714511       1.231205
       9.020000       3.685419       2.714966       1.242520
       9.030000       3.747753       2.715348       1.252796
       9.040000       3.799079       2.715495       1.261805
       9.050000       3.836846       2.715459       1.269687
       9.060000       3.859734       2.715360       1.276927
       9.070000       3.868023       2.715160       1.284241
       9.080000       3.863564       2.714525       1.292429
       9.090000       3.849396       2.712880       1.302216
       9.100000       3.829166       2.709703       1.314135
       9.110000       3.806503       2.704894       1.328462
       9.120000       3.784451       2.699035       1.345219
       9.130000       3.765075       2.693404       1.364233
       9.140000       3.749306       2.689734       1.385206
       9.150000       3.737056       2.689863       1.407778
       9.160000       3.727553       2.695398       1.431540
       9.170000       3.719770       2.707486       1.456044
       9.180000       3.712772       2.726650       1.480833
       9.190000       3.705868       2.752648       1.505524
       9.200000       3.698562       2.784372       1.529933
       9.210000       3.690405       2.819869       1.554161
       9.220000       3.680859       2.856573       1.578605
       9.230000       3.669272       2.891755       1.603860
       9.240000       3.654975       2.923066       1.630566
       9.250000       3.637497       2.948977       1.659263
       9.260000       3.616808       2.968943       1.690291
       9.270000       3.593496       2.983295       1.723756
       9.280000       3.568763       2.992953       1.759572
       9.290000       3.544196       2.999121       1.797550
       9.300000       3.521359       3.003039       1.837514
       9.310000       3.501350       3.005813       1.879401
       9.320000       3.484488       3.008300       1.923294
       9.330000       3.470224       3.011032       1.969377
       9.340000       3.457257       3.014145       2.017828
       9.350000       3.443744       3.017319       2.068710
       9.360000       3.427552       3.019732       2.121901
       9.370000       3.406562       3.020109       2.177103
       9.380000       3.379061       3.016944       2.233894
       9.390000       3.344187       3.008903       2.291814
       9.400000       3.302246       2.995311       2.350426
       9.410000       3.254748       2.976535       2.409372
       9.420000       3.204107       2.954088       2.468424
       9.430000       3.153163       2.930405       2.527538
       9.440000       3.104684       2.908353       2.586907
       9.450000       3.061032       2.890634       2.646999
       9.460000       3.023996       2.879283       2.708546
       9.470000       2.994770       2.875377       2.772474
       9.480000       2.973981       2.879038       2.839789
       9.490000       2.961752       2.889628       2.911434
       9.500000       2.957752       2.906023       2.988161
       9.510000       2.961264       2.926799       3.070469
       9.520000       2.971217       2.950283       3.158645
       9.530000       2.986216       2.974502       3.252909
       9.540000       3.004588       2.997196       3.353607
       9.550000       3.024521       3.015977       3.461327
       9.560000       3.044303       3.028673       3.576872
       9.570000       3.062608       3.033719       3.701109
       9.580000       3.078691       3.030432       3.834806
       9.590000       3.092393       3.019047       3.978595
       9.600000       3.103938       3.000533       4.133069
       9.610000       3.113622       2.976310       4.298921
       9.620000       3.121548       2.948060       4.476971
       9.630000       3.127491       2.917657       4.667979
       9.640000       3.130904       2.887160       4.872265
       9.650000       3.131033       2.858709       5.089201
       9.660000       3.127119       2.834260       5.316741
       9.670000       3.118663       2.815259       5.551090
       9.680000       3.105725       2.802390       5.786619
       9.690000       3.089150       2.795535       6.016084
       9.700000       3.070603       2.793949       6.231160
       9.710000       3.052344       2.796568       6.423262
       9.720000       3.036791       2.802297       6.584540
       9.730000       3.026005       2.810177       6.708892
       9.740000       3.021249       2.819387       6.792737
       9.750000       3.022739       2.829123       6.835360
       9.760000       3.029618       2.838421       6.838705
       9.770000       3.040126       2.846022       6.806697
       9.780000       3.051877       2.850307       6.744333
       9.790000       3.062164       2.849327       6.656873
       9.800000       3.068218       2.840924       6.549414
       9.810000       3.067417       2.822948       6.426879
       9.820000       3.057479       2.793609       6.294260
       9.830000       3.036671       2.751935       6.156767
       9.840000       3.003994       2.698204       6.019637
       9.850000       2.959286       2.634128       5.887559
       9.860000       2.903176       2.562641       5.763906
       9.870000       2.836906       2.487349       5.650061
       9.880000       2.762124       2.411876       5.545114
       9.890000       2.680735       2.339340       5.446059
       9.900000       2.594822       2.272100       5.348500
       9.910000       2.506579       2.211723       5.247740
       9.920000       2.418166       2.159082       5.139990
       9.930000       2.331514       2.114482       5.023393
       9.940000       2.248127       2.077772       4.898545
       9.950000       2.168988       2.048451       4.768353
       9.960000       2.094593       2.025774       4.637331
       9.970000       2.025115       2.008904       4.510584
       9.980000       1.960619       1.997080       4.392831
       9.990000       1.901255       1.989770       4.287674
      10.000000       1.847351       1.986745       4.197207
      10.010000       1.799375       1.988033       4.121878
      10.020000       1.757778       1.993773       4.060528
      10.030000       1.722796       2.003998       4.010558
      10.040000       1.694278       2.018453       3.968240
      10.050000       1.671601       2.036506       3.929193
      10.060000       1.653712       2.057186       3.888998
      10.070000       1.639294       2.079349       3.843853
      10.080000       1.627021       2.101905       3.791118
      10.090000       1.615839       2.124068       3.729622
      10.100000       1.605165       2.145534       3.659668
      10.110000       1.594948       2.166540       3.582770
      10.120000       1.585553       2.187766       3.501225
      10.130000       1.577530       2.210098       3.417608
      10.140000       1.571349       2.234312       3.334282
      10.150000       1.567195       2.260735       3.253015
      10.160000       1.564851       2.288987       3.174774
      10.170000       1.563687       2.317865       3.099770
      10.180000       1.562742       2.345404       3.027715
      10.190000       1.560852       2.369140       2.958199
      10.200000       1.556829       2.386536       2.891035
      10.210000       1.549670       2.395487       2.826453
      10.220000       1.538770       2.394775       2.765109
      10.230000       1.524092       2.384305       2.707939
      10.240000       1.506226       2.365068       2.655938
      10.250000       1.486298       2.338851       2.609920
      10.260000       1.465743       2.307837       2.570308
      10.270000       1.446018       2.274187       2.536990
      10.280000       1.428351       2.239725       2.509248
      10.290000       1.413583       2.205732       2.485776
      10.300000       1.402120       2.172917       2.464802
      10.310000       1.393958       2.141522       2.444313
      10.320000       1.388757       2.111533       2.422366
      10.330000       1.385935       2.082930       2.397427
      10.340000       1.384786       2.055895       2.368662
      10.350000       1.384632       2.030932       2.336093
      10.360000       1.385001       2.008853       2.300576
      10.370000       1.385775       1.990607       2.263585
      10.380000       1.387265       1.977014       2.226873
      10.390000       1.390155       1.968491       2.192127
      10.400000       1.395324       1.964866       2.160724
      10.410000       1.403607       1.965358       2.133647
      10.420000       1.415581       1.968695       2.111557
      10.430000       1.431429       1.973353       2.094934
      10.440000       1.450912       1.977816       2.084211
      10.450000       1.473430       1.980797       2.079841
      10.460000       1.498168       1.981394       2.082274
      10.470000       1.524283       1.979185       2.091882
      10.480000       1.551125       1.974269       2.108846
      10.490000       1.578406       1.967229       2.133051
      10.500000       1.606256       1.958986       2.164019
      10.510000       1.635116       1.950556       2.200914
      10.520000       1.665503       1.942800       2.242600
      10.530000       1.697742       1.936254       2.287745
      10.540000       1.731761       1.931124       2.334925
      10.550000       1.767016       1.927419       2.382678
      10.560000       1.802545       1.925172       2.429496
      10.570000       1.837123       1.924604       2.473794
      10.580000       1.869424       1.926162       2.513889
      10.590000       1.898149       1.930382       2.548074
      10.600000       1.922078       1.937662       2.574773
      10.610000       1.940054       1.948034       2.592776
      10.620000       1.950966       1.961044       2.601479
      10.630000       1.953764       1.975747       2.601068
      10.640000       1.947540       1.990794       2.592562
      10.650000       1.931634       2.004592       2.577688
      10.660000       1.905755       2.015527       2.558617
      10.670000       1.870072       2.022237       2.537613
      10.680000       1.825295       2.023894       2.516712
      10.690000       1.772707       2.020427       2.497491
      10.700000       1.714113       2.012602       2.480971
      10.710000       1.651657       2.001919       2.467612
      10.720000       1.587543       1.990349       2.457391
      10.730000       1.523725       1.979943       2.449904
      10.740000       1.461689       1.972414       2.444489
      10.750000       1.402397       1.968778       2.440326
      10.760000       1.346375       1.969166       2.436537
      10.770000       1.293891       1.972839       2.432262
      10.780000       1.245111       1.978390       2.426729
      10.790000       1.200185       1.984059       2.419301
      10.800000       1.159261       1.988084       2.409526
      10.810000       1.122455       1.989016       2.397198
      10.820000       1.089818       1.985965       2.382419
      10.830000       1.061327       1.978711       2.365622
      10.840000       1.036862       1.967652       2.347529
      10.850000       1.016188       1.953550       2.329042
      10.860000       0.998923       1.937159       2.311110
      10.870000       0.984503       1.918894       2.294635
      10.880000       0.972185       1.898678       2.280425
      10.890000       0.961106       1.876076       2.269190
      10.900000       0.950397       1.850642       2.261522
      10.910000       0.939343       1.822332       2.257831
      10.920000       0.927532       1.791758       2.258264
      10.930000       0.914922       1.760183       2.262625
      10.940000       0.901819       1.729261       2.270362
      10.950000       0.888757       1.700665       2.280601
      10.960000       0.876355       1.675757       2.292208
      10.970000       0.865182       1.655356       2.303853
      10.980000       0.855681       1.639650       2.314058
      10.990000       0.848144       1.628216       2.321243
      11.000000       0.842734       1.620151       2.323758
      11.010000       0.839520       1.614271       2.319961
      11.020000       0.838491       1.609351       2.308370
      11.030000       0.839546       1.604359       2.287897
      11.040000       0.842464       1.598619       2.258138
      11.050000       0.846872       1.591880       2.219591
      11.060000       0.852254       1.584272       2.173704
      11.070000       0.858003       1.576185       2.122683
      11.080000       0.863528       1.568140       2.069123
      11.090000       0.868381       1.560679       2.015584
      11.100000       0.872348       1.554287       1.964249
      11.110000       0.875467       1.549332       1.916727
      11.120000       0.877951       1.545993       1.874031
      11.130000       0.880051       1.544188       1.836656
      11.140000       0.881946       1.543514       1.804720
      11.150000       0.883691       1.543237       1.778115
      11.160000       0.885246       1.542375       1.756626
      11.170000       0.886552       1.539872       1.739989
      11.180000       0.887604       1.534835       1.727884
      11.190000       0.888477       1.526728       1.719887
      11.200000       0.889269       1.515428       1.715394
      11.210000       0.890009       1.501127       1.713595
      11.220000       0.890554       1.484132       1.713502
      11.230000       0.890570       1.464702       1.714041
      11.240000       0.889615       1.443013       1.714170
      11.250000       0.887322       1.419289       1.713004
      11.260000       0.883609       1.394016       1.709889
      11.270000       0.878830       1.368105       1.704461
      11.280000       0.873783       1.342913       1.696657
      11.290000       0.869589       1.320101       1.686683
      11.300000       0.867478       1.301391       1.674924
      11.310000       0.868588       1.288325       1.661812
      11.320000       0.873802       1.282095       1.647686
      11.330000       0.883665       1.283445       1.632695
      11.340000       0.898341       1.292628       1.616782
      11.350000       0.917608       1.309389       1.599748
      11.360000       0.940872       1.332943       1.581373
      11.370000       0.967205       1.361996       1.561550
      11.380000       0.995424       1.394798       1.540385
      11.390000       1.024208       1.429299       1.518240
      11.400000       1.052254       1.463399       1.495704
      11.410000       1.078424       1.495245       1.473500
      11.420000       1.101851       1.523493       1.452366
      11.430000       1.121973       1.547435       1.432939
      11.440000       1.138504       1.566945       1.415670
      11.450000       1.151368       1.582296       1.400779
      11.460000       1.160623       1.593915       1.388243
      11.470000       1.166409       1.602181       1.377832
      11.480000       1.168909       1.607288       1.369179
      11.490000       1.168347       1.609209       1.361890
      11.500000       1.165007       1.607746       1.355655
      11.510000       1.159285       1.602671       1.350342
      11.520000       1.151748       1.593906       1.346039
      11.530000       1.143154       1.581698       1.343024
      11.540000       1.134395       1.566722       1.341696
      11.550000       1.126373       1.550088       1.342449
      11.560000       1.119831       1.533221       1.345559
      11.570000       1.115222       1.517656       1.351086
      11.580000       1.112653       1.504798       1.358830
      11.590000       1.111916       1.495702       1.368352
      11.600000       1.112597       1.490914       1.379060
      11.610000       1.114186       1.490396       1.390347
      11.620000       1.116143       1.493508       1.401720
      11.630000       1.117890       1.499052       1.412908
      11.640000       1.118770       1.505389       1.423903
      11.650000       1.118032       1.510641       1.434923
      11.660000       1.114877       1.512964       1.446309
      11.670000       1.108563       1.510854       1.458384
      11.680000       1.098524       1.503384       1.471303
      11.690000       1.084467       1.490303       1.484940
      11.700000       1.066434       1.471976       1.498839
      11.710000       1.044847       1.449237       1.512224
      11.720000       1.020501       1.423200       1.524083
      11.730000       0.994489       1.395091       1.533274
      11.740000       0.968044       1.366084       1.538673
      11.750000       0.942355       1.337158       1.539311
      11.760000       0.918410       1.309020       1.534521
      11.770000       0.896916       1.282105       1.524022
      11.780000       0.878296       1.256672       1.507954
      11.790000       0.862723       1.232913       1.486847
      11.800000       0.850171       1.211028       1.461528
      11.810000       0.840450       1.191219       1.433026
      11.820000       0.833228       1.173641       1.402466
      11.830000       0.828055       1.158353       1.370989
      11.840000       0.824393       1.145320       1.339692
      11.850000       0.821664       1.134453       1.309583
      11.860000       0.819325       1.125674       1.281528
      11.870000       0.816956       1.118959       1.256202
      11.880000       0.814341       1.114352       1.234055
      11.890000       0.811511       1.111933       1.215303
      11.900000       0.808711       1.111759       1.199950
      11.910000       0.806297       1.113792       1.187829
      11.920000       0.804588       1.117821       1.178625
      11.930000       0.803719       1.123400       1.171895
      11.940000       0.803546       1.129837       1.167077
      11.950000       0.803625       1.136241       1.163510
      11.960000       0.803287       1.141641       1.160478
      11.970000       0.801781       1.145139       1.157262
      11.980000       0.798463       1.146101       1.153226
      11.990000       0.792960       1.144295       1.147911
      12.000000       0.785271       1.139953       1.141135
      12.010000       0.775769       1.133709       1.133066
      12.020000       0.765108       1.126433       1.124228
      12.030000       0.754061       1.119027       1.115429
      12.040000       0.743355       1.112237       1.107626
      12.050000       0.733547       1.106529       1.101753
      12.060000       0.724984       1.102044       1.098582
      12.070000       0.717841       1.098612       1.098648
      12.080000       0.712214       1.095823       1.102228
      12.090000       0.708212       1.093157       1.109366
      12.100000       0.706013       1.090140       1.119902
      12.110000       0.705861       1.086490       1.133477
      12.120000       0.708009       1.082213       1.149511
      12.130000       0.712657       1.077612       1.167186
      12.140000       0.719886       1.073228       1.185467
      12.150000       0.729625       1.069726       1.203168
      12.160000       0.741632       1.067756       1.219082
      12.170000       0.755505       1.067826       1.232129
      12.180000       0.770712       1.070219       1.241477
      12.190000       0.786641       1.074957       1.246600
      12.200000       0.802657       1.081798       1.247270
      12.210000       0.818158       1.090256       1.243522
      12.220000       0.832603       1.099614       1.235640
      12.230000       0.845502       1.108953       1.224175
      12.240000       0.856386       1.117197       1.209962
      12.250000       0.864796       1.123200       1.194081
      12.260000       0.870320       1.125877       1.177756
      12.270000       0.872677       1.124375       1.162188
      12.280000       0.871840       1.118237       1.148419
      12.290000       0.868116       1.107512       1.137243
      12.300000       0.862154       1.092785       1.129183
      12.310000       0.854861       1.075081       1.124525
      12.320000       0.847248       1.055676       1.123358
      12.330000       0.840240       1.035854       1.125637
      12.340000       0.834506       1.016675       1.131217
      12.350000       0.830354       0.998803       1.139893
      12.360000       0.827710       0.982440       1.151407
      12.370000       0.826193       0.967381       1.165451
      12.380000       0.825253       0.953174       1.181668
      12.390000       0.824314       0.939360       1.199668
      12.400000       0.822892       0.925701       1.219070
      12.410000       0.820643       0.912323       1.239547
      12.420000       0.817366       0.899725       1.260889
      12.430000       0.812978       0.888653       1.283036
      12.440000       0.807505       0.879911       1.306093
      12.450000       0.801082       0.874171       1.330292
      12.460000       0.793948       0.871849       1.355919
      12.470000       0.786422       0.873065       1.383208
      12.480000       0.778865       0.877674       1.412255
      12.490000       0.771646       0.885353       1.442962
      12.500000       0.765120       0.895686       1.475045
      12.510000       0.759602       0.908239       1.508073
      12.520000       0.755330       0.922585       1.541543
      12.530000       0.752418       0.938298       1.574927
      12.540000       0.750810       0.954938       1.607698
      12.550000       0.750269       0.972037       1.639317
      12.560000       0.750413       0.989121       1.669209
      12.570000       0.750799       1.005727       1.696737
      12.580000       0.751055       1.021416       1.721206
      12.590000       0.751004       1.035747       1.741893
      12.600000       0.750739       1.048234       1.758101
      12.610000       0.750607       1.058280       1.769211
      12.620000       0.751105       1.065144       1.774714
      12.630000       0.752731       1.067964       1.774218
      12.640000       0.755840       1.065884       1.767470
      12.650000       0.760553       1.058274       1.754400
      12.660000       0.766731       1.044967       1.735196
      12.670000       0.774017       1.026404       1.710356
      12.680000       0.781934       1.003589       1.680684
      12.690000       0.790011       0.977886       1.647206
      12.700000       0.797923       0.950746       1.611018
      12.710000       0.805590       0.923483       1.573147
      12.720000       0.813187       0.897167       1.534469
      12.730000       0.821067       0.872619       1.495707
      12.740000       0.829608       0.850470       1.457494
      12.750000       0.839052       0.831221       1.420445
      12.760000       0.849399       0.815273       1.385208
      12.770000       0.860389       0.802933       1.352461
      12.780000       0.871556       0.794399       1.322878
      12.790000       0.882324       0.789724       1.297064
      12.800000       0.892093       0.788785       1.275486
      12.810000       0.900288       0.791240       1.258423
      12.820000       0.906381       0.796511       1.245945
      12.830000       0.909898       0.803788       1.237936
      12.840000       0.910456       0.812082       1.234151
      12.850000       0.907799       0.820323       1.234285
      12.860000       0.901843       0.827502       1.238030
      12.870000       0.892692       0.832804       1.245093
      12.880000       0.880638       0.835699       1.255190
      12.890000       0.866130       0.835967       1.268017
      12.900000       0.849728       0.833663       1.283244
      12.910000       0.832039       0.829049       1.300514
      12.920000       0.813648       0.822524       1.319479
      12.930000       0.795060       0.814555       1.339825
      12.940000       0.776673       0.805627       1.361299
      12.950000       0.758785       0.796216       1.383714
      12.960000       0.741622       0.786781       1.406947
      12.970000       0.725375       0.777746       1.430912
      12.980000       0.710214       0.769480       1.455529
      12.990000       0.696274       0.762250       1.480669
      13.000000       0.683619       0.756176       1.506091
      13.010000       0.672217       0.751215       1.531386
      13.020000       0.661937       0.747182       1.555935
      13.030000       0.652582       0.743811       1.578910
      13.040000       0.643942       0.740827       1.599315
      13.050000       0.635854       0.738025       1.616074
      13.060000       0.628241       0.735314       1.628146
      13.070000       0.621113       0.732739       1.634636
      13.080000       0.614537       0.730477       1.634890
      13.090000       0.608599       0.728808       1.628557
      13.100000       0.603359       0.728067       1.615629
      13.110000       0.598835       0.728587       1.596447
      13.120000       0.594986       0.730630       1.571679
      13.130000       0.591706       0.734322       1.542255
      13.140000       0.588820       0.739605       1.509241
      13.150000       0.586093       0.746220       1.473694
      13.160000       0.583257       0.753714       1.436533
      13.170000       0.580056       0.761468       1.398458
      13.180000       0.576299       0.768724       1.359958
      13.190000       0.571893       0.774602       1.321374
      13.200000       0.566865       0.778143       1.282989
      13.210000       0.561357       0.778412       1.245102
      13.220000       0.555605       0.774660       1.208055
      13.230000       0.549914       0.766511       1.172232
      13.240000       0.544623       0.754077       1.138028
      13.250000       0.540077       0.737964       1.105810
      13.260000       0.536586       0.719138       1.075887
      13.270000       0.534393       0.698714       1.048492
      13.280000       0.533652       0.677744       1.023775
      13.290000       0.534402       0.657065       1.001797
      13.300000       0.536572       0.637234       0.982537
      13.310000       0.539982       0.618551       0.965889
      13.320000       0.544356       0.601132       0.951665
      13.330000       0.549344       0.585007       0.939602
      13.340000       0.554550       0.570198       0.929384
      13.350000       0.559581       0.556767       0.920674
      13.360000       0.564094       0.544821       0.913155
      13.370000       0.567840       0.534486       0.906570
      13.380000       0.570677       0.525879       0.900761
      13.390000       0.572554       0.519076       0.895686
      13.400000       0.573450       0.514090       0.891417
      13.410000       0.573329       0.510859       0.888114
      13.420000       0.572106       0.509256       0.885985
      13.430000       0.569672       0.509110       0.885244
      13.440000       0.565958       0.510252       0.886078
      13.450000       0.561013       0.512558       0.888618
      13.460000       0.555063       0.515990       0.892920
      13.470000       0.548511       0.520610       0.898946
      13.480000       0.541888       0.526565       0.906554
      13.490000       0.535765       0.534032       0.915504
      13.500000       0.530650       0.543161       0.925475
      13.510000       0.526914       0.554020       0.936118
      13.520000       0.524740       0.566555       0.947105
      13.530000       0.524101       0.580593       0.958172
      13.540000       0.524784       0.595847       0.969152
      13.550000       0.526430       0.611934       0.979993
      13.560000       0.528607       0.628372       0.990774
      13.570000       0.530881       0.644580       1.001709
      13.580000       0.532883       0.659891       1.013127
      13.590000       0.534342       0.673606       1.025421
      13.600000       0.535091       0.685082       1.038955
      13.610000       0.535047       0.693848       1.053953
      13.620000       0.534179       0.699698       1.070388
      13.630000       0.532483       0.702734       1.087908
      13.640000       0.529964       0.703341       1.105829
      13.650000       0.526644       0.702104       1.123188
      13.660000       0.522568       0.699698       1.138869
      13.670000       0.517824       0.696771       1.151766
      13.680000       0.512543       0.693848       1.160926
      13.690000       0.506893       0.691276       1.165661
      13.700000       0.501049       0.689208       1.165572
      13.710000       0.495172       0.687631       1.160530
      13.720000       0.489391       0.686413       1.150618
      13.730000       0.483797       0.685367       1.136098
      13.740000       0.478463       0.684294       1.117399
      13.750000       0.473469       0.682995       1.095114
      13.760000       0.468925       0.681274       1.069972
      13.770000       0.464977       0.678940       1.042786
      13.780000       0.461798       0.675827       1.014381
      13.790000       0.459580       0.671835       0.985529
      13.800000       0.458504       0.666962       0.956912
      13.810000       0.458727       0.661310       0.929096
      13.820000       0.460346       0.655058       0.902518
      13.830000       0.463376       0.648419       0.877482
      13.840000       0.467723       0.641590       0.854153
      13.850000       0.473182       0.634709       0.832575
      13.860000       0.479453       0.627823       0.812703
      13.870000       0.486193       0.620857       0.794445
      13.880000       0.493080       0.613633       0.777705
      13.890000       0.499870       0.605905       0.762395
      13.900000       0.506433       0.597440       0.748442
      13.910000       0.512736       0.588091       0.735777
      13.920000       0.518799       0.577852       0.724332
      13.930000       0.524656       0.566860       0.714043
      13.940000       0.530322       0.555363       0.704857
      13.950000       0.535800       0.543647       0.696739
      13.960000       0.541088       0.531968       0.689676
      13.970000       0.546193       0.520490       0.683675
      13.980000       0.551150       0.509264       0.678766
      13.990000       0.556023       0.498250       0.674991
      14.000000       0.560901       0.487356       0.672397
      14.010000       0.565871       0.476494       0.671027
      14.020000       0.570972       0.465611       0.670916
      14.030000       0.576138       0.454711       0.672104
      14.040000       0.581187       0.443864       0.674650
      14.050000       0.585841       0.433198       0.678631
      14.060000       0.589807       0.422884       0.684126
      14.070000       0.592856       0.413113       0.691187
      14.080000       0.594878       0.404059       0.699800
      14.090000       0.595869       0.395862       0.709864
      14.100000       0.595862       0.388604       0.721180
      14.110000       0.594839       0.382305       0.733471
      14.120000       0.592688       0.376932       0.746415
      14.130000       0.589209       0.372413       0.759708
      14.140000       0.584181       0.368668       0.773131
      14.150000       0.577448       0.365640       0.786590
      14.160000       0.569009       0.363325       0.800121
      14.170000       0.559051       0.361780       0.813853
      14.180000       0.547944       0.361118       0.827935
      14.190000       0.536166       0.361499       0.842463
      14.200000       0.524219       0.363104       0.857414
      14.210000       0.512533       0.366113       0.872595
      14.220000       0.501418       0.370671       0.887617
      14.230000       0.491037       0.376858       0.901885
      14.240000       0.481422       0.384651       0.914627
      14.250000       0.472501       0.393902       0.924979
      14.260000       0.464141       0.404320       0.932122
      14.270000       0.456186       0.415485       0.935458
      14.280000       0.448486       0.426876       0.934766
      14.290000       0.440926       0.437942       0.930262
      14.300000       0.433432       0.448160       0.922550
      14.310000       0.425970       0.457104       0.912460
      14.320000       0.418547       0.464487       0.900856
      14.330000       0.411188       0.470189       0.888464
      14.340000       0.403934       0.474267       0.875790
      14.350000       0.396836       0.476950       0.863108
      14.360000       0.389951       0.478604       0.850518
      14.370000       0.383335       0.479683       0.838022
      14.380000       0.377027       0.480659       0.825600
      14.390000       0.371040       0.481952       0.813260
      14.400000       0.365358       0.483888       0.801053
      14.410000       0.359951       0.486680       0.789070
      14.420000       0.354807       0.490441       0.777403
      14.430000       0.349957       0.495215       0.766124
      14.440000       0.345478       0.501004       0.755251
      14.450000       0.341481       0.507785       0.744746
      14.460000       0.338083       0.515497       0.734529
      14.470000       0.335373       0.524021       0.724503
      14.480000       0.333389       0.533146       0.714586
      14.490000       0.332113       0.542545       0.704737
      14.500000       0.331476       0.551781       0.694958
      14.510000       0.331380       0.560343       0.685289
      14.520000       0.331730       0.567719       0.675799
      14.530000       0.332465       0.573490       0.666580
      14.540000       0.333568       0.577403       0.657742
      14.550000       0.335069       0.579410       0.649419
      14.560000       0.337024       0.579659       0.641756
      14.570000       0.339491       0.578449       0.634884
      14.580000       0.342498       0.576145       0.628887
      14.590000       0.346019       0.573091       0.623766
      14.600000       0.349955       0.569531       0.619435
      14.610000       0.354124       0.565571       0.615738
      14.620000       0.358269       0.561179       0.612511
      14.630000       0.362071       0.556230       0.609647
      14.640000       0.365192       0.550574       0.607161
      14.650000       0.367324       0.544096       0.605208
      14.660000       0.368241       0.536753       0.604047
      14.670000       0.367846       0.528574       0.603968
      14.680000       0.366182       0.519643       0.605194
      14.690000       0.363424       0.510073       0.607810
      14.700000       0.359840       0.499996       0.611727
      14.710000       0.355736       0.489554       0.616684
      14.720000       0.351412       0.478887       0.622289
      14.730000       0.347120       0.468123       0.628071
      14.740000       0.343041       0.457371       0.633535
      14.750000       0.339273       0.446725       0.638209
      14.760000       0.335829       0.436270       0.641694
      14.770000       0.332658       0.426088       0.643711
      14.780000       0.329672       0.416257       0.644132
      14.790000       0.326783       0.406849       0.642994
      14.800000       0.323939       0.397933       0.640488
      14.810000       0.321149       0.389578       0.636913
      14.820000       0.318491       0.381860       0.632634
      14.830000       0.316100       0.374861       0.628028
      14.840000       0.314142       0.368661       0.623456
      14.850000       0.312778       0.363334       0.619248
      14.860000       0.312126       0.358931       0.615684
      14.870000       0.312227       0.355472       0.612976
      14.880000       0.313036       0.352937       0.611249
      14.890000       0.314421       0.351256       0.610524
      14.900000       0.316189       0.350310       0.610713
      14.910000       0.318130       0.349947       0.611629
      14.920000       0.320065       0.350001       0.612985
      14.930000       0.321887       0.350322       0.614408
      14.940000       0.323575       0.350791       0.615439
      14.950000       0.325181       0.351342       0.615569
      14.960000       0.326800       0.351958       0.614288
      14.970000       0.328551       0.352673       0.611158
      14.980000       0.330548       0.353557       0.605895
      14.990000       0.332899       0.354698       0.598431
      15.000000       0.335707       0.356172       0.588933
      15.010000       0.339062       0.358020       0.577772
      15.020000       0.343043       0.360233       0.565445
      15.030000       0.347693       0.362753       0.552489
      15.040000       0.353008       0.365480       0.539396
      15.050000       0.358908       0.368295       0.526565
      15.060000       0.365232       0.371096       0.514291
      15.070000       0.371743       0.373830       0.502761
      15.080000       0.378137       0.376521       0.492077
      15.090000       0.384084       0.379276       0.482281
      15.100000       0.389264       0.382265       0.473377
      15.110000       0.393413       0.385681       0.465357
      15.120000       0.396361       0.389704       0.458204
      15.130000       0.398041       0.394468       0.451886
      15.140000       0.398485       0.400035       0.446344
      15.150000       0.397800       0.406383       0.441481
      15.160000       0.396156       0.413399       0.437160
      15.170000       0.393765       0.420892       0.433215
      15.180000       0.390873       0.428630       0.429471
      15.190000       0.387741       0.436408       0.425764
      15.200000       0.384613       0.444116       0.421951
      15.210000       0.381683       0.451798       0.417917
      15.220000       0.379058       0.459645       0.413573
      15.230000       0.376741       0.467946       0.408864
      15.240000       0.374636       0.476992       0.403774
      15.250000       0.372577       0.486978       0.398351
      15.260000       0.370369       0.497919       0.392712
      15.270000       0.367841       0.509615       0.387049
      15.280000       0.364874       0.521652       0.381599
      15.290000       0.361416       0.533446       0.376613
      15.300000       0.357478       0.544332       0.372312
      15.310000       0.353127       0.553666       0.368859
      15.320000       0.348480       0.560936       0.366342
      15.330000       0.343691       0.565853       0.364771
      15.340000       0.338948       0.568391       0.364093
      15.350000       0.334453       0.568771       0.364204
      15.360000       0.330400       0.567388       0.364973
      15.370000       0.326955       0.564718       0.366257
      15.380000       0.324237       0.561230       0.367922
      15.390000       0.322316       0.557315       0.369841
      15.400000       0.321225       0.553262       0.371896
      15.410000       0.320971       0.549250       0.373962
      15.420000       0.321547       0.545364       0.375912
      15.430000       0.322921       0.541618       0.377615
      15.440000       0.325018       0.537968       0.378955
      15.450000       0.327694       0.534339       0.379849
      15.460000       0.330742       0.530650       0.380268
      15.470000       0.333908       0.526863       0.380237
      15.480000       0.336935       0.523016       0.379827
      15.490000       0.339611       0.519253       0.379137
      15.500000       0.341805       0.515801       0.378272
      15.510000       0.343473       0.512920       0.377328
      15.520000       0.344642       0.510828       0.376386
      15.530000       0.345358       0.509646       0.375516
      15.540000       0.345644       0.509362       0.374778
      15.550000       0.345454       0.509827       0.374230
      15.560000       0.344674       0.510779       0.373925
      15.570000       0.343153       0.511870       0.373912
      15.580000       0.340752       0.512708       0.374231
      15.590000       0.337386       0.512913       0.374911
      15.600000       0.333053       0.512173       0.375962
      15.610000       0.327836       0.510303       0.377371
      15.620000       0.321894       0.507282       0.379097
      15.630000       0.315452       0.503263       0.381075
      15.640000       0.308784       0.498556       0.383224
      15.650000       0.302194       0.493577       0.385458
      15.660000       0.295982       0.488785       0.387697
      15.670000       0.290410       0.484599       0.389867
      15.680000       0.285667       0.481329       0.391895
      15.690000       0.281852       0.479130       0.393713
      15.700000       0.278978       0.477989       0.395256
      15.710000       0.276986       0.477758       0.396471
      15.720000       0.275764       0.478208       0.397316
      15.730000       0.275171       0.479094       0.397751
      15.740000       0.275042       0.480200       0.397713
      15.750000       0.275207       0.481378       0.397102
      15.760000       0.275484       0.482549       0.395783
      15.770000       0.275696       0.483705       0.393600
      15.780000       0.275679       0.484884       0.390432
      15.790000       0.275292       0.486156       0.386232
      15.800000       0.274438       0.487588       0.381069
      15.810000       0.273072       0.489235       0.375121
      15.820000       0.271217       0.491130       0.368640
      15.830000       0.268977       0.493285       0.361894
      15.840000       0.266521       0.495702       0.355113
      15.850000       0.264062       0.498372       0.348464
      15.860000       0.261825       0.501256       0.342050
      15.870000       0.260005       0.504278       0.335941
      15.880000       0.258743       0.507302       0.330195
      15.890000       0.258104       0.510135       0.324883
      15.900000       0.258078       0.512530       0.320092
      15.910000       0.258581       0.514218       0.315918
      15.920000       0.259473       0.514936       0.312451
      15.930000       0.260573       0.514471       0.309762
      15.940000       0.261687       0.512695       0.307893
      15.950000       0.262630       0.509587       0.306847
      15.960000       0.263253       0.505241       0.306573
      15.970000       0.263460       0.499843       0.306965
      15.980000       0.263216       0.493660       0.307854
      15.990000       0.262537       0.487003       0.309027
      16.000000       0.261471       0.480210       0.310246
      16.010000       0.260072       0.473614       0.311285
      16.020000       0.258383       0.467512       0.311969
      16.030000       0.256433       0.462137       0.312207
      16.040000       0.254247       0.457648       0.312005
      16.050000       0.251861       0.454133       0.311462
      16.060000       0.249330       0.451624       0.310740
      16.070000       0.246730       0.450120       0.310038
      16.080000       0.244140       0.449596       0.309557
      16.090000       0.241632       0.449996       0.309463
      16.100000       0.239257       0.451236       0.309864
      16.110000       0.237042       0.453199       0.310796
      16.120000       0.234998       0.455756       0.312214
      16.130000       0.233136       0.458773       0.314000
      16.140000       0.231474       0.462116       0.315975
      16.150000       0.230031       0.465631       0.317915
      16.160000       0.228813       0.469108       0.319580
      16.170000       0.227794       0.472254       0.320733
      16.180000       0.226906       0.474700       0.321175
      16.190000       0.226041       0.476038       0.320769
      16.200000       0.225072       0.475902       0.319465
      16.210000       0.223873       0.474052       0.317307
      16.220000       0.222347       0.470441       0.314417
      16.230000       0.220434       0.465242       0.310966
      16.240000       0.218126       0.458826       0.307144
      16.250000       0.215460       0.451698       0.303125
      16.260000       0.212523       0.444409       0.299055
      16.270000       0.209447       0.437478       0.295053
      16.280000       0.206404       0.431335       0.291214
      16.290000       0.203579       0.426292       0.287615
      16.300000       0.201156       0.422538       0.284325
      16.310000       0.199290       0.420153       0.281400
      16.320000       0.198094       0.419115       0.278894
      16.330000       0.197641       0.419325       0.276853
      16.340000       0.197961       0.420623       0.275309
      16.350000       0.199053       0.422804       0.274275
      16.360000       0.200883       0.425636       0.273727
      16.370000       0.203399       0.428866       0.273609
      16.380000       0.206531       0.432219       0.273830
      16.390000       0.210191       0.435412       0.274274
      16.400000       0.214274       0.438159       0.274819
      16.410000       0.218644       0.440196       0.275356
      16.420000       0.223139       0.441301       0.275809
      16.430000       0.227578       0.441327       0.276153
      16.440000       0.231783       0.440221       0.276420
      16.450000       0.235617       0.438037       0.276683
      16.460000       0.239007       0.434924       0.277041
      16.470000       0.241960       0.431109       0.277589
      16.480000       0.244553       0.426863       0.278394
      16.490000       0.246907       0.422457       0.279488
      16.500000       0.249147       0.418135       0.280862
      16.510000       0.251363       0.414083       0.282463
      16.520000       0.253594       0.410409       0.284204
      16.530000       0.255813       0.407141       0.285972
      16.540000       0.257947       0.404221       0.287638
      16.550000       0.259894       0.401522       0.289071
      16.560000       0.261541       0.398869       0.290151
      16.570000       0.262791       0.396080       0.290774
      16.580000       0.263564       0.393014       0.290863
      16.590000       0.263815       0.389609       0.290357
      16.600000       0.263544       0.385901       0.289209
      16.610000       0.262809       0.382017       0.287378
      16.620000       0.261726       0.378144       0.284829
      16.630000       0.260458       0.374497       0.281550
      16.640000       0.259182       0.371275       0.277563
      16.650000       0.258061       0.368636       0.272944
      16.660000       0.257210       0.366683       0.267824
      16.670000       0.256679       0.365451       0.262376
      16.680000       0.256451       0.364913       0.256785
      16.690000       0.256458       0.364972       0.251215
      16.700000       0.256595       0.365474       0.245789
      16.710000       0.256749       0.366222       0.240578
      16.720000       0.256825       0.367015       0.235613
      16.730000       0.256771       0.367691       0.230900
      16.740000       0.256599       0.368160       0.226440
      16.750000       0.256386       0.368424       0.222246
      16.760000       0.256259       0.368570       0.218346
      16.770000       0.256362       0.368745       0.214786
      16.780000       0.256817       0.369122       0.211624
      16.790000       0.257687       0.369867       0.208925
      16.800000       0.258956       0.371092       0.206763
      16.810000       0.260527       0.372828       0.205207
      16.820000       0.262245       0.375010       0.204310
      16.830000       0.263934       0.377488       0.204103
      16.840000       0.265437       0.380063       0.204577
      16.850000       0.266647       0.382526       0.205685
      16.860000       0.267502       0.384684       0.207344
      16.870000       0.267965       0.386373       0.209443
      16.880000       0.267992       0.387456       0.211864
      16.890000       0.267514       0.387820       0.214499
      16.900000       0.266438       0.387387       0.217268
      16.910000       0.264655       0.386119       0.220127
      16.920000       0.262066       0.384018       0.223066
      16.930000       0.258602       0.381138       0.226091
      16.940000       0.254245       0.377573       0.229207
      16.950000       0.249045       0.373457       0.232397
      16.960000       0.243122       0.368940       0.235614
      16.970000       0.236648       0.364165       0.238783
      16.980000       0.229821       0.359249       0.241813
      16.990000       0.222830       0.354263       0.244620
      17.000000       0.215842       0.349241       0.247133
      17.010000       0.208987       0.344196       0.249298
      17.020000       0.202369       0.339147       0.251077
      17.030000       0.196074       0.334147       0.252438
      17.040000       0.190184       0.329304       0.253363
      17.050000       0.184779       0.324786       0.253852
      17.060000       0.179945       0.320817       0.253938
      17.070000       0.175767       0.317654       0.253689
      17.080000       0.172324       0.315547       0.253210
      17.090000       0.169679       0.314702       0.252628
      17.100000       0.167869       0.315247       0.252072
      17.110000       0.166893       0.317205       0.251657
      17.120000       0.166712       0.320492       0.251466
      17.130000       0.167239       0.324922       0.251535
      17.140000       0.168349       0.330226       0.251865
      17.150000       0.169879       0.336079       0.252425
      17.160000       0.171653       0.342136       0.253171
      17.170000       0.173495       0.348061       0.254064
      17.180000       0.175257       0.353559       0.255074
      17.190000       0.176833       0.358390       0.256181
      17.200000       0.178173       0.362376       0.257366
      17.210000       0.179278       0.365392       0.258606
      17.220000       0.180187       0.367351       0.259870
      17.230000       0.180947       0.368201       0.261125
      17.240000       0.181592       0.367911       0.262342
      17.250000       0.182116       0.366477       0.263507
      17.260000       0.182462       0.363927       0.264625
      17.270000       0.182526       0.360325       0.265715
      17.280000       0.182175       0.355793       0.266800
      17.290000       0.181282       0.350513       0.267902
      17.300000       0.179762       0.344717       0.269040
      17.310000       0.177597       0.338655       0.270232
      17.320000       0.174843       0.332551       0.271501
      17.330000       0.171611       0.326566       0.272875
      17.340000       0.168051       0.320788       0.274394
      17.350000       0.164319       0.315242       0.276092
      17.360000       0.160568       0.309926       0.277998
      17.370000       0.156933       0.304848       0.280125
      17.380000       0.153530       0.300046       0.282466
      17.390000       0.150458       0.295596       0.284986
      17.400000       0.147796       0.291594       0.287619
      17.410000       0.145595       0.288138       0.290264
      17.420000       0.143880       0.285300       0.292789
      17.430000       0.142644       0.283129       0.295033
      17.440000       0.141857       0.281646       0.296830
      17.450000       0.141464       0.280851       0.298027
      17.460000       0.141396       0.280722       0.298509
      17.470000       0.141570       0.281215       0.298218
      17.480000       0.141899       0.282256       0.297161
      17.490000       0.142298       0.283751       0.295409
      17.500000       0.142688       0.285593       0.293085
      17.510000       0.143010       0.287673       0.290349
      17.520000       0.143220       0.289887       0.287382
      17.530000       0.143300       0.292131       0.284371
      17.540000       0.143249       0.294300       0.281489
      17.550000       0.143080       0.296276       0.278885
      17.560000       0.142812       0.297938       0.276664
      17.570000       0.142464       0.299174       0.274885
      17.580000       0.142057       0.299899       0.273560
      17.590000       0.141616       0.300069       0.272672
      17.600000       0.141173       0.299675       0.272192
      17.610000       0.140767       0.298731       0.272090
      17.620000       0.140440       0.297245       0.272339
      17.630000       0.140223       0.295204       0.272903
      17.640000       0.140139       0.292581       0.273727
      17.650000       0.140198       0.289360       0.274731
      17.660000       0.140408       0.285564       0.275817
      17.670000       0.140776       0.281278       0.276887
      17.680000       0.141307       0.276644       0.277858
      17.690000       0.142001       0.271849       0.278672
      17.700000       0.142852       0.267098       0.279303
      17.710000       0.143840       0.262586       0.279740
      17.720000       0.144940       0.258478       0.279974
      17.730000       0.146131       0.254896       0.279981
      17.740000       0.147402       0.251914       0.279718
      17.750000       0.148763       0.249567       0.279126
      17.760000       0.150235       0.247858       0.278140
      17.770000       0.151837       0.246766       0.276709
      17.780000       0.153569       0.246239       0.274801
      17.790000       0.155398       0.246192       0.272414
      17.800000       0.157248       0.246499       0.269578
      17.810000       0.159008       0.246992       0.266351
      17.820000       0.160547       0.247476       0.262819
      17.830000       0.161733       0.247759       0.259079
      17.840000       0.162459       0.247681       0.255232
      17.850000       0.162660       0.247150       0.251359
      17.860000       0.162321       0.246165       0.247517
      17.870000       0.161482       0.244815       0.243728
      17.880000       0.160228       0.243264       0.239988
      17.890000       0.158683       0.241716       0.236280
      17.900000       0.156993       0.240380       0.232589
      17.910000       0.155319       0.239433       0.228912
      17.920000       0.153820       0.239000       0.225271
      17.930000       0.152640       0.239138       0.221708
      17.940000       0.151892       0.239848       0.218288
      17.950000       0.151647       0.241074       0.215087
      17.960000       0.151932       0.242714       0.212180
      17.970000       0.152721       0.244629       0.209625
      17.980000       0.153937       0.246656       0.207449
      17.990000       0.155454       0.248629       0.205642
      18.000000       0.157110       0.250398       0.204157
      18.010000       0.158729       0.251849       0.202918
      18.020000       0.160152       0.252910       0.201837
      18.030000       0.161263       0.253552       0.200823
      18.040000       0.162010       0.253778       0.199793
      18.050000       0.162406       0.253615       0.198672
      18.060000       0.162506       0.253108       0.197397
      18.070000       0.162390       0.252321       0.195919
      18.080000       0.162131       0.251340       0.194214
      18.090000       0.161787       0.250280       0.192298
      18.100000       0.161399       0.249278       0.190228
      18.110000       0.160992       0.248476       0.188103
      18.120000       0.160589       0.247997       0.186047
      18.130000       0.160209       0.247923       0.184187
      18.140000       0.159859       0.248278       0.182630
      18.150000       0.159526       0.249026       0.181451
      18.160000       0.159177       0.250087       0.180689
      18.170000       0.158758       0.251349       0.180354
      18.180000       0.158210       0.252686       0.180441
      18.190000       0.157481       0.253965       0.180936
      18.200000       0.156537       0.255058       0.181822
      18.210000       0.155367       0.255851       0.183076
      18.220000       0.153987       0.256261       0.184662
      18.230000       0.152444       0.256250       0.186528
      18.240000       0.150812       0.255822       0.188598
      18.250000       0.149188       0.255027       0.190776
      18.260000       0.147674       0.253944       0.192959
      18.270000       0.146361       0.252671       0.195045
      18.280000       0.145311       0.251321       0.196948
      18.290000       0.144550       0.250007       0.198607
      18.300000       0.144065       0.248828       0.199990
      18.310000       0.143810       0.247855       0.201092
      18.320000       0.143716       0.247112       0.201931
      18.330000       0.143696       0.246576       0.202537
      18.340000       0.143664       0.246178       0.202951
      18.350000       0.143543       0.245816       0.203214
      18.360000       0.143281       0.245376       0.203360
      18.370000       0.142859       0.244746       0.203409
      18.380000       0.142295       0.243837       0.203362
      18.390000       0.141640       0.242593       0.203204
      18.400000       0.140962       0.240992       0.202912
      18.410000       0.140333       0.239051       0.202472
      18.420000       0.139807       0.236814       0.201894
      18.430000       0.139406       0.234347       0.201228
      18.440000       0.139119       0.231733       0.200565
      18.450000       0.138904       0.229067       0.200027
      18.460000       0.138699       0.226442       0.199749
      18.470000       0.138440       0.223949       0.199857
      18.480000       0.138074       0.221662       0.200452
      18.490000       0.137577       0.219631       0.201598
      18.500000       0.136956       0.217876       0.203320
      18.510000       0.136245       0.216393       0.205606
      18.520000       0.135492       0.215157       0.208412
      18.530000       0.134745       0.214141       0.211668
      18.540000       0.134041       0.213320       0.215279
      18.550000       0.133394       0.212677       0.219128
      18.560000       0.132795       0.212195       0.223077
      18.570000       0.132216       0.211844       0.226976
      18.580000       0.131623       0.211577       0.230681
      18.590000       0.130989       0.211325       0.234061
      18.600000       0.130306       0.211004       0.237015
      18.610000       0.129592       0.210527       0.239471
      18.620000       0.128879       0.209816       0.241382
      18.630000       0.128209       0.208815       0.242726
      18.640000       0.127619       0.207497       0.243490
      18.650000       0.127141       0.205879       0.243676
      18.660000       0.126795       0.204020       0.243297
      18.670000       0.126597       0.202019       0.242381
      18.680000       0.126555       0.200004       0.240969
      18.690000       0.126667       0.198108       0.239113
      18.700000       0.126911       0.196449       0.236874
      18.710000       0.127241       0.195113       0.234318
      18.720000       0.127583       0.194143       0.231518
      18.730000       0.127841       0.193542       0.228557
      18.740000       0.127910       0.193276       0.225526
      18.750000       0.127697       0.193287       0.222526
      18.760000       0.127146       0.193499       0.219656
      18.770000       0.126256       0.193825       0.217009
      18.780000       0.125079       0.194169       0.214659
      18.790000       0.123717       0.194436       0.212651
      18.800000       0.122290       0.194533       0.210995
      18.810000       0.120920       0.194382       0.209657
      18.820000       0.119705       0.193925       0.208564
      18.830000       0.118707       0.193130       0.207615
      18.840000       0.117950       0.191992       0.206700
      18.850000       0.117420       0.190535       0.205721
      18.860000       0.117077       0.188821       0.204613
      18.870000       0.116867       0.186946       0.203355
      18.880000       0.116735       0.185030       0.201968
      18.890000       0.116641       0.183197       0.200507
      18.900000       0.116561       0.181545       0.199043
      18.910000       0.116489       0.180122       0.197648
      18.920000       0.116434       0.178911       0.196381
      18.930000       0.116407       0.177832       0.195284
      18.940000       0.116421       0.176752       0.194388
      18.950000       0.116478       0.175513       0.193710
      18.960000       0.116573       0.173960       0.193263
      18.970000       0.116691       0.171976       0.193059
      18.980000       0.116810       0.169505       0.193108
      18.990000       0.116900       0.166562       0.193416
      19.000000       0.116932       0.163227       0.193978
      19.010000       0.116883       0.159630       0.194772
      19.020000       0.116744       0.155917       0.195753
      19.030000       0.116529       0.152228       0.196855
      19.040000       0.116278       0.148678       0.198002
      19.050000       0.116051       0.145343       0.199113
      19.060000       0.115919       0.142270       0.200121
      19.070000       0.115953       0.139479       0.200983
      19.080000       0.116210       0.136978       0.201682
      19.090000       0.116721       0.134776       0.202234
      19.100000       0.117493       0.132887       0.202678
      19.110000       0.118496       0.131329       0.203069
      19.120000       0.119674       0.130126       0.203461
      19.130000       0.120944       0.129296       0.203906
      19.140000       0.122206       0.128849       0.204448
      19.150000       0.123352       0.128783       0.205123
      19.160000       0.124271       0.129081       0.205959
      19.170000       0.124865       0.129708       0.206970
      19.180000       0.125053       0.130617       0.208148
      19.190000       0.124779       0.131745       0.209458
      19.200000       0.124022       0.133023       0.210836
      19.210000       0.122794       0.134377       0.212192
      19.220000       0.121149       0.135737       0.213419
      19.230000       0.119169       0.137049       0.214396
      19.240000       0.116963       0.138286       0.215008
      19.250000       0.114648       0.139458       0.215159
      19.260000       0.112340       0.140606       0.214788
      19.270000       0.110134       0.141791       0.213881
      19.280000       0.108097       0.143067       0.212475
      19.290000       0.106260       0.144456       0.210648
      19.300000       0.104619       0.145936       0.208505
      19.310000       0.103149       0.147432       0.206153
      19.320000       0.101819       0.148839       0.203684
      19.330000       0.100601       0.150036       0.201161
      19.340000       0.099479       0.150915       0.198620
      19.350000       0.098449       0.151402       0.196083
      19.360000       0.097515       0.151459       0.193573
      19.370000       0.096683       0.151086       0.191135
      19.380000       0.095953       0.150298       0.188840
      19.390000       0.095321       0.149117       0.186779
      19.400000       0.094770       0.147562       0.185054
      19.410000       0.094273       0.145650       0.183762
      19.420000       0.093798       0.143412       0.182981
      19.430000       0.093306       0.140902       0.182761
      19.440000       0.092762       0.138208       0.183118
      19.450000       0.092142       0.135441       0.184034
      19.460000       0.091432       0.132726       0.185454
      19.470000       0.090637       0.130178       0.187288
      19.480000       0.089775       0.127888       0.189412
      19.490000       0.088871       0.125905       0.191670
      19.500000       0.087957       0.124237       0.193887
      19.510000       0.087059       0.122853       0.195882
      19.520000       0.086201       0.121701       0.197495
      19.530000       0.085396       0.120717       0.198612
      19.540000       0.084655       0.119844       0.199188
      19.550000       0.083981       0.119043       0.199253
      19.560000       0.083375       0.118296       0.198907
      19.570000       0.082833       0.117609       0.198292
      19.580000       0.082346       0.116998       0.197564
      19.590000       0.081901       0.116489       0.196871
      19.600000       0.081481       0.116106       0.196323
      19.610000       0.081069       0.115862       0.195988
      19.620000       0.080647       0.115756       0.195876
      19.630000       0.080201       0.115771       0.195945
      19.640000       0.079724       0.115872       0.196112
      19.650000       0.079216       0.116007       0.196272
      19.660000       0.078684       0.116114       0.196321
      19.670000       0.078141       0.116131       0.196187
      19.680000       0.077602       0.116007       0.195836
      19.690000       0.077087       0.115713       0.195279
      19.700000       0.076619       0.115253       0.194564
      19.710000       0.076219       0.114660       0.193768
      19.720000       0.075906       0.113986       0.192982
      19.730000       0.075694       0.113293       0.192301
      19.740000       0.075586       0.112638       0.191821
      19.750000       0.075576       0.112067       0.191628
      19.760000       0.075647       0.111610       0.191795
      19.770000       0.075783       0.111289       0.192375
      19.780000       0.075971       0.111116       0.193390
      19.790000       0.076207       0.111099       0.194832
      19.800000       0.076496       0.111241       0.196658
      19.810000       0.076849       0.111539       0.198799
      19.820000       0.077271       0.111980       0.201167
      19.830000       0.077760       0.112550       0.203672
      19.840000       0.078302       0.113233       0.206232
      19.850000       0.078877       0.114022       0.208781
      19.860000       0.079461       0.114925       0.211276
      19.870000       0.080031       0.115964       0.213699
      19.880000       0.080570       0.117168       0.216043
      19.890000       0.081060       0.118558       0.218305
      19.900000       0.081485       0.120129       0.220463
      19.910000       0.081825       0.121837       0.222463
      19.920000       0.082061       0.123587       0.224210
      19.930000       0.082175       0.125236       0.225584
      19.940000       0.082155       0.126606       0.226465
      19.950000       0.081993       0.127514       0.226773
      19.960000       0.081692       0.127809       0.226493
      19.970000       0.081261       0.127407       0.225685
      19.980000       0.080720       0.126315       0.224471
      19.990000       0.080098       0.124629       0.223009
      20.000000       0.079430       0.122514       0.221455
