  # energy grid [eV]     epsi_x  epsi_y  epsi_z
       0.000000            NaN            NaN            NaN
       0.010000       0.015770       0.017711       0.001734
       0.020000       0.031624       0.035552       0.003479
       0.030000       0.047650       0.053658       0.005247
       0.040000       0.063937       0.072166       0.007050
       0.050000       0.080576       0.091221       0.008902
       0.060000       0.097665       0.110977       0.010815
       0.070000       0.115309       0.131602       0.012804
       0.080000       0.133620       0.153279       0.014885
       0.090000       0.152719       0.176207       0.017075
       0.100000       0.172742       0.200611       0.019394
       0.110000       0.193835       0.226737       0.021863
       0.120000       0.216164       0.254862       0.024507
       0.130000       0.239910       0.285293       0.027353
       0.140000       0.265277       0.318368       0.030432
       0.150000       0.292490       0.354456       0.033779
       0.160000       0.321800       0.393951       0.037434
       0.170000       0.353482       0.437256       0.041441
       0.180000       0.387835       0.484765       0.045850
       0.190000       0.425177       0.536824       0.050713
       0.200000       0.465839       0.593672       0.056088
       0.210000       0.510156       0.655372       0.062033
       0.220000       0.558448       0.721709       0.068602
       0.230000       0.611016       0.792101       0.075841
       0.240000       0.668128       0.865529       0.083773
       0.250000       0.730039       0.940529       0.092389
       0.260000       0.797020       1.015291       0.101626
       0.270000       0.869415       1.087859       0.111351
       0.280000       0.947705       1.156394       0.121343
       0.290000       1.032539       1.219394       0.131287
       0.300000       1.124706       1.275843       0.140792
       0.310000       1.225036       1.325269       0.149432
       0.320000       1.334242       1.367790       0.156806
       0.330000       1.452694       1.404194       0.162614
       0.340000       1.580148       1.435978       0.166702
       0.350000       1.715377       1.465260       0.169094
       0.360000       1.855738       1.494480       0.169967
       0.370000       1.996734       1.525942       0.169602
       0.380000       2.131771       1.561320       0.168312
       0.390000       2.252366       1.601255       0.166378
       0.400000       2.349048       1.645148       0.164001
       0.410000       2.412987       1.691153       0.161298
       0.420000       2.437987       1.736342       0.158335
       0.430000       2.422137       1.777001       0.155182
       0.440000       2.368390       1.809041       0.151948
       0.450000       2.283788       1.828515       0.148805
       0.460000       2.177729       1.832251       0.145963
       0.470000       2.060016       1.818513       0.143633
       0.480000       1.939361       1.787483       0.141986
       0.490000       1.822595       1.741382       0.141118
       0.500000       1.714529       1.684110       0.141031
       0.510000       1.618189       1.620517       0.141626
       0.520000       1.535233       1.555544       0.142713
       0.530000       1.466353       1.493474       0.144031
       0.540000       1.411621       1.437458       0.145282
       0.550000       1.370733       1.389294       0.146188
       0.560000       1.343171       1.349404       0.146536
       0.570000       1.328288       1.316913       0.146230
       0.580000       1.325349       1.289807       0.145301
       0.590000       1.333536       1.265197       0.143901
       0.600000       1.351957       1.239743       0.142264
       0.610000       1.379665       1.210230       0.140660
       0.620000       1.415717       1.174218       0.139342
       0.630000       1.459224       1.130562       0.138511
       0.640000       1.509354       1.079587       0.138284
       0.650000       1.565217       1.022871       0.138678
       0.660000       1.625590       0.962724       0.139606
       0.670000       1.688553       0.901617       0.140889
       0.680000       1.751156       0.841730       0.142276
       0.690000       1.809309       0.784722       0.143488
       0.700000       1.858079       0.731678       0.144265
       0.710000       1.892462       0.683177       0.144415
       0.720000       1.908484       0.639417       0.143844
       0.730000       1.904287       0.600327       0.142554
       0.740000       1.880722       0.565673       0.140617
       0.750000       1.841193       0.535132       0.138140
       0.760000       1.790832       0.508345       0.135228
       0.770000       1.735388       0.484953       0.131983
       0.780000       1.680257       0.464622       0.128510
       0.790000       1.629896       0.447054       0.124926
       0.800000       1.587616       0.431991       0.121366
       0.810000       1.555663       0.419220       0.117964
       0.820000       1.535416       0.408564       0.114831
       0.830000       1.527619       0.399880       0.112041
       0.840000       1.532567       0.393053       0.109621
       0.850000       1.550252       0.387991       0.107561
       0.860000       1.580461       0.384625       0.105834
       0.870000       1.622860       0.382907       0.104415
       0.880000       1.677106       0.382807       0.103299
       0.890000       1.742983       0.384317       0.102508
       0.900000       1.820583       0.387447       0.102083
       0.910000       1.910443       0.392225       0.102068
       0.920000       2.013593       0.398697       0.102492
       0.930000       2.131413       0.406922       0.103359
       0.940000       2.265317       0.416967       0.104631
       0.950000       2.416265       0.428901       0.106232
       0.960000       2.584175       0.442785       0.108044
       0.970000       2.767283       0.458651       0.109923
       0.980000       2.961510       0.476489       0.111718
       0.990000       3.159964       0.496218       0.113298
       1.000000       3.352788       0.517676       0.114574
       1.010000       3.527630       0.540612       0.115515
       1.020000       3.670957       0.564721       0.116133
       1.030000       3.770154       0.589697       0.116471
       1.040000       3.815964       0.615338       0.116581
       1.050000       3.804448       0.641638       0.116513
       1.060000       3.737689       0.668848       0.116323
       1.070000       3.622927       0.697465       0.116076
       1.080000       3.470536       0.728140       0.115847
       1.090000       3.291738       0.761549       0.115716
       1.100000       3.096879       0.798241       0.115749
       1.110000       2.894614       0.838510       0.115992
       1.120000       2.691839       0.882285       0.116474
       1.130000       2.493934       0.929053       0.117214
       1.140000       2.305017       0.977833       0.118241
       1.150000       2.128084       1.027246       0.119600
       1.160000       1.965094       1.075720       0.121353
       1.170000       1.817070       1.121833       0.123556
       1.180000       1.684245       1.164738       0.126251
       1.190000       1.566248       1.204507       0.129439
       1.200000       1.462277       1.242257       0.133065
       1.210000       1.371243       1.279971       0.137011
       1.220000       1.291876       1.320113       0.141089
       1.230000       1.222795       1.365140       0.145058
       1.240000       1.162552       1.417082       0.148647
       1.250000       1.109691       1.477215       0.151614
       1.260000       1.062820       1.545815       0.153785
       1.270000       1.020711       1.621990       0.155101
       1.280000       0.982399       1.703549       0.155616
       1.290000       0.947243       1.787010       0.155472
       1.300000       0.914920       1.867816       0.154850
       1.310000       0.885340       1.940877       0.153926
       1.320000       0.858522       2.001420       0.152851
       1.330000       0.834484       2.045986       0.151747
       1.340000       0.813171       2.073251       0.150722
       1.350000       0.794457       2.084368       0.149873
       1.360000       0.778190       2.082698       0.149282
       1.370000       0.764265       2.073066       0.149001
       1.380000       0.752685       2.060809       0.149049
       1.390000       0.743583       2.050911       0.149405
       1.400000       0.737200       2.047363       0.150022
       1.410000       0.733842       2.052787       0.150841
       1.420000       0.733820       2.068280       0.151797
       1.430000       0.737417       2.093415       0.152818
       1.440000       0.744858       2.126378       0.153811
       1.450000       0.756294       2.164243       0.154665
       1.460000       0.771794       2.203427       0.155259
       1.470000       0.791326       2.240301       0.155495
       1.480000       0.814724       2.271845       0.155332
       1.490000       0.841653       2.296105       0.154816
       1.500000       0.871561       2.312274       0.154082
       1.510000       0.903655       2.320393       0.153331
       1.520000       0.936932       2.320885       0.152782
       1.530000       0.970272       2.314170       0.152630
       1.540000       1.002619       2.300532       0.153000
       1.550000       1.033184       2.280185       0.153927
       1.560000       1.061619       2.253464       0.155343
       1.570000       1.088088       2.221059       0.157093
       1.580000       1.113231       2.184234       0.158957
       1.590000       1.138018       2.144954       0.160687
       1.600000       1.163532       2.105781       0.162058
       1.610000       1.190729       2.069542       0.162898
       1.620000       1.220216       2.038843       0.163129
       1.630000       1.252125       2.015602       0.162769
       1.640000       1.286096       2.000754       0.161923
       1.650000       1.321415       1.994186       0.160760
       1.660000       1.357256       1.994859       0.159466
       1.670000       1.392957       2.001084       0.158216
       1.680000       1.428193       2.010850       0.157145
       1.690000       1.462979       2.022156       0.156345
       1.700000       1.497493       2.033320       0.155865
       1.710000       1.531831       2.043191       0.155720
       1.720000       1.565826       2.051226       0.155893
       1.730000       1.599000       2.057374       0.156326
       1.740000       1.630682       2.061759       0.156917
       1.750000       1.660237       2.064301       0.157522
       1.760000       1.687320       2.064391       0.157966
       1.770000       1.712044       2.060792       0.158078
       1.780000       1.734954       2.051821       0.157719
       1.790000       1.756777       2.035727       0.156819
       1.800000       1.778027       2.011103       0.155391
       1.810000       1.798656       1.977139       0.153527
       1.820000       1.817928       1.933667       0.151365
       1.830000       1.834601       1.881085       0.149059
       1.840000       1.847366       1.820298       0.146749
       1.850000       1.855350       1.752751       0.144544
       1.860000       1.858457       1.680463       0.142522
       1.870000       1.857359       1.605943       0.140733
       1.880000       1.853148       1.531960       0.139204
       1.890000       1.846814       1.461205       0.137942
       1.900000       1.838818       1.395981       0.136929
       1.910000       1.828957       1.338019       0.136120
       1.920000       1.816529       1.288415       0.135450
       1.930000       1.800645       1.247665       0.134846
       1.940000       1.780490       1.215731       0.134251
       1.950000       1.755386       1.192100       0.133639
       1.960000       1.724727       1.175813       0.133017
       1.970000       1.687941       1.165507       0.132415
       1.980000       1.644601       1.159485       0.131865
       1.990000       1.594681       1.155875       0.131393
       2.000000       1.538770       1.152888       0.131014
       2.010000       1.478123       1.149129       0.130739
       2.020000       1.414517       1.143862       0.130567
       2.030000       1.349961       1.137113       0.130487
       2.040000       1.286409       1.129569       0.130463
       2.050000       1.225502       1.122291       0.130433
       2.060000       1.168408       1.116371       0.130319
       2.070000       1.115738       1.112614       0.130041
       2.080000       1.067574       1.111343       0.129545
       2.090000       1.023571       1.112337       0.128820
       2.100000       0.983153       1.114902       0.127905
       2.110000       0.945725       1.118039       0.126885
       2.120000       0.910859       1.120641       0.125877
       2.130000       0.878386       1.121641       0.125013
       2.140000       0.848369       1.120109       0.124420
       2.150000       0.820998       1.115301       0.124205
       2.160000       0.796456       1.106734       0.124434
       2.170000       0.774811       1.094287       0.125122
       2.180000       0.755964       1.078254       0.126223
       2.190000       0.739634       1.059288       0.127631
       2.200000       0.725381       1.038207       0.129196
       2.210000       0.712635       1.015754       0.130739
       2.220000       0.700749       0.992423       0.132079
       2.230000       0.689073       0.968427       0.133049
       2.240000       0.677060       0.943795       0.133513
       2.250000       0.664375       0.918543       0.133364
       2.260000       0.650981       0.892807       0.132538
       2.270000       0.637152       0.866887       0.131020
       2.280000       0.623412       0.841188       0.128846
       2.290000       0.610425       0.816099       0.126104
       2.300000       0.598873       0.791885       0.122925
       2.310000       0.589366       0.768654       0.119463
       2.320000       0.582391       0.746419       0.115887
       2.330000       0.578299       0.725213       0.112361
       2.340000       0.577318       0.705200       0.109040
       2.350000       0.579568       0.686715       0.106058
       2.360000       0.585063       0.670228       0.103518
       2.370000       0.593717       0.656243       0.101484
       2.380000       0.605334       0.645200       0.099982
       2.390000       0.619598       0.637402       0.099003
       2.400000       0.636094       0.632983       0.098508
       2.410000       0.654344       0.631915       0.098441
       2.420000       0.673890       0.634036       0.098738
       2.430000       0.694393       0.639082       0.099336
       2.440000       0.715707       0.646707       0.100169
       2.450000       0.737888       0.656462       0.101177
       2.460000       0.761120       0.667763       0.102297
       2.470000       0.785580       0.679849       0.103469
       2.480000       0.811286       0.691791       0.104644
       2.490000       0.837992       0.702567       0.105780
       2.500000       0.865160       0.711197       0.106849
       2.510000       0.892019       0.716905       0.107828
       2.520000       0.917716       0.719250       0.108694
       2.530000       0.941521       0.718192       0.109418
       2.540000       0.963045       0.714070       0.109968
       2.550000       0.982356       0.707502       0.110313
       2.560000       0.999943       0.699221       0.110431
       2.570000       1.016522       0.689872       0.110327
       2.580000       1.032752       0.679840       0.110027
       2.590000       1.048999       0.669160       0.109575
       2.600000       1.065229       0.657548       0.109013
       2.610000       1.081042       0.644559       0.108364
       2.620000       1.095813       0.629805       0.107612
       2.630000       1.108821       0.613159       0.106709
       2.640000       1.119312       0.594852       0.105591
       2.650000       1.126501       0.575456       0.104205
       2.660000       1.129543       0.555751       0.102542
       2.670000       1.127534       0.536573       0.100656
       2.680000       1.119565       0.518680       0.098652
       2.690000       1.104834       0.502668       0.096675
       2.700000       1.082815       0.488940       0.094872
       2.710000       1.053451       0.477709       0.093370
       2.720000       1.017304       0.469029       0.092261
       2.730000       0.975580       0.462827       0.091588
       2.740000       0.929998       0.458949       0.091346
       2.750000       0.882530       0.457188       0.091483
       2.760000       0.835103       0.457316       0.091906
       2.770000       0.789351       0.459087       0.092491
       2.780000       0.746484       0.462239       0.093096
       2.790000       0.707246       0.466475       0.093579
       2.800000       0.671966       0.471431       0.093820
       2.810000       0.640635       0.476662       0.093730
       2.820000       0.613003       0.481639       0.093265
       2.830000       0.588675       0.485788       0.092428
       2.840000       0.567189       0.488576       0.091262
       2.850000       0.548091       0.489609       0.089844
       2.860000       0.530979       0.488720       0.088271
       2.870000       0.515530       0.486021       0.086649
       2.880000       0.501509       0.481886       0.085085
       2.890000       0.488758       0.476881       0.083678
       2.900000       0.477184       0.471673       0.082511
       2.910000       0.466734       0.466922       0.081653
       2.920000       0.457382       0.463210       0.081146
       2.930000       0.449124       0.460996       0.081011
       2.940000       0.441985       0.460599       0.081243
       2.950000       0.436015       0.462191       0.081814
       2.960000       0.431289       0.465794       0.082671
       2.970000       0.427885       0.471259       0.083748
       2.980000       0.425864       0.478256       0.084972
       2.990000       0.425245       0.486285       0.086272
       3.000000       0.426000       0.494725       0.087581
       3.010000       0.428047       0.502937       0.088838
       3.020000       0.431255       0.510401       0.089978
       3.030000       0.435454       0.516834       0.090933
       3.040000       0.440448       0.522244       0.091629
       3.050000       0.446026       0.526890       0.091999
       3.060000       0.451975       0.531147       0.091993
       3.070000       0.458092       0.535351       0.091588
       3.080000       0.464198       0.539679       0.090793
       3.090000       0.470156       0.544096       0.089647
       3.100000       0.475898       0.548396       0.088213
       3.110000       0.481448       0.552296       0.086567
       3.120000       0.486942       0.555547       0.084794
       3.130000       0.492624       0.558018       0.082983
       3.140000       0.498824       0.559712       0.081223
       3.150000       0.505912       0.560730       0.079593
       3.160000       0.514246       0.561209       0.078162
       3.170000       0.524120       0.561288       0.076981
       3.180000       0.535718       0.561108       0.076083
       3.190000       0.549081       0.560836       0.075485
       3.200000       0.564090       0.560666       0.075190
       3.210000       0.580473       0.560804       0.075186
       3.220000       0.597834       0.561429       0.075447
       3.230000       0.615730       0.562675       0.075938
       3.240000       0.633762       0.564645       0.076616
       3.250000       0.651676       0.567447       0.077438
       3.260000       0.669426       0.571222       0.078367
       3.270000       0.687175       0.576135       0.079372
       3.280000       0.705233       0.582333       0.080424
       3.290000       0.723952       0.589879       0.081488
       3.300000       0.743633       0.598694       0.082520
       3.310000       0.764458       0.608536       0.083469
       3.320000       0.786467       0.619034       0.084281
       3.330000       0.809588       0.629783       0.084913
       3.340000       0.833674       0.640476       0.085336
       3.350000       0.858557       0.651009       0.085540
       3.360000       0.884084       0.661524       0.085528
       3.370000       0.910149       0.672343       0.085315
       3.380000       0.936731       0.683818       0.084923
       3.390000       0.963943       0.696179       0.084373
       3.400000       0.992079       0.709406       0.083687
       3.410000       1.021649       0.723193       0.082875
       3.420000       1.053357       0.736987       0.081940
       3.430000       1.088042       0.750086       0.080876
       3.440000       1.126546       0.761751       0.079681
       3.450000       1.169581       0.771318       0.078369
       3.460000       1.217581       0.778310       0.076975
       3.470000       1.270597       0.782537       0.075557
       3.480000       1.328220       0.784174       0.074192
       3.490000       1.389544       0.783778       0.072958
       3.500000       1.453180       0.782188       0.071933
       3.510000       1.517330       0.780355       0.071182
       3.520000       1.579918       0.779134       0.070752
       3.530000       1.638771       0.779126       0.070669
       3.540000       1.691796       0.780611       0.070937
       3.550000       1.737150       0.783589       0.071533
       3.560000       1.773435       0.787890       0.072405
       3.570000       1.799925       0.793319       0.073477
       3.580000       1.816820       0.799776       0.074654
       3.590000       1.825415       0.807290       0.075830
       3.600000       1.828053       0.815978       0.076907
       3.610000       1.827832       0.825927       0.077802
       3.620000       1.828122       0.837076       0.078461
       3.630000       1.832054       0.849136       0.078858
       3.640000       1.842120       0.861590       0.078990
       3.650000       1.859930       0.873759       0.078874
       3.660000       1.886120       0.884911       0.078545
       3.670000       1.920357       0.894367       0.078060
       3.680000       1.961420       0.901579       0.077498
       3.690000       2.007345       0.906151       0.076949
       3.700000       2.055624       0.907846       0.076510
       3.710000       2.103438       0.906585       0.076264
       3.720000       2.147891       0.902468       0.076271
       3.730000       2.186254       0.895810       0.076560
       3.740000       2.216226       0.887172       0.077131
       3.750000       2.236205       0.877357       0.077954
       3.760000       2.245471       0.867363       0.078976
       3.770000       2.244210       0.858285       0.080130
       3.780000       2.233388       0.851197       0.081343
       3.790000       2.214577       0.847041       0.082533
       3.800000       2.189851       0.846531       0.083618
       3.810000       2.161740       0.850092       0.084513
       3.820000       2.133121       0.857828       0.085151
       3.830000       2.106984       0.869530       0.085487
       3.840000       2.086073       0.884713       0.085518
       3.850000       2.072537       0.902698       0.085283
       3.860000       2.067695       0.922717       0.084854
       3.870000       2.071955       0.944027       0.084318
       3.880000       2.084868       0.966004       0.083756
       3.890000       2.105254       0.988188       0.083224
       3.900000       2.131359       1.010281       0.082754
       3.910000       2.161018       1.032088       0.082353
       3.920000       2.191846       1.053432       0.082012
       3.930000       2.221492       1.074077       0.081724
       3.940000       2.247949       1.093712       0.081490
       3.950000       2.269876       1.112003       0.081326
       3.960000       2.286823       1.128696       0.081269
       3.970000       2.299324       1.143726       0.081364
       3.980000       2.308816       1.157260       0.081660
       3.990000       2.317428       1.169662       0.082203
       4.000000       2.327626       1.181379       0.083023
       4.010000       2.341805       1.192805       0.084136
       4.020000       2.361898       1.204190       0.085540
       4.030000       2.389125       1.215618       0.087213
       4.040000       2.423952       1.227084       0.089116
       4.050000       2.466233       1.238608       0.091201
       4.060000       2.515446       1.250338       0.093416
       4.070000       2.570894       1.262568       0.095716
       4.080000       2.631755       1.275683       0.098063
       4.090000       2.697014       1.290041       0.100436
       4.100000       2.765350       1.305846       0.102820
       4.110000       2.835100       1.323065       0.105204
       4.120000       2.904339       1.341421       0.107571
       4.130000       2.971052       1.360476       0.109892
       4.140000       3.033291       1.379784       0.112128
       4.150000       3.089277       1.399042       0.114236
       4.160000       3.137411       1.418164       0.116175
       4.170000       3.176255       1.437239       0.117926
       4.180000       3.204548       1.456395       0.119503
       4.190000       3.221305       1.475647       0.120951
       4.200000       3.225998       1.494784       0.122346
       4.210000       3.218720       1.513346       0.123778
       4.220000       3.200272       1.530668       0.125325
       4.230000       3.172121       1.546006       0.127040
       4.240000       3.136230       1.558684       0.128936
       4.250000       3.094814       1.568238       0.130986
       4.260000       3.050037       1.574492       0.133133
       4.270000       3.003731       1.577561       0.135306
       4.280000       2.957190       1.577787       0.137443
       4.290000       2.911083       1.575640       0.139505
       4.300000       2.865546       1.571610       0.141488
       4.310000       2.820413       1.566121       0.143420
       4.320000       2.775546       1.559503       0.145352
       4.330000       2.731141       1.552026       0.147339
       4.340000       2.687905       1.544016       0.149427
       4.350000       2.647032       1.535942       0.151631
       4.360000       2.609981       1.528429       0.153933
       4.370000       2.578127       1.522148       0.156278
       4.380000       2.552409       1.517624       0.158593
       4.390000       2.533077       1.515041       0.160794
       4.400000       2.519620       1.514139       0.162803
       4.410000       2.510871       1.514222       0.164555
       4.420000       2.505268       1.514309       0.166005
       4.430000       2.501204       1.513349       0.167125
       4.440000       2.497367       1.510457       0.167905
       4.450000       2.492974       1.505090       0.168354
       4.460000       2.487843       1.497122       0.168497
       4.470000       2.482339       1.486825       0.168364
       4.480000       2.477233       1.474788       0.167994
       4.490000       2.473534       1.461810       0.167425
       4.500000       2.472300       1.448809       0.166697
       4.510000       2.474447       1.436748       0.165852
       4.520000       2.480607       1.426597       0.164944
       4.530000       2.491086       1.419315       0.164032
       4.540000       2.505932       1.415796       0.163176
       4.550000       2.525077       1.416776       0.162423
       4.560000       2.548451       1.422708       0.161790
       4.570000       2.576008       1.433625       0.161255
       4.580000       2.607614       1.449062       0.160752
       4.590000       2.642847       1.468056       0.160182
       4.600000       2.680788       1.489262       0.159431
       4.610000       2.719901       1.511157       0.158393
       4.620000       2.758083       1.532280       0.156992
       4.630000       2.792930       1.551438       0.155198
       4.640000       2.822155       1.567827       0.153030
       4.650000       2.844031       1.581071       0.150548
       4.660000       2.857698       1.591180       0.147839
       4.670000       2.863210       1.598471       0.145006
       4.680000       2.861322       1.603479       0.142151
       4.690000       2.853120       1.606872       0.139372
       4.700000       2.839648       1.609372       0.136757
       4.710000       2.821673       1.611682       0.134384
       4.720000       2.799637       1.614405       0.132317
       4.730000       2.773811       1.617938       0.130601
       4.740000       2.744508       1.622388       0.129258
       4.750000       2.712254       1.627509       0.128285
       4.760000       2.677811       1.632683       0.127661
       4.770000       2.642082       1.636960       0.127356
       4.780000       2.605993       1.639151       0.127345
       4.790000       2.570413       1.637990       0.127620
       4.800000       2.536131       1.632334       0.128190
       4.810000       2.503844       1.621342       0.129080
       4.820000       2.474105       1.604590       0.130316
       4.830000       2.447234       1.582090       0.131910
       4.840000       2.423213       1.554251       0.133851
       4.850000       2.401621       1.521822       0.136095
       4.860000       2.381701       1.485843       0.138566
       4.870000       2.362560       1.447584       0.141160
       4.880000       2.343486       1.408447       0.143755
       4.890000       2.324237       1.369828       0.146223
       4.900000       2.305224       1.333000       0.148445
       4.910000       2.287522       1.299041       0.150323
       4.920000       2.272748       1.268826       0.151790
       4.930000       2.262839       1.243054       0.152816
       4.940000       2.259774       1.222259       0.153409
       4.950000       2.265261       1.206788       0.153614
       4.960000       2.280429       1.196753       0.153506
       4.970000       2.305566       1.191987       0.153180
       4.980000       2.339967       1.192022       0.152734
       4.990000       2.381923       1.196122       0.152248
       5.000000       2.428884       1.203358       0.151779
       5.010000       2.477757       1.212713       0.151348
       5.020000       2.525290       1.223205       0.150948
       5.030000       2.568425       1.233989       0.150547
       5.040000       2.604568       1.244406       0.150107
       5.050000       2.631751       1.253982       0.149589
       5.060000       2.648737       1.262370       0.148971
       5.070000       2.655074       1.269266       0.148245
       5.080000       2.651096       1.274341       0.147421
       5.090000       2.637830       1.277223       0.146517
       5.100000       2.616827       1.277543       0.145558
       5.110000       2.589957       1.275045       0.144568
       5.120000       2.559204       1.269702       0.143570
       5.130000       2.526450       1.261802       0.142587
       5.140000       2.493303       1.251968       0.141643
       5.150000       2.460983       1.241099       0.140762
       5.160000       2.430332       1.230249       0.139973
       5.170000       2.401931       1.220491       0.139303
       5.180000       2.376252       1.212783       0.138780
       5.190000       2.353751       1.207849       0.138428
       5.200000       2.334834       1.206097       0.138263
       5.210000       2.319758       1.207564       0.138284
       5.220000       2.308519       1.211906       0.138474
       5.230000       2.300826       1.218435       0.138797
       5.240000       2.296169       1.226203       0.139198
       5.250000       2.293968       1.234102       0.139614
       5.260000       2.293753       1.240974       0.139982
       5.270000       2.295326       1.245725       0.140251
       5.280000       2.298827       1.247422       0.140391
       5.290000       2.304639       1.245384       0.140395
       5.300000       2.313144       1.239224       0.140268
       5.310000       2.324412       1.228861       0.140022
       5.320000       2.337936       1.214499       0.139663
       5.330000       2.352507       1.196587       0.139197
       5.340000       2.366286       1.175774       0.138640
       5.350000       2.377058       1.152867       0.138022
       5.360000       2.382662       1.128780       0.137399
       5.370000       2.381502       1.104485       0.136848
       5.380000       2.372970       1.080959       0.136457
       5.390000       2.357611       1.059132       0.136312
       5.400000       2.336917       1.039813       0.136481
       5.410000       2.312813       1.023617       0.137005
       5.420000       2.287042       1.010902       0.137896
       5.430000       2.260712       1.001745       0.139146
       5.440000       2.234159       0.995965       0.140737
       5.450000       2.207136       0.993212       0.142654
       5.460000       2.179224       0.993081       0.144894
       5.470000       2.150268       0.995241       0.147459
       5.480000       2.120684       0.999533       0.150342
       5.490000       2.091551       1.006023       0.153515
       5.500000       2.064516       1.014990       0.156917
       5.510000       2.041566       1.026882       0.160448
       5.520000       2.024763       1.042218       0.163981
       5.530000       2.015997       1.061482       0.167382
       5.540000       2.016799       1.085002       0.170522
       5.550000       2.028213       1.112842       0.173303
       5.560000       2.050720       1.144719       0.175662
       5.570000       2.084190       1.179965       0.177576
       5.580000       2.127866       1.217546       0.179056
       5.590000       2.180378       1.256140       0.180132
       5.600000       2.239805       1.294254       0.180847
       5.610000       2.303809       1.330374       0.181247
       5.620000       2.369802       1.363087       0.181374
       5.630000       2.435119       1.391183       0.181269
       5.640000       2.497145       1.413681       0.180969
       5.650000       2.553372       1.429830       0.180517
       5.660000       2.601455       1.439104       0.179964
       5.670000       2.639342       1.441240       0.179374
       5.680000       2.665524       1.436294       0.178828
       5.690000       2.679370       1.424687       0.178413
       5.700000       2.681396       1.407174       0.178209
       5.710000       2.673349       1.384742       0.178279
       5.720000       2.658014       1.358467       0.178655
       5.730000       2.638796       1.329379       0.179340
       5.740000       2.619174       1.298396       0.180307
       5.750000       2.602161       1.266331       0.181514
       5.760000       2.589852       1.233951       0.182905
       5.770000       2.583129       1.202044       0.184422
       5.780000       2.581571       1.171423       0.186007
       5.790000       2.583583       1.142877       0.187607
       5.800000       2.586767       1.117084       0.189179
       5.810000       2.588489       1.094531       0.190682
       5.820000       2.586514       1.075480       0.192084
       5.830000       2.579542       1.059969       0.193355
       5.840000       2.567460       1.047833       0.194472
       5.850000       2.551257       1.038729       0.195422
       5.860000       2.532676       1.032169       0.196208
       5.870000       2.513793       1.027591       0.196855
       5.880000       2.496644       1.024459       0.197407
       5.890000       2.482987       1.022376       0.197925
       5.900000       2.474166       1.021144       0.198468
       5.910000       2.471065       1.020737       0.199077
       5.920000       2.474119       1.021179       0.199754
       5.930000       2.483358       1.022390       0.200465
       5.940000       2.498460       1.024055       0.201142
       5.950000       2.518805       1.025586       0.201706
       5.960000       2.543554       1.026196       0.202101
       5.970000       2.571745       1.025047       0.202309
       5.980000       2.602413       1.021429       0.202361
       5.990000       2.634678       1.014884       0.202328
       6.000000       2.667739       1.005245       0.202307
       6.010000       2.700794       0.992585       0.202399
       6.020000       2.732880       0.977139       0.202692
       6.030000       2.762749       0.959239       0.203257
       6.040000       2.788820       0.939301       0.204135
       6.050000       2.809289       0.917856       0.205337
       6.060000       2.822367       0.895600       0.206841
       6.070000       2.826581       0.873393       0.208603
       6.080000       2.821040       0.852203       0.210559
       6.090000       2.805576       0.833016       0.212638
       6.100000       2.780744       0.816738       0.214767
       6.110000       2.747686       0.804130       0.216885
       6.120000       2.707922       0.795775       0.218936
       6.130000       2.663155       0.792074       0.220883
       6.140000       2.615167       0.793250       0.222695
       6.150000       2.565808       0.799355       0.224352
       6.160000       2.517026       0.810274       0.225845
       6.170000       2.470809       0.825732       0.227172
       6.180000       2.428993       0.845315       0.228342
       6.190000       2.392998       0.868496       0.229375
       6.200000       2.363615       0.894686       0.230304
       6.210000       2.340954       0.923278       0.231167
       6.220000       2.324584       0.953702       0.232011
       6.230000       2.313811       0.985445       0.232887
       6.240000       2.307971       1.018040       0.233850
       6.250000       2.306626       1.050993       0.234949
       6.260000       2.309613       1.083666       0.236220
       6.270000       2.316975       1.115154       0.237678
       6.280000       2.328852       1.144236       0.239317
       6.290000       2.345401       1.169459       0.241110
       6.300000       2.366739       1.189380       0.243016
       6.310000       2.392905       1.202881       0.244989
       6.320000       2.423813       1.209454       0.246975
       6.330000       2.459221       1.209313       0.248928
       6.340000       2.498699       1.203285       0.250803
       6.350000       2.541598       1.192515       0.252564
       6.360000       2.587000       1.178114       0.254178
       6.370000       2.633668       1.160889       0.255610
       6.380000       2.680030       1.141257       0.256825
       6.390000       2.724268       1.119342       0.257783
       6.400000       2.764502       1.095195       0.258448
       6.410000       2.799064       1.069037       0.258792
       6.420000       2.826754       1.041410       0.258804
       6.430000       2.847008       1.013185       0.258504
       6.440000       2.859915       0.985462       0.257952
       6.450000       2.866080       0.959408       0.257249
       6.460000       2.866377       0.936110       0.256538
       6.470000       2.861680       0.916474       0.255985
       6.480000       2.852663       0.901175       0.255758
       6.490000       2.839752       0.890645       0.255998
       6.500000       2.823228       0.885068       0.256797
       6.510000       2.803422       0.884390       0.258183
       6.520000       2.780892       0.888313       0.260116
       6.530000       2.756484       0.896307       0.262497
       6.540000       2.731288       0.907630       0.265190
       6.550000       2.706495       0.921367       0.268045
       6.560000       2.683230       0.936481       0.270931
       6.570000       2.662402       0.951860       0.273752
       6.580000       2.644581       0.966379       0.276464
       6.590000       2.629931       0.978956       0.279068
       6.600000       2.618167       0.988635       0.281595
       6.610000       2.608567       0.994670       0.284086
       6.620000       2.600058       0.996578       0.286581
       6.630000       2.591422       0.994163       0.289100
       6.640000       2.581582       0.987509       0.291649
       6.650000       2.569842       0.976965       0.294223
       6.660000       2.555967       0.963122       0.296804
       6.670000       2.540053       0.946774       0.299368
       6.680000       2.522285       0.928854       0.301878
       6.690000       2.502714       0.910344       0.304284
       6.700000       2.481164       0.892191       0.306517
       6.710000       2.457259       0.875231       0.308499
       6.720000       2.430534       0.860140       0.310155
       6.730000       2.400567       0.847426       0.311430
       6.740000       2.367103       0.837444       0.312306
       6.750000       2.330164       0.830442       0.312814
       6.760000       2.290154       0.826602       0.313032
       6.770000       2.247919       0.826076       0.313081
       6.780000       2.204733       0.829006       0.313104
       6.790000       2.162203       0.835537       0.313245
       6.800000       2.122081       0.845810       0.313633
       6.810000       2.086031       0.859939       0.314373
       6.820000       2.055381       0.877957       0.315537
       6.830000       2.030926       0.899737       0.317171
       6.840000       2.012830       0.924907       0.319295
       6.850000       2.000666       0.952797       0.321898
       6.860000       1.993572       0.982427       0.324933
       6.870000       1.990472       1.012566       0.328311
       6.880000       1.990268       1.041880       0.331895
       6.890000       1.991947       1.069149       0.335521
       6.900000       1.994609       1.093517       0.339013
       6.910000       1.997447       1.114689       0.342215
       6.920000       1.999756       1.133005       0.345016
       6.930000       2.000952       1.149333       0.347363
       6.940000       2.000598       1.164818       0.349257
       6.950000       1.998395       1.180550       0.350731
       6.960000       1.994163       1.197255       0.351819
       6.970000       1.987844       1.215086       0.352536
       6.980000       1.979533       1.233555       0.352870
       6.990000       1.969469       1.251608       0.352797
       7.000000       1.957955       1.267826       0.352304
       7.010000       1.945219       1.280702       0.351411
       7.020000       1.931272       1.288916       0.350172
       7.030000       1.915875       1.291548       0.348678
       7.040000       1.898613       1.288158       0.347044
       7.050000       1.879063       1.278758       0.345393
       7.060000       1.856978       1.263723       0.343851
       7.070000       1.832405       1.243726       0.342529
       7.080000       1.805713       1.219719       0.341523
       7.090000       1.777518       1.192928       0.340900
       7.100000       1.748547       1.164807       0.340697
       7.110000       1.719477       1.136902       0.340929
       7.120000       1.690799       1.110664       0.341595
       7.130000       1.662772       1.087271       0.342688
       7.140000       1.635490       1.067510       0.344205
       7.150000       1.609062       1.051767       0.346142
       7.160000       1.583809       1.040109       0.348480
       7.170000       1.560369       1.032416       0.351172
       7.180000       1.539670       1.028513       0.354137
       7.190000       1.522743       1.028234       0.357260
       7.200000       1.510495       1.031401       0.360412
       7.210000       1.503482       1.037730       0.363480
       7.220000       1.501774       1.046710       0.366400
       7.230000       1.504917       1.057532       0.369169
       7.240000       1.512010       1.069119       0.371856
       7.250000       1.521894       1.080266       0.374577
       7.260000       1.533400       1.089866       0.377473
       7.270000       1.545614       1.097145       0.380676
       7.280000       1.558046       1.101821       0.384288
       7.290000       1.570644       1.104149       0.388368
       7.300000       1.583632       1.104822       0.392932
       7.310000       1.597237       1.104801       0.397959
       7.320000       1.611427       1.105105       0.403396
       7.330000       1.625769       1.106620       0.409171
       7.340000       1.639478       1.109948       0.415200
       7.350000       1.651629       1.115305       0.421394
       7.360000       1.661453       1.122492       0.427668
       7.370000       1.668578       1.130941       0.433958
       7.380000       1.673109       1.139844       0.440232
       7.390000       1.675525       1.148366       0.446504
       7.400000       1.676477       1.155883       0.452847
       7.410000       1.676595       1.162164       0.459385
       7.420000       1.676417       1.167459       0.466280
       7.430000       1.676431       1.172436       0.473718
       7.440000       1.677169       1.178009       0.481880
       7.450000       1.679242       1.185108       0.490928
       7.460000       1.683297       1.194479       0.500983
       7.470000       1.689907       1.206536       0.512120
       7.480000       1.699471       1.221314       0.524362
       7.490000       1.712171       1.238509       0.537683
       7.500000       1.727992       1.257578       0.552021
       7.510000       1.746767       1.277892       0.567294
       7.520000       1.768223       1.298867       0.583418
       7.530000       1.791973       1.320057       0.600315
       7.540000       1.817499       1.341177       0.617916
       7.550000       1.844145       1.362076       0.636138
       7.560000       1.871170       1.382680       0.654871
       7.570000       1.897838       1.402925       0.673964
       7.580000       1.923492       1.422685       0.693227
       7.590000       1.947553       1.441703       0.712448
       7.600000       1.969453       1.459551       0.731424
       7.610000       1.988548       1.475645       0.749993
       7.620000       2.004101       1.489348       0.768062
       7.630000       2.015379       1.500129       0.785625
       7.640000       2.021868       1.507763       0.802767
       7.650000       2.023511       1.512492       0.819658
       7.660000       2.020843       1.515115       0.836525
       7.670000       2.014959       1.516928       0.853591
       7.680000       2.007278       1.519542       0.871019
       7.690000       1.999230       1.524592       0.888855
       7.700000       1.991977       1.533423       0.907000
       7.710000       1.986270       1.546843       0.925230
       7.720000       1.982454       1.564972       0.943247
       7.730000       1.980570       1.587247       0.960761
       7.740000       1.980467       1.612563       0.977561
       7.750000       1.981885       1.639531       0.993576
       7.760000       1.984494       1.666794       1.008893
       7.770000       1.987911       1.693278       1.023732
       7.780000       1.991698       1.718321       1.038389
       7.790000       1.995334       1.741611       1.053182
       7.800000       1.998183       1.763011       1.068407
       7.810000       1.999471       1.782352       1.084320
       7.820000       1.998355       1.799307       1.101125
       7.830000       1.994077       1.813382       1.118936
       7.840000       1.986190       1.824045       1.137732
       7.850000       1.974764       1.830924       1.157307
       7.860000       1.960465       1.834005       1.177239
       7.870000       1.944469       1.833759       1.196900
       7.880000       1.928215       1.831112       1.215506
       7.890000       1.913064       1.827268       1.232198
       7.900000       1.899961       1.823418       1.246149
       7.910000       1.889197       1.820412       1.256684
       7.920000       1.880348       1.818516       1.263390
       7.930000       1.872406       1.817311       1.266179
       7.940000       1.864072       1.815792       1.265309
       7.950000       1.854085       1.812627       1.261340
       7.960000       1.841508       1.806515       1.255045
       7.970000       1.825885       1.796540       1.247298
       7.980000       1.807266       1.782425       1.238946
       7.990000       1.786122       1.764624       1.230704
       8.000000       1.763171       1.744238       1.223085
       8.010000       1.739171       1.722780       1.216386
       8.020000       1.714717       1.701842       1.210736
       8.030000       1.690127       1.682744       1.206167
       8.040000       1.665437       1.666263       1.202707
       8.050000       1.640498       1.652485       1.200443
       8.060000       1.615115       1.640815       1.199558
       8.070000       1.589161       1.630153       1.200344
       8.080000       1.562678       1.619179       1.203183
       8.090000       1.535923       1.606707       1.208493
       8.100000       1.509381       1.591978       1.216657
       8.110000       1.483702       1.574812       1.227965
       8.120000       1.459563       1.555567       1.242577
       8.130000       1.437511       1.534942       1.260547
       8.140000       1.417825       1.513723       1.281859
       8.150000       1.400466       1.492573       1.306478
       8.160000       1.385122       1.471917       1.334361
       8.170000       1.371311       1.451922       1.365442
       8.180000       1.358506       1.432546       1.399586
       8.190000       1.346232       1.413628       1.436534
       8.200000       1.334127       1.394996       1.475863
       8.210000       1.321953       1.376561       1.516968
       8.220000       1.309575       1.358386       1.559089
       8.230000       1.296911       1.340688       1.601368
       8.240000       1.283894       1.323759       1.642920
       8.250000       1.270426       1.307823       1.682898
       8.260000       1.256396       1.292900       1.720536
       8.270000       1.241724       1.278748       1.755178
       8.280000       1.226438       1.264920       1.786299
       8.290000       1.210731       1.250903       1.813530
       8.300000       1.194970       1.236283       1.836654
       8.310000       1.179626       1.220824       1.855574
       8.320000       1.165156       1.204464       1.870242
       8.330000       1.151865       1.187232       1.880585
       8.340000       1.139822       1.169180       1.886458
       8.350000       1.128861       1.150372       1.887665
       8.360000       1.118675       1.130935       1.884026
       8.370000       1.108971       1.111132       1.875470
       8.380000       1.099624       1.091401       1.862114
       8.390000       1.090772       1.072337       1.844296
       8.400000       1.082811       1.054607       1.822572
       8.410000       1.076292       1.038852       1.797684
       8.420000       1.071775       1.025572       1.770499
       8.430000       1.069667       1.015038       1.741930
       8.440000       1.070120       1.007241       1.712862
       8.450000       1.073003       1.001878       1.684095
       8.460000       1.077932       0.998389       1.656345
       8.470000       1.084351       0.996015       1.630261
       8.480000       1.091626       0.993898       1.606452
       8.490000       1.099134       0.991187       1.585498
       8.500000       1.106342       0.987157       1.567947
       8.510000       1.112867       0.981330       1.554292
       8.520000       1.118516       0.973560       1.544959
       8.530000       1.123301       0.964066       1.540276
       8.540000       1.127384       0.953387       1.540454
       8.550000       1.130985       0.942265       1.545578
       8.560000       1.134254       0.931506       1.555613
       8.570000       1.137185       0.921839       1.570455
       8.580000       1.139600       0.913831       1.590001
       8.590000       1.141215       0.907828       1.614235
       8.600000       1.141759       0.903957       1.643283
       8.610000       1.141069       0.902153       1.677426
       8.620000       1.139138       0.902196       1.717060
       8.630000       1.136097       0.903743       1.762651
       8.640000       1.132177       0.906357       1.814689
       8.650000       1.127679       0.909528       1.873684
       8.660000       1.122963       0.912719       1.940180
       8.670000       1.118430       0.915414       2.014769
       8.680000       1.114487       0.917169       2.098071
       8.690000       1.111495       0.917639       2.190669
       8.700000       1.109722       0.916577       2.293011
       8.710000       1.109334       0.913827       2.405264
       8.720000       1.110434       0.909333       2.527170
       8.730000       1.113151       0.903170       2.657902
       8.740000       1.117709       0.895558       2.795939
       8.750000       1.124463       0.886848       2.938997
       8.760000       1.133856       0.877452       3.084036
       8.770000       1.146321       0.867752       3.227392
       8.780000       1.162178       0.858024       3.365035
       8.790000       1.181560       0.848404       3.492947
       8.800000       1.204400       0.838920       3.607530
       8.810000       1.230467       0.829557       3.705956
       8.820000       1.259426       0.820340       3.786377
       8.830000       1.290909       0.811387       3.847975
       8.840000       1.324558       0.802914       3.890870
       8.850000       1.360070       0.795179       3.915955
       8.860000       1.397227       0.788418       3.924695
       8.870000       1.435916       0.782783       3.918916
       8.880000       1.476109       0.778321       3.900608
       8.890000       1.517791       0.774991       3.871756
       8.900000       1.560850       0.772694       3.834214
       8.910000       1.604955       0.771308       3.789622
       8.920000       1.649458       0.770681       3.739382
       8.930000       1.693357       0.770628       3.684650
       8.940000       1.735336       0.770909       3.626371
       8.950000       1.773910       0.771253       3.565357
       8.960000       1.807651       0.771406       3.502384
       8.970000       1.835430       0.771203       3.438291
       8.980000       1.856603       0.770625       3.374039
       8.990000       1.871071       0.769813       3.310704
       9.000000       1.879239       0.769037       3.249430
       9.010000       1.881890       0.768641       3.191351
       9.020000       1.880024       0.768983       3.137508
       9.030000       1.874667       0.770399       3.088753
       9.040000       1.866706       0.773184       3.045639
       9.050000       1.856784       0.777594       3.008297
       9.060000       1.845332       0.783853       2.976343
       9.070000       1.832732       0.792159       2.948869
       9.080000       1.819551       0.802673       2.924550
       9.090000       1.806730       0.815494       2.901872
       9.100000       1.795600       0.830626       2.879407
       9.110000       1.787717       0.847946       2.856038
       9.120000       1.784561       0.867175       2.831062
       9.130000       1.787213       0.887883       2.804143
       9.140000       1.796125       0.909527       2.775178
       9.150000       1.811035       0.931531       2.744173
       9.160000       1.831019       0.953394       2.711186
       9.170000       1.854639       0.974781       2.676354
       9.180000       1.880120       0.995575       2.639959
       9.190000       1.905505       1.015847       2.602459
       9.200000       1.928806       1.035790       2.564484
       9.210000       1.948173       1.055634       2.526768
       9.220000       1.962099       1.075587       2.490062
       9.230000       1.969634       1.095799       2.455043
       9.240000       1.970514       1.116328       2.422254
       9.250000       1.965151       1.137119       2.392081
       9.260000       1.954484       1.157983       2.364758
       9.270000       1.939774       1.178621       2.340378
       9.280000       1.922392       1.198667       2.318867
       9.290000       1.903648       1.217755       2.299935
       9.300000       1.884616       1.235561       2.283044
       9.310000       1.865992       1.251842       2.267453
       9.320000       1.848030       1.266452       2.252354
       9.330000       1.830630       1.279355       2.237058
       9.340000       1.813583       1.290602       2.221155
       9.350000       1.796852       1.300266       2.204561
       9.360000       1.780758       1.308385       2.187472
       9.370000       1.765956       1.314947       2.170239
       9.380000       1.753222       1.319963       2.153250
       9.390000       1.743180       1.323609       2.136850
       9.400000       1.736110       1.326327       2.121293
       9.410000       1.731889       1.328819       2.106727
       9.420000       1.730076       1.331888       2.093197
       9.430000       1.730063       1.336214       2.080666
       9.440000       1.731263       1.342158       2.069075
       9.450000       1.733274       1.349683       2.058383
       9.460000       1.736004       1.358399       2.048579
       9.470000       1.739687       1.367691       2.039622
       9.480000       1.744795       1.376862       2.031365
       9.490000       1.751853       1.385236       2.023500
       9.500000       1.761245       1.392221       2.015590
       9.510000       1.773111       1.397343       2.007188
       9.520000       1.787360       1.400286       1.997973
       9.530000       1.803784       1.400944       1.987861
       9.540000       1.822178       1.399474       1.977047
       9.550000       1.842399       1.396332       1.965984
       9.560000       1.864292       1.392246       1.955330
       9.570000       1.887525       1.388124       1.945861
       9.580000       1.911386       1.384903       1.938370
       9.590000       1.934656       1.383385       1.933541
       9.600000       1.955647       1.384104       1.931848
       9.610000       1.972404       1.387262       1.933492
       9.620000       1.983049       1.392725       1.938401
       9.630000       1.986154       1.400089       1.946288
       9.640000       1.981033       1.408815       1.956742
       9.650000       1.967882       1.418403       1.969314
       9.660000       1.947722       1.428550       1.983569
       9.670000       1.922178       1.439220       1.999118
       9.680000       1.893165       1.450581       2.015617
       9.690000       1.862571       1.462844       2.032762
       9.700000       1.831999       1.476104       2.050284
       9.710000       1.802600       1.490239       2.067943
       9.720000       1.774998       1.504907       2.085508
       9.730000       1.749291       1.519591       2.102764
       9.740000       1.725123       1.533675       2.119540
       9.750000       1.701829       1.546526       2.135776
       9.760000       1.678613       1.557575       2.151593
       9.770000       1.654705       1.566413       2.167300
       9.780000       1.629456       1.572856       2.183335
       9.790000       1.602363       1.576979       2.200137
       9.800000       1.573040       1.579068       2.218039
       9.810000       1.541202       1.579523       2.237222
       9.820000       1.506689       1.578711       2.257747
       9.830000       1.469526       1.576809       2.279613
       9.840000       1.430006       1.573682       2.302805
       9.850000       1.388751       1.568827       2.327285
       9.860000       1.346709       1.561449       2.352925
       9.870000       1.305071       1.550666       2.379419
       9.880000       1.265141       1.535786       2.406207
       9.890000       1.228178       1.516543       2.432462
       9.900000       1.195249       1.493182       2.457145
       9.910000       1.167132       1.466338       2.479136
       9.920000       1.144266       1.436790       2.497414
       9.930000       1.126761       1.405205       2.511252
       9.940000       1.114449       1.372006       2.520369
       9.950000       1.106965       1.337413       2.524979
       9.960000       1.103844       1.301610       2.525724
       9.970000       1.104602       1.264930       2.523494
       9.980000       1.108796       1.227955       2.519220
       9.990000       1.116050       1.191475       2.513713
      10.000000       1.126040       1.156365       2.507605
      10.010000       1.138452       1.123420       2.501379
      10.020000       1.152905       1.093240       2.495436
      10.030000       1.168888       1.066166       2.490138
      10.040000       1.185728       1.042277       2.485814
      10.050000       1.202623       1.021436       2.482742
      10.060000       1.218727       1.003367       2.481131
      10.070000       1.233264       0.987753       2.481127
      10.080000       1.245652       0.974318       2.482825
      10.090000       1.255587       0.962883       2.486276
      10.100000       1.263081       0.953381       2.491478
      10.110000       1.268459       0.945855       2.498360
      10.120000       1.272298       0.940431       2.506750
      10.130000       1.275356       0.937294       2.516345
      10.140000       1.278466       0.936658       2.526688
      10.150000       1.282420       0.938730       2.537183
      10.160000       1.287844       0.943676       2.547156
      10.170000       1.295063       0.951595       2.555966
      10.180000       1.303996       0.962512       2.563135
      10.190000       1.314115       0.976412       2.568463
      10.200000       1.324492       0.993289       2.572063
      10.210000       1.333966       1.013210       2.574319
      10.220000       1.341356       1.036362       2.575737
      10.230000       1.345675       1.063053       2.576752
      10.240000       1.346270       1.093668       2.577548
      10.250000       1.342863       1.128576       2.577947
      10.260000       1.335529       1.168015       2.577397
      10.270000       1.324619       1.211971       2.575054
      10.280000       1.310674       1.260060       2.569916
      10.290000       1.294335       1.311450       2.561016
      10.300000       1.276257       1.364831       2.547619
      10.310000       1.257033       1.418469       2.529419
      10.320000       1.237138       1.470361       2.506658
      10.330000       1.216906       1.518495       2.480158
      10.340000       1.196561       1.561160       2.451224
      10.350000       1.176278       1.597228       2.421474
      10.360000       1.156241       1.626320       2.392626
      10.370000       1.136653       1.648798       2.366316
      10.380000       1.117709       1.665621       2.343968
      10.390000       1.099535       1.678104       2.326735
      10.400000       1.082158       1.687668       2.315473
      10.410000       1.065521       1.695618       2.310748
      10.420000       1.049525       1.702974       2.312820
      10.430000       1.034086       1.710338       2.321628
      10.440000       1.019155       1.717848       2.336749
      10.450000       1.004686       1.725215       2.357372
      10.460000       0.990588       1.731889       2.382289
      10.470000       0.976662       1.737284       2.409933
      10.480000       0.962587       1.741018       2.438464
      10.490000       0.947947       1.743052       2.465900
      10.500000       0.932320       1.743708       2.490291
      10.510000       0.915369       1.743577       2.509888
      10.520000       0.896935       1.743370       2.523321
      10.530000       0.877063       1.743785       2.529735
      10.540000       0.855984       1.745385       2.528900
      10.550000       0.834052       1.748530       2.521255
      10.560000       0.811673       1.753353       2.507863
      10.570000       0.789272       1.759784       2.490245
      10.580000       0.767274       1.767592       2.470147
      10.590000       0.746114       1.776424       2.449300
      10.600000       0.726223       1.785788       2.429235
      10.610000       0.708008       1.794998       2.411203
      10.620000       0.691819       1.803084       2.396196
      10.630000       0.677914       1.808762       2.385023
      10.640000       0.666440       1.810520       2.378405
      10.650000       0.657427       1.806882       2.377041
      10.660000       0.650802       1.796763       2.381607
      10.670000       0.646417       1.779769       2.392689
      10.680000       0.644084       1.756276       2.410679
      10.690000       0.643611       1.727257       2.435675
      10.700000       0.644839       1.693957       2.467435
      10.710000       0.647665       1.657593       2.505399
      10.720000       0.652052       1.619201       2.548802
      10.730000       0.658036       1.579623       2.596794
      10.740000       0.665713       1.539582       2.648524
      10.750000       0.675217       1.499743       2.703115
      10.760000       0.686702       1.460756       2.759552
      10.770000       0.700308       1.423262       2.816548
      10.780000       0.716150       1.387901       2.872475
      10.790000       0.734294       1.355299       2.925444
      10.800000       0.754738       1.326042       2.973495
      10.810000       0.777380       1.300609       3.014842
      10.820000       0.801977       1.279300       3.048094
      10.830000       0.828096       1.262164       3.072381
      10.840000       0.855070       1.248973       3.087377
      10.850000       0.881996       1.239243       3.093228
      10.860000       0.907764       1.232309       3.090418
      10.870000       0.931156       1.227420       3.079607
      10.880000       0.950987       1.223825       3.061491
      10.890000       0.966240       1.220812       3.036698
      10.900000       0.976163       1.217717       3.005747
      10.910000       0.980298       1.213928       2.969063
      10.920000       0.978455       1.208908       2.927059
      10.930000       0.970664       1.202261       2.880281
      10.940000       0.957137       1.193804       2.829538
      10.950000       0.938259       1.183627       2.775977
      10.960000       0.914598       1.172077       2.721017
      10.970000       0.886909       1.159649       2.666167
      10.980000       0.856097       1.146804       2.612797
      10.990000       0.823151       1.133773       2.561951
      11.000000       0.789067       1.120462       2.514270
      11.010000       0.754782       1.106486       2.470033
      11.020000       0.721136       1.091369       2.429288
      11.030000       0.688850       1.074796       2.391995
      11.040000       0.658511       1.056844       2.358139
      11.050000       0.630556       1.038069       2.327773
      11.060000       0.605265       1.019432       2.300989
      11.070000       0.582755       1.002103       2.277851
      11.080000       0.563004       0.987238       2.258326
      11.090000       0.545876       0.975800       2.242216
      11.100000       0.531162       0.968448       2.229123
      11.110000       0.518614       0.965509       2.218437
      11.120000       0.507966       0.966996       2.209368
      11.130000       0.498945       0.972658       2.201021
      11.140000       0.491268       0.982043       2.192514
      11.150000       0.484639       0.994562       2.183101
      11.160000       0.478751       1.009545       2.172263
      11.170000       0.473299       1.026282       2.159768
      11.180000       0.468019       1.044038       2.145674
      11.190000       0.462724       1.062057       2.130293
      11.200000       0.457348       1.079570       2.114121
      11.210000       0.451944       1.095828       2.097754
      11.220000       0.446658       1.110181       2.081794
      11.230000       0.441678       1.122189       2.066773
      11.240000       0.437174       1.131709       2.053102
      11.250000       0.433268       1.138923       2.041020
      11.260000       0.430014       1.144246       2.030565
      11.270000       0.427417       1.148147       2.021572
      11.280000       0.425454       1.150947       2.013696
      11.290000       0.424105       1.152669       2.006472
      11.300000       0.423368       1.153001       1.999390
      11.310000       0.423272       1.151381       1.991954
      11.320000       0.423877       1.147159       1.983728
      11.330000       0.425270       1.139782       1.974357
      11.340000       0.427565       1.128949       1.963579
      11.350000       0.430898       1.114706       1.951237
      11.360000       0.435412       1.097471       1.937268
      11.370000       0.441243       1.077981       1.921700
      11.380000       0.448502       1.057176       1.904622
      11.390000       0.457257       1.036044       1.886161
      11.400000       0.467517       1.015481       1.866464
      11.410000       0.479216       0.996212       1.845674
      11.420000       0.492212       0.978759       1.823910
      11.430000       0.506292       0.963455       1.801244
      11.440000       0.521176       0.950467       1.777694
      11.450000       0.536524       0.939794       1.753235
      11.460000       0.551947       0.931277       1.727839
      11.470000       0.567025       0.924620       1.701522
      11.480000       0.581341       0.919459       1.674396
      11.490000       0.594542       0.915457       1.646689
      11.500000       0.606394       0.912393       1.618730
      11.510000       0.616824       0.910218       1.590894
      11.520000       0.625914       0.909036       1.563520
      11.530000       0.633852       0.909035       1.536846
      11.540000       0.640842       0.910393       1.510967
      11.550000       0.647016       0.913203       1.485849
      11.560000       0.652370       0.917430       1.461355
      11.570000       0.656738       0.922928       1.437293
      11.580000       0.659791       0.929498       1.413456
      11.590000       0.661061       0.936962       1.389658
      11.600000       0.659988       0.945228       1.365749
      11.610000       0.656001       0.954306       1.341620
      11.620000       0.648645       0.964283       1.317193
      11.630000       0.637728       0.975253       1.292409
      11.640000       0.623426       0.987248       1.267225
      11.650000       0.606290       1.000195       1.241616
      11.660000       0.587163       1.013919       1.215591
      11.670000       0.567025       1.028181       1.189209
      11.680000       0.546835       1.042739       1.162593
      11.690000       0.527418       1.057397       1.135947
      11.700000       0.509394       1.072041       1.109555
      11.710000       0.493159       1.086652       1.083767
      11.720000       0.478890       1.101315       1.058949
      11.730000       0.466571       1.116188       1.035429
      11.740000       0.456045       1.131461       1.013440
      11.750000       0.447068       1.147309       0.993085
      11.760000       0.439363       1.163842       0.974342
      11.770000       0.432663       1.181074       0.957097
      11.780000       0.426739       1.198897       0.941192
      11.790000       0.421415       1.217054       0.926471
      11.800000       0.416568       1.235139       0.912816
      11.810000       0.412126       1.252629       0.900156
      11.820000       0.408055       1.268963       0.888472
      11.830000       0.404331       1.283650       0.877772
      11.840000       0.400925       1.296377       0.868072
      11.850000       0.397792       1.307065       0.859355
      11.860000       0.394881       1.315862       0.851538
      11.870000       0.392158       1.323064       0.844458
      11.880000       0.389625       1.328996       0.837860
      11.890000       0.387339       1.333875       0.831434
      11.900000       0.385391       1.337711       0.824853
      11.910000       0.383877       1.340295       0.817823
      11.920000       0.382859       1.341260       0.810127
      11.930000       0.382337       1.340229       0.801656
      11.940000       0.382244       1.336950       0.792413
      11.950000       0.382469       1.331401       0.782509
      11.960000       0.382895       1.323812       0.772128
      11.970000       0.383449       1.314625       0.761488
      11.980000       0.384140       1.304414       0.750812
      11.990000       0.385069       1.293791       0.740307
      12.000000       0.386411       1.283326       0.730151
      12.010000       0.388370       1.273471       0.720489
      12.020000       0.391137       1.264521       0.711423
      12.030000       0.394862       1.256584       0.703002
      12.040000       0.399637       1.249592       0.695217
      12.050000       0.405498       1.243328       0.688017
      12.060000       0.412428       1.237496       0.681325
      12.070000       0.420364       1.231798       0.675058
      12.080000       0.429197       1.226017       0.669129
      12.090000       0.438773       1.220084       0.663440
      12.100000       0.448907       1.214092       0.657868
      12.110000       0.459396       1.208281       0.652259
      12.120000       0.470046       1.202992       0.646445
      12.130000       0.480703       1.198599       0.640271
      12.140000       0.491276       1.195445       0.633629
      12.150000       0.501742       1.193786       0.626481
      12.160000       0.512132       1.193752       0.618872
      12.170000       0.522487       1.195317       0.610922
      12.180000       0.532822       1.198304       0.602810
      12.190000       0.543094       1.202395       0.594751
      12.200000       0.553195       1.207176       0.586966
      12.210000       0.562968       1.212189       0.579658
      12.220000       0.572256       1.217000       0.572989
      12.230000       0.580952       1.221270       0.567073
      12.240000       0.589039       1.224814       0.561962
      12.250000       0.596602       1.227624       0.557647
      12.260000       0.603791       1.229845       0.554058
      12.270000       0.610760       1.231705       0.551077
      12.280000       0.617614       1.233437       0.548559
      12.290000       0.624369       1.235215       0.546348
      12.300000       0.630957       1.237128       0.544306
      12.310000       0.637257       1.239180       0.542329
      12.320000       0.643133       1.241314       0.540362
      12.330000       0.648467       1.243425       0.538408
      12.340000       0.653182       1.245388       0.536528
      12.350000       0.657244       1.247106       0.534832
      12.360000       0.660646       1.248569       0.533462
      12.370000       0.663383       1.249905       0.532575
      12.380000       0.665427       1.251385       0.532314
      12.390000       0.666714       1.253366       0.532786
      12.400000       0.667170       1.256169       0.534028
      12.410000       0.666751       1.259945       0.535991
      12.420000       0.665493       1.264556       0.538523
      12.430000       0.663543       1.269510       0.541372
      12.440000       0.661152       1.274011       0.544205
      12.450000       0.658628       1.277096       0.546641
      12.460000       0.656269       1.277858       0.548300
      12.470000       0.654294       1.275648       0.548854
      12.480000       0.652808       1.270209       0.548063
      12.490000       0.651795       1.261684       0.545796
      12.500000       0.651160       1.250540       0.542029
      12.510000       0.650776       1.237453       0.536830
      12.520000       0.650546       1.223205       0.530336
      12.530000       0.650429       1.208588       0.522725
      12.540000       0.650429       1.194328       0.514197
      12.550000       0.650553       1.181013       0.504944
      12.560000       0.650770       1.169034       0.495145
      12.570000       0.650978       1.158572       0.484966
      12.580000       0.651000       1.149621       0.474573
      12.590000       0.650621       1.142064       0.464151
      12.600000       0.649634       1.135773       0.453906
      12.610000       0.647883       1.130706       0.444059
      12.620000       0.645296       1.126975       0.434816
      12.630000       0.641880       1.124872       0.426338
      12.640000       0.637707       1.124833       0.418717
      12.650000       0.632897       1.127372       0.411967
      12.660000       0.627602       1.132968       0.406033
      12.670000       0.621987       1.141963       0.400810
      12.680000       0.616206       1.154468       0.396168
      12.690000       0.610383       1.170302       0.391970
      12.700000       0.604600       1.188981       0.388089
      12.710000       0.598903       1.209720       0.384418
      12.720000       0.593317       1.231476       0.380881
      12.730000       0.587866       1.253025       0.377448
      12.740000       0.582572       1.273091       0.374139
      12.750000       0.577457       1.290514       0.371019
      12.760000       0.572525       1.304423       0.368174
      12.770000       0.567746       1.314325       0.365682
      12.780000       0.563051       1.320115       0.363577
      12.790000       0.558339       1.321976       0.361827
      12.800000       0.553495       1.320261       0.360332
      12.810000       0.548412       1.315384       0.358932
      12.820000       0.543006       1.307756       0.357429
      12.830000       0.537232       1.297779       0.355611
      12.840000       0.531103       1.285852       0.353281
      12.850000       0.524711       1.272404       0.350279
      12.860000       0.518239       1.257910       0.346513
      12.870000       0.511960       1.242905       0.341972
      12.880000       0.506195       1.227987       0.336736
      12.890000       0.501271       1.213787       0.330961
      12.900000       0.497468       1.200928       0.324851
      12.910000       0.494991       1.189951       0.318628
      12.920000       0.493975       1.181231       0.312499
      12.930000       0.494497       1.174900       0.306636
      12.940000       0.496598       1.170797       0.301164
      12.950000       0.500293       1.168469       0.296153
      12.960000       0.505566       1.167211       0.291618
      12.970000       0.512351       1.166169       0.287531
      12.980000       0.520523       1.164472       0.283827
      12.990000       0.529882       1.161395       0.280424
      13.000000       0.540154       1.156491       0.277246
      13.010000       0.550986       1.149652       0.274235
      13.020000       0.561946       1.141070       0.271364
      13.030000       0.572531       1.131108       0.268644
      13.040000       0.582185       1.120134       0.266111
      13.050000       0.590342       1.108381       0.263815
      13.060000       0.596480       1.095875       0.261797
      13.070000       0.600188       1.082441       0.260074
      13.080000       0.601211       1.067805       0.258630
      13.090000       0.599475       1.051740       0.257423
      13.100000       0.595091       1.034208       0.256395
      13.110000       0.588316       1.015447       0.255489
      13.120000       0.579515       0.995954       0.254660
      13.130000       0.569108       0.976391       0.253883
      13.140000       0.557541       0.957457       0.253148
      13.150000       0.545266       0.939765       0.252464
      13.160000       0.532736       0.923773       0.251847
      13.170000       0.520384       0.909742       0.251323
      13.180000       0.508593       0.897740       0.250922
      13.190000       0.497659       0.887667       0.250677
      13.200000       0.487766       0.879307       0.250624
      13.210000       0.478991       0.872391       0.250790
      13.220000       0.471329       0.866659       0.251193
      13.230000       0.464747       0.861889       0.251828
      13.240000       0.459217       0.857888       0.252667
      13.250000       0.454744       0.854453       0.253663
      13.260000       0.451359       0.851304       0.254757
      13.270000       0.449089       0.848049       0.255896
      13.280000       0.447909       0.844203       0.257034
      13.290000       0.447710       0.839261       0.258143
      13.300000       0.448282       0.832824       0.259209
      13.310000       0.449335       0.824720       0.260233
      13.320000       0.450548       0.815080       0.261227
      13.330000       0.451641       0.804330       0.262218
      13.340000       0.452434       0.793107       0.263244
      13.350000       0.452885       0.782122       0.264357
      13.360000       0.453088       0.772032       0.265611
      13.370000       0.453230       0.763348       0.267063
      13.380000       0.453512       0.756401       0.268762
      13.390000       0.454069       0.751349       0.270739
      13.400000       0.454905       0.748209       0.273010
      13.410000       0.455872       0.746888       0.275562
      13.420000       0.456700       0.747206       0.278363
      13.430000       0.457068       0.748927       0.281357
      13.440000       0.456694       0.751790       0.284471
      13.450000       0.455411       0.755539       0.287619
      13.460000       0.453194       0.759927       0.290697
      13.470000       0.450140       0.764689       0.293587
      13.480000       0.446415       0.769491       0.296140
      13.490000       0.442205       0.773908       0.298187
      13.500000       0.437683       0.777444       0.299549
      13.510000       0.432999       0.779619       0.300065
      13.520000       0.428286       0.780086       0.299620
      13.530000       0.423653       0.778724       0.298167
      13.540000       0.419185       0.775674       0.295729
      13.550000       0.414927       0.771294       0.292393
      13.560000       0.410888       0.766047       0.288298
      13.570000       0.407045       0.760378       0.283625
      13.580000       0.403355       0.754623       0.278591
      13.590000       0.399767       0.748961       0.273442
      13.600000       0.396217       0.743420       0.268438
      13.610000       0.392629       0.737903       0.263827
      13.620000       0.388915       0.732242       0.259828
      13.630000       0.384989       0.726247       0.256597
      13.640000       0.380788       0.719752       0.254221
      13.650000       0.376295       0.712657       0.252699
      13.660000       0.371548       0.704943       0.251946
      13.670000       0.366649       0.696672       0.251801
      13.680000       0.361745       0.687978       0.252045
      13.690000       0.357015       0.679040       0.252439
      13.700000       0.352647       0.670061       0.252761
      13.710000       0.348821       0.661232       0.252844
      13.720000       0.345689       0.652701       0.252603
      13.730000       0.343365       0.644538       0.252035
      13.740000       0.341911       0.636726       0.251203
      13.750000       0.341332       0.629173       0.250209
      13.760000       0.341578       0.621743       0.249169
      13.770000       0.342548       0.614313       0.248194
      13.780000       0.344100       0.606816       0.247383
      13.790000       0.346071       0.599284       0.246819
      13.800000       0.348299       0.591847       0.246561
      13.810000       0.350648       0.584711       0.246641
      13.820000       0.353025       0.578120       0.247061
      13.830000       0.355394       0.572303       0.247796
      13.840000       0.357771       0.567437       0.248800
      13.850000       0.360199       0.563614       0.250020
      13.860000       0.362722       0.560827       0.251414
      13.870000       0.365353       0.558975       0.252956
      13.880000       0.368046       0.557891       0.254648
      13.890000       0.370686       0.557387       0.256517
      13.900000       0.373100       0.557297       0.258616
      13.910000       0.375091       0.557507       0.261015
      13.920000       0.376489       0.557949       0.263807
      13.930000       0.377203       0.558563       0.267095
      13.940000       0.377245       0.559250       0.270980
      13.950000       0.376727       0.559841       0.275546
      13.960000       0.375822       0.560098       0.280842
      13.970000       0.374708       0.559738       0.286868
      13.980000       0.373521       0.558488       0.293578
      13.990000       0.372330       0.556129       0.300892
      14.000000       0.371132       0.552514       0.308713
      14.010000       0.369869       0.547569       0.316951
      14.020000       0.368449       0.541271       0.325526
      14.030000       0.366758       0.533645       0.334378
      14.040000       0.364679       0.524770       0.343445
      14.050000       0.362099       0.514801       0.352657
      14.060000       0.358936       0.503989       0.361914
      14.070000       0.355166       0.492668       0.371084
      14.080000       0.350842       0.481217       0.380014
      14.090000       0.346099       0.470007       0.388553
      14.100000       0.341140       0.459346       0.396571
      14.110000       0.336208       0.449453       0.403988
      14.120000       0.331544       0.440448       0.410771
      14.130000       0.327350       0.432366       0.416933
      14.140000       0.323754       0.425179       0.422503
      14.150000       0.320799       0.418821       0.427511
      14.160000       0.318446       0.413194       0.431976
      14.170000       0.316589       0.408191       0.435908
      14.180000       0.315083       0.403702       0.439321
      14.190000       0.313774       0.399641       0.442255
      14.200000       0.312528       0.395961       0.444781
      14.210000       0.311253       0.392666       0.447014
      14.220000       0.309917       0.389801       0.449096
      14.230000       0.308549       0.387432       0.451181
      14.240000       0.307220       0.385606       0.453413
      14.250000       0.306020       0.384322       0.455902
      14.260000       0.305027       0.383504       0.458700
      14.270000       0.304287       0.383010       0.461794
      14.280000       0.303802       0.382655       0.465094
      14.290000       0.303541       0.382244       0.468442
      14.300000       0.303449       0.381617       0.471633
      14.310000       0.303463       0.380673       0.474446
      14.320000       0.303522       0.379377       0.476685
      14.330000       0.303574       0.377756       0.478202
      14.340000       0.303574       0.375882       0.478918
      14.350000       0.303485       0.373860       0.478806
      14.360000       0.303276       0.371817       0.477874
      14.370000       0.302926       0.369885       0.476141
      14.380000       0.302425       0.368195       0.473626
      14.390000       0.301784       0.366866       0.470339
      14.400000       0.301035       0.365996       0.466301
      14.410000       0.300236       0.365653       0.461548
      14.420000       0.299450       0.365865       0.456144
      14.430000       0.298728       0.366600       0.450190
      14.440000       0.298079       0.367753       0.443813
      14.450000       0.297459       0.369137       0.437151
      14.460000       0.296769       0.370495       0.430332
      14.470000       0.295885       0.371543       0.423459
      14.480000       0.294698       0.372026       0.416598
      14.490000       0.293168       0.371789       0.409794
      14.500000       0.291352       0.370817       0.403081
      14.510000       0.289415       0.369235       0.396494
      14.520000       0.287598       0.367272       0.390076
      14.530000       0.286173       0.365193       0.383874
      14.540000       0.285392       0.363237       0.377938
      14.550000       0.285452       0.361577       0.372317
      14.560000       0.286468       0.360307       0.367061
      14.570000       0.288473       0.359459       0.362216
      14.580000       0.291415       0.359026       0.357818
      14.590000       0.295164       0.358993       0.353877
      14.600000       0.299517       0.359350       0.350369
      14.610000       0.304214       0.360086       0.347224
      14.620000       0.308961       0.361177       0.344337
      14.630000       0.313465       0.362575       0.341584
      14.640000       0.317476       0.364192       0.338853
      14.650000       0.320815       0.365911       0.336066
      14.660000       0.323392       0.367596       0.333193
      14.670000       0.325201       0.369111       0.330258
      14.680000       0.326306       0.370330       0.327329
      14.690000       0.326813       0.371151       0.324502
      14.700000       0.326855       0.371490       0.321895
      14.710000       0.326562       0.371282       0.319622
      14.720000       0.326058       0.370472       0.317780
      14.730000       0.325454       0.369028       0.316430
      14.740000       0.324844       0.366953       0.315585
      14.750000       0.324304       0.364310       0.315211
      14.760000       0.323882       0.361232       0.315234
      14.770000       0.323592       0.357922       0.315554
      14.780000       0.323415       0.354634       0.316066
      14.790000       0.323314       0.351635       0.316673
      14.800000       0.323248       0.349171       0.317304
      14.810000       0.323205       0.347435       0.317922
      14.820000       0.323208       0.346542       0.318524
      14.830000       0.323322       0.346520       0.319141
      14.840000       0.323631       0.347320       0.319826
      14.850000       0.324205       0.348832       0.320647
      14.860000       0.325079       0.350914       0.321683
      14.870000       0.326229       0.353418       0.323013
      14.880000       0.327572       0.356210       0.324713
      14.890000       0.328975       0.359172       0.326847
      14.900000       0.330263       0.362193       0.329475
      14.910000       0.331240       0.365150       0.332650
      14.920000       0.331716       0.367898       0.336419
      14.930000       0.331527       0.370267       0.340825
      14.940000       0.330576       0.372094       0.345903
      14.950000       0.328849       0.373257       0.351672
      14.960000       0.326432       0.373710       0.358142
      14.970000       0.323484       0.373490       0.365314
      14.980000       0.320212       0.372689       0.373191
      14.990000       0.316814       0.371423       0.381772
      15.000000       0.313445       0.369796       0.391053
      15.010000       0.310195       0.367898       0.401002
      15.020000       0.307097       0.365809       0.411549
      15.030000       0.304150       0.363615       0.422571
      15.040000       0.301347       0.361410       0.433896
      15.050000       0.298703       0.359279       0.445309
      15.060000       0.296253       0.357281       0.456586
      15.070000       0.294051       0.355438       0.467519
      15.080000       0.292154       0.353731       0.477954
      15.090000       0.290608       0.352123       0.487813
      15.100000       0.289446       0.350581       0.497107
      15.110000       0.288690       0.349094       0.505910
      15.120000       0.288343       0.347682       0.514325
      15.130000       0.288392       0.346392       0.522426
      15.140000       0.288799       0.345280       0.530211
      15.150000       0.289505       0.344382       0.537572
      15.160000       0.290430       0.343688       0.544313
      15.170000       0.291485       0.343125       0.550192
      15.180000       0.292587       0.342564       0.555001
      15.190000       0.293677       0.341864       0.558640
      15.200000       0.294739       0.340926       0.561182
      15.210000       0.295815       0.339746       0.562878
      15.220000       0.296997       0.338437       0.564118
      15.230000       0.298419       0.337209       0.565355
      15.240000       0.300219       0.336327       0.567018
      15.250000       0.302522       0.336052       0.569436
      15.260000       0.305407       0.336594       0.572795
      15.270000       0.308892       0.338089       0.577122
      15.280000       0.312925       0.340586       0.582290
      15.290000       0.317395       0.344054       0.588049
      15.300000       0.322138       0.348385       0.594067
      15.310000       0.326959       0.353422       0.599987
      15.320000       0.331643       0.358970       0.605481
      15.330000       0.335978       0.364838       0.610292
      15.340000       0.339767       0.370862       0.614258
      15.350000       0.342857       0.376939       0.617306
      15.360000       0.345145       0.383031       0.619430
      15.370000       0.346586       0.389171       0.620651
      15.380000       0.347172       0.395436       0.620994
      15.390000       0.346925       0.401929       0.620478
      15.400000       0.345883       0.408752       0.619106
      15.410000       0.344112       0.415973       0.616868
      15.420000       0.341700       0.423598       0.613737
      15.430000       0.338762       0.431554       0.609667
      15.440000       0.335413       0.439684       0.604610
      15.450000       0.331753       0.447772       0.598541
      15.460000       0.327854       0.455585       0.591487
      15.470000       0.323754       0.462912       0.583546
      15.480000       0.319486       0.469604       0.574882
      15.490000       0.315097       0.475583       0.565699
      15.500000       0.310670       0.480839       0.556208
      15.510000       0.306314       0.485411       0.546603
      15.520000       0.302145       0.489365       0.537042
      15.530000       0.298258       0.492771       0.527643
      15.540000       0.294698       0.495692       0.518479
      15.550000       0.291459       0.498177       0.509590
      15.560000       0.288492       0.500268       0.500990
      15.570000       0.285724       0.502009       0.492681
      15.580000       0.283079       0.503451       0.484656
      15.590000       0.280495       0.504652       0.476910
      15.600000       0.277933       0.505672       0.469429
      15.610000       0.275381       0.506567       0.462194
      15.620000       0.272852       0.507375       0.455176
      15.630000       0.270374       0.508113       0.448340
      15.640000       0.267983       0.508768       0.441655
      15.650000       0.265709       0.509300       0.435099
      15.660000       0.263572       0.509637       0.428671
      15.670000       0.261579       0.509690       0.422380
      15.680000       0.259724       0.509369       0.416241
      15.690000       0.257988       0.508608       0.410255
      15.700000       0.256345       0.507387       0.404393
      15.710000       0.254769       0.505748       0.398585
      15.720000       0.253239       0.503788       0.392722
      15.730000       0.251743       0.501654       0.386682
      15.740000       0.250276       0.499520       0.380353
      15.750000       0.248832       0.497563       0.373660
      15.760000       0.247404       0.495951       0.366585
      15.770000       0.245980       0.494817       0.359162
      15.780000       0.244544       0.494252       0.351452
      15.790000       0.243080       0.494293       0.343519
      15.800000       0.241574       0.494917       0.335404
      15.810000       0.240027       0.496032       0.327111
      15.820000       0.238456       0.497488       0.318621
      15.830000       0.236902       0.499079       0.309922
      15.840000       0.235433       0.500574       0.301029
      15.850000       0.234126       0.501746       0.292006
      15.860000       0.233053       0.502411       0.282956
      15.870000       0.232256       0.502462       0.274007
      15.880000       0.231739       0.501883       0.265291
      15.890000       0.231471       0.500738       0.256923
      15.900000       0.231396       0.499137       0.248994
      15.910000       0.231451       0.497192       0.241571
      15.920000       0.231586       0.494992       0.234697
      15.930000       0.231763       0.492590       0.228390
      15.940000       0.231958       0.490008       0.222653
      15.950000       0.232151       0.487247       0.217469
      15.960000       0.232312       0.484296       0.212812
      15.970000       0.232403       0.481123       0.208648
      15.980000       0.232375       0.477669       0.204949
      15.990000       0.232189       0.473840       0.201693
      16.000000       0.231826       0.469520       0.198862
      16.010000       0.231305       0.464601       0.196445
      16.020000       0.230684       0.459026       0.194428
      16.030000       0.230044       0.452831       0.192791
      16.040000       0.229479       0.446156       0.191512
      16.050000       0.229072       0.439226       0.190568
      16.060000       0.228891       0.432313       0.189930
      16.070000       0.228986       0.425681       0.189570
      16.080000       0.229396       0.419545       0.189456
      16.090000       0.230154       0.414044       0.189551
      16.100000       0.231291       0.409234       0.189819
      16.110000       0.232835       0.405092       0.190222
      16.120000       0.234811       0.401542       0.190724
      16.130000       0.237241       0.398475       0.191291
      16.140000       0.240138       0.395784       0.191892
      16.150000       0.243505       0.393385       0.192503
      16.160000       0.247316       0.391220       0.193112
      16.170000       0.251517       0.389261       0.193718
      16.180000       0.256017       0.387494       0.194332
      16.190000       0.260695       0.385920       0.194967
      16.200000       0.265406       0.384544       0.195631
      16.210000       0.269995       0.383379       0.196313
      16.220000       0.274302       0.382430       0.196978
      16.230000       0.278173       0.381686       0.197567
      16.240000       0.281465       0.381100       0.197996
      16.250000       0.284059       0.380575       0.198171
      16.260000       0.285865       0.379974       0.198004
      16.270000       0.286827       0.379135       0.197437
      16.280000       0.286915       0.377897       0.196447
      16.290000       0.286120       0.376132       0.195058
      16.300000       0.284459       0.373765       0.193327
      16.310000       0.281980       0.370786       0.191327
      16.320000       0.278776       0.367255       0.189132
      16.330000       0.274986       0.363291       0.186802
      16.340000       0.270788       0.359053       0.184377
      16.350000       0.266370       0.354712       0.181882
      16.360000       0.261904       0.350429       0.179340
      16.370000       0.257527       0.346338       0.176774
      16.380000       0.253329       0.342531       0.174217
      16.390000       0.249351       0.339050       0.171703
      16.400000       0.245598       0.335885       0.169272
      16.410000       0.242044       0.332978       0.166955
      16.420000       0.238651       0.330250       0.164779
      16.430000       0.235378       0.327630       0.162761
      16.440000       0.232194       0.325082       0.160912
      16.450000       0.229085       0.322622       0.159234
      16.460000       0.226053       0.320305       0.157720
      16.470000       0.223122       0.318196       0.156353
      16.480000       0.220328       0.316333       0.155106
      16.490000       0.217713       0.314703       0.153942
      16.500000       0.215320       0.313234       0.152820
      16.510000       0.213187       0.311819       0.151701
      16.520000       0.211349       0.310354       0.150556
      16.530000       0.209838       0.308766       0.149370
      16.540000       0.208679       0.307039       0.148145
      16.550000       0.207886       0.305205       0.146901
      16.560000       0.207450       0.303315       0.145673
      16.570000       0.207327       0.301413       0.144511
      16.580000       0.207440       0.299511       0.143470
      16.590000       0.207684       0.297585       0.142606
      16.600000       0.207945       0.295592       0.141965
      16.610000       0.208126       0.293490       0.141575
      16.620000       0.208167       0.291267       0.141447
      16.630000       0.208059       0.288956       0.141571
      16.640000       0.207841       0.286633       0.141926
      16.650000       0.207578       0.284403       0.142488
      16.660000       0.207340       0.282365       0.143241
      16.670000       0.207182       0.280586       0.144178
      16.680000       0.207131       0.279088       0.145301
      16.690000       0.207189       0.277855       0.146615
      16.700000       0.207335       0.276849       0.148118
      16.710000       0.207532       0.276036       0.149799
      16.720000       0.207736       0.275394       0.151629
      16.730000       0.207896       0.274918       0.153569
      16.740000       0.207963       0.274607       0.155568
      16.750000       0.207889       0.274461       0.157572
      16.760000       0.207639       0.274475       0.159523
      16.770000       0.207193       0.274641       0.161367
      16.780000       0.206547       0.274941       0.163054
      16.790000       0.205710       0.275350       0.164545
      16.800000       0.204706       0.275828       0.165817
      16.810000       0.203570       0.276329       0.166867
      16.820000       0.202345       0.276814       0.167713
      16.830000       0.201084       0.277261       0.168395
      16.840000       0.199847       0.277672       0.168963
      16.850000       0.198698       0.278075       0.169478
      16.860000       0.197700       0.278498       0.170002
      16.870000       0.196908       0.278954       0.170591
      16.880000       0.196361       0.279421       0.171291
      16.890000       0.196072       0.279837       0.172124
      16.900000       0.196029       0.280117       0.173088
      16.910000       0.196194       0.280174       0.174150
      16.920000       0.196516       0.279943       0.175252
      16.930000       0.196939       0.279403       0.176310
      16.940000       0.197416       0.278580       0.177229
      16.950000       0.197918       0.277543       0.177913
      16.960000       0.198437       0.276385       0.178285
      16.970000       0.198975       0.275207       0.178300
      16.980000       0.199536       0.274090       0.177949
      16.990000       0.200121       0.273089       0.177255
      17.000000       0.200716       0.272229       0.176261
      17.010000       0.201308       0.271516       0.175014
      17.020000       0.201883       0.270952       0.173553
      17.030000       0.202435       0.270542       0.171901
      17.040000       0.202975       0.270291       0.170074
      17.050000       0.203526       0.270199       0.168083
      17.060000       0.204117       0.270246       0.165945
      17.070000       0.204780       0.270397       0.163678
      17.080000       0.205547       0.270607       0.161304
      17.090000       0.206443       0.270847       0.158847
      17.100000       0.207491       0.271112       0.156327
      17.110000       0.208709       0.271426       0.153764
      17.120000       0.210110       0.271832       0.151177
      17.130000       0.211693       0.272368       0.148586
      17.140000       0.213439       0.273042       0.146018
      17.150000       0.215305       0.273808       0.143504
      17.160000       0.217222       0.274554       0.141083
      17.170000       0.219098       0.275116       0.138797
      17.180000       0.220834       0.275293       0.136687
      17.190000       0.222329       0.274890       0.134789
      17.200000       0.223502       0.273761       0.133130
      17.210000       0.224300       0.271842       0.131717
      17.220000       0.224703       0.269168       0.130536
      17.230000       0.224733       0.265859       0.129550
      17.240000       0.224442       0.262098       0.128705
      17.250000       0.223897       0.258095       0.127930
      17.260000       0.223162       0.254051       0.127152
      17.270000       0.222274       0.250131       0.126304
      17.280000       0.221244       0.246438       0.125331
      17.290000       0.220052       0.243008       0.124203
      17.300000       0.218666       0.239811       0.122912
      17.310000       0.217061       0.236760       0.121474
      17.320000       0.215240       0.233743       0.119920
      17.330000       0.213238       0.230653       0.118296
      17.340000       0.211135       0.227420       0.116648
      17.350000       0.209034       0.224026       0.115022
      17.360000       0.207052       0.220509       0.113462
      17.370000       0.205297       0.216949       0.112000
      17.380000       0.203845       0.213446       0.110662
      17.390000       0.202740       0.210105       0.109463
      17.400000       0.201984       0.207020       0.108409
      17.410000       0.201546       0.204265       0.107496
      17.420000       0.201360       0.201885       0.106720
      17.430000       0.201335       0.199888       0.106071
      17.440000       0.201361       0.198248       0.105542
      17.450000       0.201322       0.196907       0.105126
      17.460000       0.201110       0.195787       0.104818
      17.470000       0.200638       0.194805       0.104615
      17.480000       0.199848       0.193888       0.104511
      17.490000       0.198717       0.192981       0.104503
      17.500000       0.197254       0.192051       0.104585
      17.510000       0.195499       0.191083       0.104748
      17.520000       0.193513       0.190081       0.104980
      17.530000       0.191375       0.189064       0.105266
      17.540000       0.189167       0.188059       0.105583
      17.550000       0.186970       0.187098       0.105901
      17.560000       0.184854       0.186213       0.106184
      17.570000       0.182878       0.185430       0.106396
      17.580000       0.181083       0.184763       0.106499
      17.590000       0.179491       0.184211       0.106466
      17.600000       0.178106       0.183755       0.106281
      17.610000       0.176919       0.183360       0.105943
      17.620000       0.175907       0.182981       0.105464
      17.630000       0.175044       0.182567       0.104864
      17.640000       0.174297       0.182071       0.104171
      17.650000       0.173633       0.181454       0.103411
      17.660000       0.173021       0.180689       0.102605
      17.670000       0.172438       0.179765       0.101765
      17.680000       0.171873       0.178680       0.100894
      17.690000       0.171329       0.177447       0.099987
      17.700000       0.170820       0.176084       0.099035
      17.710000       0.170368       0.174617       0.098030
      17.720000       0.169990       0.173077       0.096971
      17.730000       0.169699       0.171503       0.095871
      17.740000       0.169495       0.169933       0.094755
      17.750000       0.169365       0.168404       0.093653
      17.760000       0.169283       0.166945       0.092597
      17.770000       0.169211       0.165575       0.091614
      17.780000       0.169099       0.164301       0.090720
      17.790000       0.168892       0.163114       0.089919
      17.800000       0.168544       0.161999       0.089209
      17.810000       0.168020       0.160938       0.088582
      17.820000       0.167312       0.159915       0.088033
      17.830000       0.166438       0.158923       0.087557
      17.840000       0.165440       0.157956       0.087152
      17.850000       0.164374       0.157010       0.086816
      17.860000       0.163297       0.156076       0.086544
      17.870000       0.162266       0.155137       0.086324
      17.880000       0.161332       0.154173       0.086137
      17.890000       0.160544       0.153168       0.085961
      17.900000       0.159956       0.152109       0.085776
      17.910000       0.159622       0.151000       0.085568
      17.920000       0.159598       0.149858       0.085331
      17.930000       0.159928       0.148713       0.085069
      17.940000       0.160633       0.147597       0.084790
      17.950000       0.161697       0.146539       0.084502
      17.960000       0.163065       0.145556       0.084212
      17.970000       0.164641       0.144648       0.083926
      17.980000       0.166297       0.143804       0.083649
      17.990000       0.167884       0.143002       0.083387
      18.000000       0.169253       0.142223       0.083147
      18.010000       0.170271       0.141447       0.082938
      18.020000       0.170841       0.140666       0.082771
      18.030000       0.170911       0.139872       0.082656
      18.040000       0.170482       0.139061       0.082601
      18.050000       0.169595       0.138229       0.082618
      18.060000       0.168320       0.137373       0.082714
      18.070000       0.166730       0.136490       0.082900
      18.080000       0.164891       0.135586       0.083183
      18.090000       0.162851       0.134674       0.083569
      18.100000       0.160637       0.133776       0.084061
      18.110000       0.158263       0.132918       0.084658
      18.120000       0.155736       0.132129       0.085360
      18.130000       0.153070       0.131432       0.086162
      18.140000       0.150297       0.130845       0.087061
      18.150000       0.147469       0.130381       0.088055
      18.160000       0.144657       0.130043       0.089140
      18.170000       0.141943       0.129832       0.090310
      18.180000       0.139406       0.129745       0.091554
      18.190000       0.137111       0.129781       0.092856
      18.200000       0.135103       0.129939       0.094186
      18.210000       0.133399       0.130219       0.095511
      18.220000       0.131987       0.130618       0.096791
      18.230000       0.130829       0.131127       0.097987
      18.240000       0.129868       0.131723       0.099070
      18.250000       0.129034       0.132374       0.100022
      18.260000       0.128261       0.133032       0.100843
      18.270000       0.127488       0.133640       0.101541
      18.280000       0.126675       0.134144       0.102138
      18.290000       0.125797       0.134496       0.102654
      18.300000       0.124853       0.134670       0.103106
      18.310000       0.123852       0.134657       0.103506
      18.320000       0.122816       0.134472       0.103859
      18.330000       0.121764       0.134140       0.104166
      18.340000       0.120717       0.133699       0.104430
      18.350000       0.119691       0.133190       0.104656
      18.360000       0.118701       0.132659       0.104857
      18.370000       0.117759       0.132152       0.105051
      18.380000       0.116883       0.131710       0.105262
      18.390000       0.116087       0.131366       0.105515
      18.400000       0.115393       0.131140       0.105834
      18.410000       0.114820       0.131038       0.106237
      18.420000       0.114388       0.131051       0.106728
      18.430000       0.114113       0.131165       0.107294
      18.440000       0.114007       0.131364       0.107912
      18.450000       0.114077       0.131641       0.108548
      18.460000       0.114324       0.132000       0.109173
      18.470000       0.114743       0.132458       0.109770
      18.480000       0.115319       0.133039       0.110344
      18.490000       0.116032       0.133771       0.110926
      18.500000       0.116853       0.134676       0.111567
      18.510000       0.117750       0.135763       0.112331
      18.520000       0.118688       0.137020       0.113283
      18.530000       0.119631       0.138421       0.114481
      18.540000       0.120542       0.139921       0.115970
      18.550000       0.121382       0.141473       0.117784
      18.560000       0.122110       0.143028       0.119934
      18.570000       0.122690       0.144543       0.122419
      18.580000       0.123090       0.145991       0.125217
      18.590000       0.123293       0.147361       0.128291
      18.600000       0.123291       0.148655       0.131587
      18.610000       0.123082       0.149892       0.135038
      18.620000       0.122674       0.151100       0.138568
      18.630000       0.122077       0.152308       0.142097
      18.640000       0.121309       0.153540       0.145551
      18.650000       0.120394       0.154806       0.148872
      18.660000       0.119367       0.156095       0.152025
      18.670000       0.118270       0.157375       0.155004
      18.680000       0.117151       0.158597       0.157830
      18.690000       0.116062       0.159707       0.160554
      18.700000       0.115052       0.160658       0.163242
      18.710000       0.114163       0.161424       0.165975
      18.720000       0.113423       0.162008       0.168834
      18.730000       0.112848       0.162440       0.171893
      18.740000       0.112438       0.162777       0.175216
      18.750000       0.112181       0.163081       0.178839
      18.760000       0.112053       0.163410       0.182772
      18.770000       0.112024       0.163797       0.186986
      18.780000       0.112058       0.164250       0.191416
      18.790000       0.112117       0.164751       0.195962
      18.800000       0.112164       0.165265       0.200499
      18.810000       0.112171       0.165746       0.204891
      18.820000       0.112114       0.166145       0.209005
      18.830000       0.111976       0.166409       0.212728
      18.840000       0.111744       0.166490       0.215979
      18.850000       0.111408       0.166351       0.218715
      18.860000       0.110955       0.165987       0.220933
      18.870000       0.110374       0.165428       0.222664
      18.880000       0.109658       0.164741       0.223970
      18.890000       0.108803       0.164020       0.224938
      18.900000       0.107814       0.163367       0.225681
      18.910000       0.106708       0.162872       0.226325
      18.920000       0.105510       0.162603       0.227001
      18.930000       0.104251       0.162592       0.227827
      18.940000       0.102959       0.162840       0.228893
      18.950000       0.101656       0.163319       0.230251
      18.960000       0.100361       0.163977       0.231923
      18.970000       0.099088       0.164754       0.233901
      18.980000       0.097853       0.165583       0.236164
      18.990000       0.096675       0.166400       0.238681
      19.000000       0.095574       0.167148       0.241417
      19.010000       0.094566       0.167785       0.244328
      19.020000       0.093663       0.168284       0.247364
      19.030000       0.092865       0.168636       0.250468
      19.040000       0.092158       0.168843       0.253570
      19.050000       0.091523       0.168910       0.256591
      19.060000       0.090933       0.168847       0.259429
      19.070000       0.090364       0.168666       0.261966
      19.080000       0.089801       0.168393       0.264065
      19.090000       0.089240       0.168064       0.265581
      19.100000       0.088692       0.167728       0.266385
      19.110000       0.088172       0.167436       0.266379
      19.120000       0.087702       0.167233       0.265522
      19.130000       0.087302       0.167147       0.263846
      19.140000       0.086985       0.167182       0.261452
      19.150000       0.086756       0.167324       0.258501
      19.160000       0.086612       0.167544       0.255184
      19.170000       0.086547       0.167805       0.251693
      19.180000       0.086552       0.168077       0.248197
      19.190000       0.086619       0.168340       0.244826
      19.200000       0.086737       0.168586       0.241666
      19.210000       0.086894       0.168813       0.238766
      19.220000       0.087073       0.169020       0.236143
      19.230000       0.087250       0.169200       0.233803
      19.240000       0.087401       0.169334       0.231747
      19.250000       0.087498       0.169395       0.229989
      19.260000       0.087519       0.169351       0.228567
      19.270000       0.087442       0.169168       0.227536
      19.280000       0.087255       0.168814       0.226962
      19.290000       0.086951       0.168261       0.226909
      19.300000       0.086532       0.167483       0.227417
      19.310000       0.086010       0.166456       0.228494
      19.320000       0.085403       0.165159       0.230117
      19.330000       0.084743       0.163585       0.232233
      19.340000       0.084061       0.161745       0.234774
      19.350000       0.083396       0.159681       0.237672
      19.360000       0.082781       0.157459       0.240861
      19.370000       0.082246       0.155161       0.244287
      19.380000       0.081810       0.152872       0.247900
      19.390000       0.081485       0.150656       0.251649
      19.400000       0.081267       0.148557       0.255473
      19.410000       0.081146       0.146591       0.259302
      19.420000       0.081103       0.144752       0.263055
      19.430000       0.081118       0.143016       0.266643
      19.440000       0.081173       0.141357       0.269976
      19.450000       0.081257       0.139751       0.272964
      19.460000       0.081367       0.138187       0.275530
      19.470000       0.081509       0.136672       0.277603
      19.480000       0.081695       0.135222       0.279128
      19.490000       0.081936       0.133856       0.280063
      19.500000       0.082239       0.132581       0.280389
      19.510000       0.082602       0.131389       0.280122
      19.520000       0.083006       0.130245       0.279320
      19.530000       0.083423       0.129096       0.278086
      19.540000       0.083819       0.127877       0.276559
      19.550000       0.084159       0.126527       0.274891
      19.560000       0.084413       0.124997       0.273230
      19.570000       0.084564       0.123263       0.271694
      19.580000       0.084599       0.121326       0.270360
      19.590000       0.084516       0.119212       0.269256
      19.600000       0.084317       0.116960       0.268370
      19.610000       0.084011       0.114616       0.267657
      19.620000       0.083607       0.112226       0.267061
      19.630000       0.083120       0.109831       0.266521
      19.640000       0.082568       0.107472       0.265979
      19.650000       0.081971       0.105183       0.265383
      19.660000       0.081354       0.103001       0.264685
      19.670000       0.080740       0.100959       0.263847
      19.680000       0.080154       0.099087       0.262846
      19.690000       0.079620       0.097406       0.261677
      19.700000       0.079156       0.095925       0.260356
      19.710000       0.078774       0.094642       0.258915
      19.720000       0.078479       0.093545       0.257406
      19.730000       0.078267       0.092609       0.255888
      19.740000       0.078128       0.091809       0.254425
      19.750000       0.078047       0.091115       0.253076
      19.760000       0.078007       0.090503       0.251886
      19.770000       0.077989       0.089954       0.250883
      19.780000       0.077975       0.089455       0.250075
      19.790000       0.077948       0.088992       0.249451
      19.800000       0.077893       0.088553       0.248984
      19.810000       0.077796       0.088124       0.248638
      19.820000       0.077642       0.087688       0.248375
      19.830000       0.077419       0.087224       0.248166
      19.840000       0.077113       0.086714       0.247997
      19.850000       0.076716       0.086147       0.247879
      19.860000       0.076224       0.085520       0.247850
      19.870000       0.075641       0.084840       0.247976
      19.880000       0.074974       0.084127       0.248332
      19.890000       0.074237       0.083403       0.248992
      19.900000       0.073446       0.082691       0.250002
      19.910000       0.072617       0.082013       0.251374
      19.920000       0.071765       0.081383       0.253082
      19.930000       0.070906       0.080810       0.255072
      19.940000       0.070056       0.080299       0.257280
      19.950000       0.069232       0.079849       0.259649
      19.960000       0.068455       0.079456       0.262140
      19.970000       0.067741       0.079112       0.264738
      19.980000       0.067109       0.078807       0.267439
      19.990000       0.066571       0.078528       0.270252
      20.000000       0.066134       0.078265       0.273189
