  # energy grid [eV]     epsr_x  epsr_y  epsr_z
       0.000000            NaN            NaN            NaN
       0.010000 -162303.800766 -204497.307429       2.084586
       0.020000  -40571.849812  -51120.963093       2.084778
       0.030000  -18028.893145  -22717.933611       2.085099
       0.040000  -10138.855010  -12776.870038       2.085549
       0.050000   -6486.890866   -8175.574184       2.086128
       0.060000   -4503.103998   -5676.101040       2.086838
       0.070000   -3306.939023   -4168.993622       2.087680
       0.080000   -2530.577735   -3190.818885       2.088654
       0.090000   -1998.302652   -2520.181376       2.089761
       0.100000   -1617.564966   -2040.474144       2.091000
       0.110000   -1335.857591   -1685.540877       2.092372
       0.120000   -1121.591402   -1415.580899       2.093875
       0.130000    -954.837230   -1205.484541       2.095504
       0.140000    -822.518156   -1038.775671       2.097254
       0.150000    -715.765111    -904.279889       2.099115
       0.160000    -628.390801    -794.201763       2.101074
       0.170000    -555.972387    -702.969062       2.103109
       0.180000    -495.280417    -626.513256       2.105193
       0.190000    -443.912320    -561.807749       2.107284
       0.200000    -400.050807    -506.563486       2.109328
       0.210000    -362.300799    -459.023482       2.111251
       0.220000    -329.577001    -417.821143       2.112956
       0.230000    -301.024912    -381.880666       2.114317
       0.240000    -275.964359    -350.345786       2.115178
       0.250000    -253.848509    -322.527959       2.115351
       0.260000    -234.233692    -297.868172       2.114619
       0.270000    -216.756924    -275.908452       2.112755
       0.280000    -201.118988    -256.270463       2.109548
       0.290000    -187.071603    -238.639286       2.104835
       0.300000    -174.407580    -222.751015       2.098559
       0.310000    -162.953201    -208.383133       2.090796
       0.320000    -152.562236    -195.346961       2.081779
       0.330000    -143.111196    -183.481752       2.071882
       0.340000    -134.495510    -172.650094       2.061560
       0.350000    -126.626367    -162.734370       2.051279
       0.360000    -119.427989    -153.633914       2.041444
       0.370000    -112.835076    -145.262594       2.032336
       0.380000    -106.790290    -137.546612       2.024097
       0.390000    -101.241749    -130.422451       2.016746
       0.400000     -96.140759    -123.834985       2.010231
       0.410000     -91.440240    -117.735801       2.004488
       0.420000     -87.094284    -112.081757       1.999492
       0.430000     -83.059008    -106.833785       1.995266
       0.440000     -79.294275    -101.955910       1.991860
       0.450000     -75.765420     -97.414500       1.989305
       0.460000     -72.444188     -93.177791       1.987568
       0.470000     -69.308573     -89.215797       1.986533
       0.480000     -66.341809     -85.500613       1.986002
       0.490000     -63.531003     -82.006997       1.985724
       0.500000     -60.865859     -78.712962       1.985417
       0.510000     -58.337700     -75.600105       1.984815
       0.520000     -55.938833     -72.653534       1.983701
       0.530000     -53.662187     -69.861430       1.981943
       0.540000     -51.501145     -67.214399       1.979520
       0.550000     -49.449479     -64.704806       1.976536
       0.560000     -47.501346     -62.326163       1.973202
       0.570000     -45.651293     -60.072606       1.969797
       0.580000     -43.894267     -57.938413       1.966609
       0.590000     -42.225590     -55.917558       1.963880
       0.600000     -40.640925     -54.003336       1.961758
       0.610000     -39.136228     -52.188165       1.960277
       0.620000     -37.707725     -50.463697       1.959361
       0.630000     -36.351943     -48.821266       1.958839
       0.640000     -35.065822     -47.252560       1.958476
       0.650000     -33.846840     -45.750261       1.958009
       0.660000     -32.693080     -44.308422       1.957184
       0.670000     -31.603102     -42.922513       1.955798
       0.680000     -30.575538     -41.589183       1.953729
       0.690000     -29.608448     -40.305925       1.950965
       0.700000     -28.698565     -39.070736       1.947607
       0.710000     -27.840714     -37.881871       1.943843
       0.720000     -27.027724     -36.737680       1.939911
       0.730000     -26.251021     -35.636532       1.936040
       0.740000     -25.501795     -34.576776       1.932415
       0.750000     -24.772304     -33.556745       1.929165
       0.760000     -24.056843     -32.574759       1.926375
       0.770000     -23.352067     -31.629146       1.924108
       0.780000     -22.656733     -30.718253       1.922416
       0.790000     -21.971114     -29.840465       1.921336
       0.800000     -21.296360     -28.994221       1.920875
       0.810000     -20.633986     -28.178018       1.920997
       0.820000     -19.985547     -27.390422       1.921626
       0.830000     -19.352461     -26.630072       1.922660
       0.840000     -18.735945     -25.895675       1.923992
       0.850000     -18.137001     -25.186009       1.925535
       0.860000     -17.556412     -24.499913       1.927232
       0.870000     -16.994737     -23.836292       1.929059
       0.880000     -16.452296     -23.194111       1.931011
       0.890000     -15.929189     -22.572395       1.933080
       0.900000     -15.425393     -21.970225       1.935241
       0.910000     -14.940967     -21.386745       1.937440
       0.920000     -14.476378     -20.821159       1.939593
       0.930000     -14.032854     -20.272735       1.941595
       0.940000     -13.612703     -19.740804       1.943335
       0.950000     -13.219486     -19.224773       1.944708
       0.960000     -12.858004     -18.724114       1.945636
       0.970000     -12.534056     -18.238376       1.946087
       0.980000     -12.253908     -17.767166       1.946081
       0.990000     -12.023400     -17.310140       1.945697
       1.000000     -11.846695     -16.866961       1.945051
       1.010000     -11.724794     -16.437259       1.944275
       1.020000     -11.654187     -16.020566       1.943486
       1.030000     -11.626196     -15.616278       1.942772
       1.040000     -11.627509     -15.223647       1.942197
       1.050000     -11.642049     -14.841838       1.941809
       1.060000     -11.653694     -14.470037       1.941649
       1.070000     -11.648916     -14.107595       1.941749
       1.080000     -11.618426     -13.754143       1.942126
       1.090000     -11.557417     -13.409653       1.942769
       1.100000     -11.464738     -13.074430       1.943646
       1.110000     -11.341643     -12.749051       1.944711
       1.120000     -11.190736     -12.434261       1.945922
       1.130000     -11.015321     -12.130820       1.947249
       1.140000     -10.819090     -11.839305       1.948670
       1.150000     -10.605939     -11.559870       1.950159
       1.160000     -10.379791     -11.292026       1.951667
       1.170000     -10.144406     -11.034518       1.953111
       1.180000      -9.903213     -10.785420       1.954372
       1.190000      -9.659208     -10.542463       1.955299
       1.200000      -9.414914     -10.303552       1.955725
       1.210000      -9.172395     -10.067259       1.955491
       1.220000      -8.933289      -9.833172       1.954471
       1.230000      -8.698843      -9.601990       1.952609
       1.240000      -8.469936      -9.375424       1.949944
       1.250000      -8.247076      -9.155978       1.946623
       1.260000      -8.030404      -8.946675       1.942884
       1.270000      -7.819719      -8.750734       1.939010
       1.280000      -7.614555      -8.571169       1.935271
       1.290000      -7.414308      -8.410287       1.931870
       1.300000      -7.218387      -8.269098       1.928929
       1.310000      -7.026324      -8.146787       1.926492
       1.320000      -6.837834      -8.040441       1.924558
       1.330000      -6.652781      -7.945256       1.923098
       1.340000      -6.471106      -7.855271       1.922070
       1.350000      -6.292741      -7.764467       1.921416
       1.360000      -6.117544      -7.667876       1.921053
       1.370000      -5.945292      -7.562370       1.920876
       1.380000      -5.775715      -7.446956       1.920772
       1.390000      -5.608566      -7.322646       1.920637
       1.400000      -5.443680      -7.192023       1.920386
       1.410000      -5.281017      -7.058710       1.919957
       1.420000      -5.120665      -6.926803       1.919303
       1.430000      -4.962832      -6.800356       1.918387
       1.440000      -4.807824      -6.682889       1.917185
       1.450000      -4.656028      -6.576942       1.915704
       1.460000      -4.507899      -6.483716       1.914000
       1.470000      -4.363957      -6.402932       1.912192
       1.480000      -4.224778      -6.333010       1.910448
       1.490000      -4.090964      -6.271579       1.908953
       1.500000      -3.963093      -6.216131       1.907859
       1.510000      -3.841621      -6.164537       1.907244
       1.520000      -3.726766      -6.115226       1.907086
       1.530000      -3.618379      -6.067044       1.907265
       1.540000      -3.515889      -6.018970       1.907588
       1.550000      -3.418336      -5.969887       1.907820
       1.560000      -3.324524      -5.918450       1.907733
       1.570000      -3.233239      -5.863108       1.907140
       1.580000      -3.143487      -5.802260       1.905935
       1.590000      -3.054681      -5.734582       1.904111
       1.600000      -2.966743      -5.659419       1.901758
       1.610000      -2.880103      -5.577098       1.899054
       1.620000      -2.795573      -5.489012       1.896222
       1.630000      -2.714135      -5.397432       1.893494
       1.640000      -2.636679      -5.305117       1.891064
       1.650000      -2.563773      -5.214864       1.889058
       1.660000      -2.495543      -5.129103       1.887521
       1.670000      -2.431721      -5.049613       1.886424
       1.680000      -2.371856      -4.977386       1.885685
       1.690000      -2.315580      -4.912629       1.885194
       1.700000      -2.262797      -4.854892       1.884832
       1.710000      -2.213701      -4.803323       1.884474
       1.720000      -2.168632      -4.757001       1.883993
       1.730000      -2.127844      -4.715285       1.883268
       1.740000      -2.091308      -4.678022       1.882192
       1.750000      -2.058616      -4.645550       1.880699
       1.760000      -2.029054      -4.618438       1.878778
       1.770000      -2.001853      -4.597080       1.876495
       1.780000      -1.976505      -4.581298       1.873983
       1.790000      -1.953029      -4.570140       1.871429
       1.800000      -1.932008      -4.561945       1.869028
       1.810000      -1.914350      -4.554610       1.866946
       1.820000      -1.900859      -4.545876       1.865289
       1.830000      -1.891798      -4.533515       1.864097
       1.840000      -1.886656      -4.515393       1.863354
       1.850000      -1.884247      -4.489547       1.863009
       1.860000      -1.883119      -4.454354       1.862989
       1.870000      -1.882094      -4.408781       1.863216
       1.880000      -1.880678      -4.352594       1.863611
       1.890000      -1.879140      -4.286407       1.864091
       1.900000      -1.878244      -4.211568       1.864578
       1.910000      -1.878814      -4.129927       1.865004
       1.920000      -1.881348      -4.043591       1.865329
       1.930000      -1.885881      -3.954729       1.865548
       1.940000      -1.892068      -3.865447       1.865692
       1.950000      -1.899354      -3.777696       1.865808
       1.960000      -1.907041      -3.693197       1.865941
       1.970000      -1.914205      -3.613332       1.866118
       1.980000      -1.919576      -3.539007       1.866340
       1.990000      -1.921547      -3.470509       1.866593
       2.000000      -1.918379      -3.407429       1.866852
       2.010000      -1.908536      -3.348727       1.867092
       2.020000      -1.890987      -3.292974       1.867279
       2.030000      -1.865373      -3.238713       1.867370
       2.040000      -1.832021      -3.184832       1.867323
       2.050000      -1.791828      -3.130818       1.867110
       2.060000      -1.746078      -3.076821       1.866735
       2.070000      -1.696216      -3.023544       1.866243
       2.080000      -1.643619      -2.972014       1.865718
       2.090000      -1.589400      -2.923310       1.865268
       2.100000      -1.534285      -2.878314       1.865001
       2.110000      -1.478603      -2.837551       1.865003
       2.120000      -1.422382      -2.801137       1.865320
       2.130000      -1.365525      -2.768823       1.865949
       2.140000      -1.307983      -2.740063       1.866840
       2.150000      -1.249871      -2.714059       1.867890
       2.160000      -1.191487      -2.689805       1.868961
       2.170000      -1.133275      -2.666168       1.869889
       2.180000      -1.075733      -2.642066       1.870510
       2.190000      -1.019343      -2.616673       1.870679
       2.200000      -0.964491      -2.589558       1.870296
       2.210000      -0.911418      -2.560681       1.869317
       2.220000      -0.860162      -2.530238       1.867756
       2.230000      -0.810519      -2.498451       1.865681
       2.240000      -0.762039      -2.465402       1.863200
       2.250000      -0.714068      -2.430989       1.860458
       2.260000      -0.665860      -2.394994       1.857620
       2.270000      -0.616718      -2.357219       1.854869
       2.280000      -0.566123      -2.317599       1.852387
       2.290000      -0.513809      -2.276241       1.850336
       2.300000      -0.459769      -2.233364       1.848846
       2.310000      -0.404213      -2.189183       1.848001
       2.320000      -0.347497      -2.143802       1.847840
       2.330000      -0.290063      -2.097179       1.848357
       2.340000      -0.232397      -2.049186       1.849507
       2.350000      -0.175003      -1.999722       1.851205
       2.360000      -0.118389      -1.948826       1.853341
       2.370000      -0.063058      -1.896735       1.855785
       2.380000      -0.009491      -1.843877       1.858403
       2.390000       0.041891      -1.790823       1.861071
       2.400000       0.090774      -1.738212       1.863681
       2.410000       0.136996      -1.686690       1.866149
       2.420000       0.180579      -1.636867       1.868414
       2.430000       0.221702      -1.589310       1.870433
       2.440000       0.260609      -1.544545       1.872177
       2.450000       0.297482      -1.503078       1.873626
       2.460000       0.332323      -1.465376       1.874774
       2.470000       0.364895      -1.431806       1.875626
       2.480000       0.394765      -1.402539       1.876199
       2.490000       0.421414      -1.377451       1.876516
       2.500000       0.444402      -1.356062       1.876602
       2.510000       0.463528      -1.337569       1.876475
       2.520000       0.478951      -1.320958       1.876151
       2.530000       0.491210      -1.305160       1.875646
       2.540000       0.501122      -1.289237       1.874984
       2.550000       0.509556      -1.272529       1.874201
       2.560000       0.517153      -1.254749       1.873349
       2.570000       0.524130      -1.235977       1.872486
       2.580000       0.530235      -1.216551       1.871663
       2.590000       0.534866      -1.196873       1.870905
       2.600000       0.537305      -1.177194       1.870209
       2.610000       0.536921      -1.157450       1.869547
       2.620000       0.533302      -1.137224       1.868883
       2.630000       0.526253      -1.115841       1.868203
       2.640000       0.515755      -1.092559       1.867533
       2.650000       0.501921      -1.066768       1.866951
       2.660000       0.485017      -1.038132       1.866566
       2.670000       0.465525      -1.006628       1.866498
       2.680000       0.444219      -0.972512       1.866836
       2.690000       0.422234      -0.936234       1.867617
       2.700000       0.401071      -0.898354       1.868817
       2.710000       0.382511      -0.859464       1.870360
       2.720000       0.368408      -0.820129       1.872126
       2.730000       0.360408      -0.780855       1.873979
       2.740000       0.359668      -0.742071       1.875772
       2.750000       0.366686      -0.704132       1.877372
       2.760000       0.381288      -0.667330       1.878671
       2.770000       0.402752      -0.631914       1.879595
       2.780000       0.430004      -0.598110       1.880120
       2.790000       0.461819      -0.566127       1.880272
       2.800000       0.496985      -0.536149       1.880124
       2.810000       0.534416      -0.508301       1.879782
       2.820000       0.573218      -0.482592       1.879375
       2.830000       0.612716      -0.458858       1.879034
       2.840000       0.652452      -0.436718       1.878879
       2.850000       0.692158      -0.415596       1.879002
       2.860000       0.731716      -0.394777       1.879467
       2.870000       0.771111      -0.373526       1.880305
       2.880000       0.810389      -0.351203       1.881514
       2.890000       0.849618      -0.327356       1.883063
       2.900000       0.888865      -0.301777       1.884901
       2.910000       0.928184      -0.274495       1.886955
       2.920000       0.967615      -0.245738       1.889138
       2.930000       1.007194      -0.215881       1.891358
       2.940000       1.046944      -0.185393       1.893521
       2.950000       1.086873      -0.154804       1.895539
       2.960000       1.126950      -0.124673       1.897338
       2.970000       1.167101      -0.095555       1.898861
       2.980000       1.207203      -0.067952       1.900075
       2.990000       1.247101      -0.042230       1.900965
       3.000000       1.286621      -0.018549       1.901529
       3.010000       1.325595       0.003195       1.901772
       3.020000       1.363876       0.023368       1.901701
       3.030000       1.401354       0.042503       1.901337
       3.040000       1.437964       0.061152       1.900718
       3.050000       1.473693       0.079729       1.899906
       3.060000       1.508581       0.098406       1.898986
       3.070000       1.542725       0.117109       1.898060
       3.080000       1.576281       0.135603       1.897232
       3.090000       1.609464       0.153620       1.896598
       3.100000       1.642539       0.170987       1.896236
       3.110000       1.675802       0.187697       1.896202
       3.120000       1.709540       0.203908       1.896531
       3.130000       1.743987       0.219887       1.897238
       3.140000       1.779278       0.235910       1.898313
       3.150000       1.815418       0.252204       1.899728
       3.160000       1.852274       0.268924       1.901434
       3.170000       1.889585       0.286182       1.903371
       3.180000       1.926992       0.304071       1.905474
       3.190000       1.964085       0.322673       1.907675
       3.200000       2.000459       0.342031       1.909908
       3.210000       2.035779       0.362126       1.912109
       3.220000       2.069849       0.382886       1.914222
       3.230000       2.102664       0.404213       1.916202
       3.240000       2.134419       0.426021       1.918015
       3.250000       2.165473       0.448236       1.919643
       3.260000       2.196249       0.470771       1.921078
       3.270000       2.227122       0.493480       1.922311
       3.280000       2.258322       0.516125       1.923334
       3.290000       2.289891       0.538378       1.924136
       3.300000       2.321708       0.559874       1.924709
       3.310000       2.353548       0.580292       1.925059
       3.320000       2.385165       0.599451       1.925208
       3.330000       2.416356       0.617377       1.925197
       3.340000       2.447007       0.634296       1.925074
       3.350000       2.477102       0.650548       1.924894
       3.360000       2.506725       0.666437       1.924706
       3.370000       2.536050       0.682080       1.924549
       3.380000       2.565335       0.697338       1.924455
       3.390000       2.594903       0.711823       1.924444
       3.400000       2.625091       0.725017       1.924527
       3.410000       2.656160       0.736412       1.924709
       3.420000       2.688193       0.745656       1.924997
       3.430000       2.720991       0.752640       1.925409
       3.440000       2.754001       0.757549       1.925979
       3.450000       2.786314       0.760849       1.926752
       3.460000       2.816709       0.763261       1.927776
       3.470000       2.843754       0.765685       1.929090
       3.480000       2.865934       0.769069       1.930710
       3.490000       2.881801       0.774235       1.932629
       3.500000       2.890142       0.781706       1.934813
       3.510000       2.890144       0.791605       1.937204
       3.520000       2.881533       0.803667       1.939732
       3.530000       2.864654       0.817355       1.942310
       3.540000       2.840487       0.832033       1.944848
       3.550000       2.810639       0.847135       1.947254
       3.560000       2.777314       0.862271       1.949443
       3.570000       2.743223       0.877246       1.951349
       3.580000       2.711372       0.891990       1.952932
       3.590000       2.684680       0.906441       1.954185
       3.600000       2.665498       0.920425       1.955137
       3.610000       2.655182       0.933607       1.955849
       3.620000       2.653859       0.945521       1.956396
       3.630000       2.660457       0.955672       1.956865
       3.640000       2.672940       0.963666       1.957338
       3.650000       2.688635       0.969314       1.957893
       3.660000       2.704573       0.972682       1.958605
       3.670000       2.717801       0.974078       1.959535
       3.680000       2.725657       0.973998       1.960729
       3.690000       2.726007       0.973061       1.962206
       3.700000       2.717422       0.971965       1.963948
       3.710000       2.699289       0.971465       1.965905
       3.720000       2.671857       0.972364       1.968005
       3.730000       2.636241       0.975472       1.970155
       3.740000       2.594361       0.981543       1.972266
       3.750000       2.548781       0.991179       1.974255
       3.760000       2.502417       1.004738       1.976054
       3.770000       2.458195       1.022259       1.977615
       3.780000       2.418780       1.043445       1.978911
       3.790000       2.386448       1.067689       1.979933
       3.800000       2.363017       1.094138       1.980695
       3.810000       2.349757       1.121781       1.981235
       3.820000       2.347205       1.149551       1.981622
       3.830000       2.354995       1.176434       1.981951
       3.840000       2.371820       1.201569       1.982330
       3.850000       2.395577       1.224328       1.982857
       3.860000       2.423660       1.244357       1.983603
       3.870000       2.453297       1.261569       1.984600
       3.880000       2.481847       1.276079       1.985841
       3.890000       2.507034       1.288120       1.987296
       3.900000       2.527109       1.297936       1.988925
       3.910000       2.540978       1.305718       1.990694
       3.920000       2.548317       1.311581       1.992583
       3.930000       2.549647       1.315605       1.994594
       3.940000       2.546319       1.317931       1.996741
       3.950000       2.540355       1.318836       1.999044
       3.960000       2.534148       1.318760       2.001517
       3.970000       2.530084       1.318248       2.004161
       3.980000       2.530161       1.317834       2.006956
       3.990000       2.535658       1.317907       2.009866
       4.000000       2.546922       1.318639       2.012839
       4.010000       2.563326       1.319990       2.015814
       4.020000       2.583422       1.321798       2.018729
       4.030000       2.605259       1.323906       2.021524
       4.040000       2.626758       1.326259       2.024150
       4.050000       2.646001       1.328928       2.026573
       4.060000       2.661359       1.332041       2.028780
       4.070000       2.671440       1.335669       2.030773
       4.080000       2.674973       1.339716       2.032563
       4.090000       2.670725       1.343878       2.034166
       4.100000       2.657561       1.347673       2.035593
       4.110000       2.634590       1.350552       2.036846
       4.120000       2.601321       1.352042       2.037922
       4.130000       2.557748       1.351869       2.038817
       4.140000       2.504314       1.350011       2.039536
       4.150000       2.441826       1.346633       2.040103
       4.160000       2.371366       1.341938       2.040566
       4.170000       2.294269       1.336015       2.040991
       4.180000       2.212176       1.328745       2.041454
       4.190000       2.127076       1.319817       2.042023
       4.200000       2.041284       1.308837       2.042739
       4.210000       1.957291       1.295472       2.043605
       4.220000       1.877522       1.279585       2.044583
       4.230000       1.804064       1.261329       2.045602
       4.240000       1.738433       1.241162       2.046578
       4.250000       1.681431       1.219785       2.047434
       4.260000       1.633121       1.198008       2.048117
       4.270000       1.592933       1.176615       2.048614
       4.280000       1.559896       1.156249       2.048944
       4.290000       1.532938       1.137354       2.049154
       4.300000       1.511200       1.120176       2.049301
       4.310000       1.494261       1.104811       2.049429
       4.320000       1.482195       1.091302       2.049559
       4.330000       1.475434       1.079727       2.049678
       4.340000       1.474481       1.070221       2.049739
       4.350000       1.479553       1.062902       2.049673
       4.360000       1.490308       1.057723       2.049406
       4.370000       1.505735       1.054340       2.048876
       4.380000       1.524250       1.052077       2.048048
       4.390000       1.543973       1.050023       2.046916
       4.400000       1.563081       1.047229       2.045503
       4.410000       1.580159       1.042946       2.043855
       4.420000       1.594450       1.036822       2.042030
       4.430000       1.605943       1.028989       2.040094
       4.440000       1.615285       1.020041       2.038115
       4.450000       1.623542       1.010887       2.036158
       4.460000       1.631902       1.002565       2.034279
       4.470000       1.641423       0.996067       2.032522
       4.480000       1.652853       0.992208       2.030922
       4.490000       1.666524       0.991561       2.029501
       4.500000       1.682314       0.994438       2.028281
       4.510000       1.699690       1.000905       2.027276
       4.520000       1.717845       1.010794       2.026492
       4.530000       1.735871       1.023694       2.025920
       4.540000       1.752919       1.038922       2.025527
       4.550000       1.768249       1.055492       2.025250
       4.560000       1.781169       1.072145       2.025006
       4.570000       1.790898       1.087446       2.024705
       4.580000       1.796441       1.099952       2.024272
       4.590000       1.796568       1.108432       2.023665
       4.600000       1.789948       1.112063       2.022890
       4.610000       1.775415       1.110559       2.022004
       4.620000       1.752313       1.104185       2.021107
       4.630000       1.720795       1.093655       2.020323
       4.640000       1.681939       1.079964       2.019777
       4.650000       1.637614       1.064208       2.019575
       4.660000       1.590110       1.047429       2.019797
       4.670000       1.541672       1.030507       2.020487
       4.680000       1.494097       1.014096       2.021662
       4.690000       1.448547       0.998595       2.023311
       4.700000       1.405597       0.984138       2.025406
       4.710000       1.365466       0.970581       2.027901
       4.720000       1.328308       0.957509       2.030733
       4.730000       1.294427       0.944273       2.033828
       4.740000       1.264318       0.930058       2.037107
       4.750000       1.238558       0.914007       2.040495
       4.760000       1.217622       0.895350       2.043933
       4.770000       1.201765       0.873553       2.047380
       4.780000       1.191000       0.848456       2.050818
       4.790000       1.185136       0.820362       2.054242
       4.800000       1.183818       0.790046       2.057641
       4.810000       1.186532       0.758672       2.060992
       4.820000       1.192591       0.727630       2.064245
       4.830000       1.201152       0.698370       2.067331
       4.840000       1.211307       0.672272       2.070162
       4.850000       1.222261       0.650558       2.072647
       4.860000       1.233560       0.634227       2.074707
       4.870000       1.245274       0.623972       2.076285
       4.880000       1.258039       0.620123       2.077354
       4.890000       1.272914       0.622626       2.077930
       4.900000       1.291100       0.631091       2.078064
       4.910000       1.313610       0.644893       2.077842
       4.920000       1.340988       0.663255       2.077372
       4.930000       1.373105       0.685295       2.076777
       4.940000       1.409041       0.710036       2.076178
       4.950000       1.447085       0.736400       2.075684
       4.960000       1.484841       0.763232       2.075380
       4.970000       1.519466       0.789359       2.075314
       4.980000       1.548011       0.813686       2.075492
       4.990000       1.567805       0.835295       2.075889
       5.000000       1.576824       0.853534       2.076451
       5.010000       1.573961       0.868059       2.077118
       5.020000       1.559129       0.878833       2.077834
       5.030000       1.533208       0.886058       2.078565
       5.040000       1.497864       0.890085       2.079297
       5.050000       1.455347       0.891304       2.080042
       5.060000       1.408280       0.890071       2.080827
       5.070000       1.359439       0.886694       2.081689
       5.080000       1.311509       0.881470       2.082659
       5.090000       1.266853       0.874769       2.083762
       5.100000       1.227333       0.867116       2.085016
       5.110000       1.194213       0.859222       2.086428
       5.120000       1.168129       0.851948       2.088003
       5.130000       1.149127       0.846196       2.089744
       5.140000       1.136781       0.842759       2.091650
       5.150000       1.130385       0.842180       2.093716
       5.160000       1.129151       0.844658       2.095936
       5.170000       1.132364       0.850013       2.098293
       5.180000       1.139392       0.857703       2.100766
       5.190000       1.149610       0.866890       2.103321
       5.200000       1.162291       0.876529       2.105913
       5.210000       1.176574       0.885486       2.108491
       5.220000       1.191542       0.892670       2.111004
       5.230000       1.206364       0.897158       2.113405
       5.240000       1.220430       0.898292       2.115662
       5.250000       1.233440       0.895745       2.117766
       5.260000       1.245388       0.889547       2.119733
       5.270000       1.256434       0.880073       2.121601
       5.280000       1.266682       0.868008       2.123420
       5.290000       1.275939       0.854270       2.125243
       5.300000       1.283560       0.839916       2.127111
       5.310000       1.288468       0.826044       2.129058
       5.320000       1.289363       0.813705       2.131111
       5.330000       1.285056       0.803848       2.133307
       5.340000       1.274842       0.797264       2.135687
       5.350000       1.258832       0.794562       2.138303
       5.360000       1.238118       0.796140       2.141200
       5.370000       1.214704       0.802168       2.144404
       5.380000       1.191133       0.812583       2.147913
       5.390000       1.169913       0.827083       2.151693
       5.400000       1.152920       0.845142       2.155680
       5.410000       1.141041       0.866042       2.159799
       5.420000       1.134194       0.888958       2.163970
       5.430000       1.131684       0.913061       2.168125
       5.440000       1.132732       0.937634       2.172214
       5.450000       1.136944       0.962170       2.176200
       5.460000       1.144556       0.986411       2.180045
       5.470000       1.156382       1.010330       2.183702
       5.480000       1.173549       1.034055       2.187102
       5.490000       1.197130       1.057759       2.190163
       5.500000       1.227820       1.081539       2.192798
       5.510000       1.265718       1.105316       2.194940
       5.520000       1.310246       1.128766       2.196552
       5.530000       1.360183       1.151285       2.197644
       5.540000       1.413768       1.172008       2.198271
       5.550000       1.468843       1.189864       2.198522
       5.560000       1.522996       1.203681       2.198510
       5.570000       1.573709       1.212321       2.198351
       5.580000       1.618510       1.214820       2.198148
       5.590000       1.655138       1.210515       2.197989
       5.600000       1.681714       1.199129       2.197938
       5.610000       1.696882       1.180795       2.198043
       5.620000       1.699896       1.156024       2.198343
       5.630000       1.690623       1.125620       2.198867
       5.640000       1.669501       1.090593       2.199646
       5.650000       1.637501       1.052094       2.200708
       5.660000       1.596157       1.011395       2.202084
       5.670000       1.547636       0.969876       2.203798
       5.680000       1.494764       0.928972       2.205859
       5.690000       1.440897       0.890069       2.208248
       5.700000       1.389568       0.854358       2.210918
       5.710000       1.343991       0.822737       2.213794
       5.720000       1.306543       0.795765       2.216789
       5.730000       1.278389       0.773712       2.219811
       5.740000       1.259339       0.756657       2.222781
       5.750000       1.247945       0.744591       2.225634
       5.760000       1.241801       0.737459       2.228325
       5.770000       1.237996       0.735141       2.230829
       5.780000       1.233656       0.737386       2.233137
       5.790000       1.226490       0.743754       2.235254
       5.800000       1.215248       0.753608       2.237193
       5.810000       1.199981       0.766165       2.238975
       5.820000       1.181985       0.780570       2.240625
       5.830000       1.163437       0.795974       2.242173
       5.840000       1.146808       0.811587       2.243661
       5.850000       1.134278       0.826727       2.245134
       5.860000       1.127329       0.840874       2.246646
       5.870000       1.126596       0.853722       2.248249
       5.880000       1.131923       0.865187       2.249980
       5.890000       1.142532       0.875359       2.251853
       5.900000       1.157212       0.884378       2.253850
       5.910000       1.174509       0.892292       2.255923
       5.920000       1.192877       0.898962       2.258006
       5.930000       1.210795       0.904063       2.260044
       5.940000       1.226850       0.907188       2.262011
       5.950000       1.239808       0.908014       2.263927
       5.960000       1.248676       0.906466       2.265857
       5.970000       1.252739       0.902802       2.267893
       5.980000       1.251539       0.897601       2.270128
       5.990000       1.244785       0.891655       2.272633
       6.000000       1.232228       0.885825       2.275443
       6.010000       1.213567       0.880922       2.278552
       6.020000       1.188450       0.877662       2.281920
       6.030000       1.156582       0.876678       2.285476
       6.040000       1.117942       0.878555       2.289136
       6.050000       1.073003       0.883847       2.292805
       6.060000       1.022881       0.893033       2.296396
       6.070000       0.969331       0.906442       2.299833
       6.080000       0.914574       0.924167       2.303064
       6.090000       0.861036       0.946037       2.306061
       6.100000       0.811044       0.971628       2.308817
       6.110000       0.766596       1.000320       2.311347
       6.120000       0.729229       1.031357       2.313677
       6.130000       0.700028       1.063906       2.315842
       6.140000       0.679703       1.097093       2.317883
       6.150000       0.668647       1.130034       2.319842
       6.160000       0.666892       1.161867       2.321761
       6.170000       0.673995       1.191785       2.323686
       6.180000       0.688947       1.219066       2.325662
       6.190000       0.710223       1.243110       2.327731
       6.200000       0.736014       1.263454       2.329927
       6.210000       0.764545       1.279772       2.332277
       6.220000       0.794375       1.291842       2.334797
       6.230000       0.824564       1.299493       2.337489
       6.240000       0.854640       1.302530       2.340340
       6.250000       0.884432       1.300681       2.343318
       6.260000       0.913855       1.293590       2.346370
       6.270000       0.942753       1.280917       2.349437
       6.280000       0.970830       1.262526       2.352457
       6.290000       0.997648       1.238708       2.355376
       6.300000       1.022638       1.210335       2.358152
       6.310000       1.045109       1.178850       2.360760
       6.320000       1.064268       1.146062       2.363188
       6.330000       1.079247       1.113787       2.365439
       6.340000       1.089136       1.083493       2.367525
       6.350000       1.093007       1.056078       2.369464
       6.360000       1.089965       1.031862       2.371274
       6.370000       1.079239       1.010777       2.372979
       6.380000       1.060330       0.992657       2.374605
       6.390000       1.033191       0.977499       2.376192
       6.400000       0.998364       0.965594       2.377793
       6.410000       0.957006       0.957485       2.379483
       6.420000       0.910756       0.953802       2.381352
       6.430000       0.861493       0.955047       2.383508
       6.440000       0.811035       0.961432       2.386062
       6.450000       0.760872       0.972809       2.389107
       6.460000       0.712025       0.988692       2.392706
       6.470000       0.665059       1.008325       2.396867
       6.480000       0.620241       1.030773       2.401536
       6.490000       0.577770       1.054992       2.406598
       6.500000       0.537965       1.079884       2.411896
       6.510000       0.501325       1.104346       2.417247
       6.520000       0.468441       1.127314       2.422476
       6.530000       0.439820       1.147815       2.427442
       6.540000       0.415709       1.165020       2.432055
       6.550000       0.395983       1.178294       2.436289
       6.560000       0.380115       1.187233       2.440175
       6.570000       0.367221       1.191680       2.443788
       6.580000       0.356168       1.191748       2.447218
       6.590000       0.345691       1.187827       2.450547
       6.600000       0.334539       1.180580       2.453831
       6.610000       0.321649       1.170897       2.457094
       6.620000       0.306333       1.159823       2.460332
       6.630000       0.288423       1.148470       2.463526
       6.640000       0.268275       1.137944       2.466648
       6.650000       0.246588       1.129285       2.469671
       6.660000       0.224115       1.123401       2.472571
       6.670000       0.201405       1.121008       2.475326
       6.680000       0.178699       1.122577       2.477913
       6.690000       0.156014       1.128306       2.480319
       6.700000       0.133318       1.138135       2.482543
       6.710000       0.110710       1.151786       2.484615
       6.720000       0.088523       1.168835       2.486599
       6.730000       0.067364       1.188778       2.488592
       6.740000       0.048090       1.211104       2.490719
       6.750000       0.031759       1.235327       2.493112
       6.760000       0.019521       1.260998       2.495890
       6.770000       0.012468       1.287700       2.499137
       6.780000       0.011438       1.315018       2.502892
       6.790000       0.016840       1.342523       2.507144
       6.800000       0.028512       1.369729       2.511837
       6.810000       0.045686       1.396061       2.516885
       6.820000       0.067046       1.420824       2.522183
       6.830000       0.090909       1.443213       2.527613
       6.840000       0.115476       1.462365       2.533049
       6.850000       0.139100       1.477455       2.538359
       6.860000       0.160490       1.487840       2.543406
       6.870000       0.178788       1.493207       2.548066
       6.880000       0.193535       1.493704       2.552241
       6.890000       0.204563       1.489989       2.555883
       6.900000       0.211896       1.483164       2.559007
       6.910000       0.215702       1.474566       2.561688
       6.920000       0.216282       1.465466       2.564045
       6.930000       0.214051       1.456756       2.566217
       6.940000       0.209494       1.448734       2.568329
       6.950000       0.203124       1.441045       2.570468
       6.960000       0.195458       1.432797       2.572684
       6.970000       0.187016       1.422802       2.575006
       6.980000       0.178280       1.409882       2.577466
       6.990000       0.169617       1.393161       2.580119
       7.000000       0.161188       1.372287       2.583053
       7.010000       0.152938       1.347534       2.586372
       7.020000       0.144689       1.319757       2.590181
       7.030000       0.136317       1.290228       2.594569
       7.040000       0.127911       1.260419       2.599594
       7.050000       0.119856       1.231805       2.605280
       7.060000       0.112800       1.205763       2.611618
       7.070000       0.107516       1.183528       2.618567
       7.080000       0.104730       1.166170       2.626062
       7.090000       0.104972       1.154514       2.634018
       7.100000       0.108491       1.149032       2.642348
       7.110000       0.115252       1.149743       2.650970
       7.120000       0.125039       1.156192       2.659815
       7.130000       0.137613       1.167531       2.668828
       7.140000       0.152882       1.182687       2.677954
       7.150000       0.170979       1.200542       2.687134
       7.160000       0.192201       1.220092       2.696294
       7.170000       0.216815       1.240515       2.705358
       7.180000       0.244832       1.261146       2.714258
       7.190000       0.275842       1.281393       2.722965
       7.200000       0.308982       1.300637       2.731499
       7.210000       0.343027       1.318180       2.739944
       7.220000       0.376590       1.333296       2.748428
       7.230000       0.408346       1.345364       2.757101
       7.240000       0.437264       1.354045       2.766096
       7.250000       0.462784       1.359436       2.775504
       7.260000       0.484866       1.362126       2.785353
       7.270000       0.503917       1.363113       2.795612
       7.280000       0.520559       1.363611       2.806207
       7.290000       0.535347       1.364794       2.817035
       7.300000       0.548536       1.367573       2.827991
       7.310000       0.559998       1.372444       2.838977
       7.320000       0.569321       1.379445       2.849918
       7.330000       0.576058       1.388194       2.860761
       7.340000       0.580012       1.397994       2.871487
       7.350000       0.581430       1.407984       2.882107
       7.360000       0.581025       1.417323       2.892668
       7.370000       0.579806       1.425379       2.903255
       7.380000       0.578812       1.431887       2.913982
       7.390000       0.578865       1.437031       2.924983
       7.400000       0.580468       1.441415       2.936387
       7.410000       0.583852       1.445895       2.948301
       7.420000       0.589111       1.451349       2.960785
       7.430000       0.596304       1.458426       2.973844
       7.440000       0.605465       1.467380       2.987421
       7.450000       0.616518       1.478013       3.001405
       7.460000       0.629195       1.489739       3.015644
       7.470000       0.643006       1.501729       3.029960
       7.480000       0.657290       1.513092       3.044166
       7.490000       0.671311       1.523040       3.058086
       7.500000       0.684344       1.531022       3.071568
       7.510000       0.695720       1.536764       3.084495
       7.520000       0.704824       1.540248       3.096775
       7.530000       0.711084       1.541620       3.108332
       7.540000       0.713991       1.541089       3.119090
       7.550000       0.713159       1.538837       3.128960
       7.560000       0.708386       1.534971       3.137846
       7.570000       0.699668       1.529501       3.145670
       7.580000       0.687144       1.522347       3.152389
       7.590000       0.671008       1.513397       3.158025
       7.600000       0.651466       1.502591       3.162672
       7.610000       0.628786       1.490055       3.166491
       7.620000       0.603418       1.476206       3.169695
       7.630000       0.576137       1.461810       3.172511
       7.640000       0.548091       1.447939       3.175152
       7.650000       0.520694       1.435822       3.177769
       7.660000       0.495361       1.426606       3.180417
       7.670000       0.473195       1.421088       3.183028
       7.680000       0.454738       1.419486       3.185420
       7.690000       0.439911       1.421332       3.187340
       7.700000       0.428133       1.425513       3.188537
       7.710000       0.418545       1.430459       3.188834
       7.720000       0.410235       1.434418       3.188187
       7.730000       0.402380       1.435767       3.186706
       7.740000       0.394295       1.433294       3.184633
       7.750000       0.385425       1.426370       3.182288
       7.760000       0.375320       1.414965       3.179985
       7.770000       0.363611       1.399500       3.177965
       7.780000       0.349994       1.380591       3.176350
       7.790000       0.334224       1.358798       3.175131
       7.800000       0.316153       1.334481       3.174189
       7.810000       0.295814       1.307815       3.173310
       7.820000       0.273544       1.278923       3.172186
       7.830000       0.250068       1.248055       3.170408
       7.840000       0.226477       1.215739       3.167488
       7.850000       0.204052       1.182812       3.162898
       7.860000       0.183982       1.150319       3.156152
       7.870000       0.167057       1.119305       3.146892
       7.880000       0.153442       1.090537       3.134972
       7.890000       0.142606       1.064273       3.120523
       7.900000       0.133434       1.040157       3.103983
       7.910000       0.124509       1.017285       3.086073
       7.920000       0.114470       0.994443       3.067735
       7.930000       0.102355       0.970442       3.050012
       7.940000       0.087815       0.944464       3.033920
       7.950000       0.071139       0.916326       3.020319
       7.960000       0.053120       0.886558       3.009823
       7.970000       0.034820       0.856307       3.002745
       7.980000       0.017314       0.827069       2.999106
       7.990000       0.001470       0.800345       2.998682
       8.000000      -0.012198       0.777291       3.001110
       8.010000      -0.023571       0.758452       3.005992
       8.020000      -0.032854       0.743647       3.012998
       8.030000      -0.040413       0.732015       3.021917
       8.040000      -0.046591       0.722228       3.032663
       8.050000      -0.051564       0.712798       3.045241
       8.060000      -0.055299       0.702408       3.059695
       8.070000      -0.057571       0.690215       3.076042
       8.080000      -0.058030       0.676019       3.094212
       8.090000      -0.056301       0.660276       3.114003
       8.100000      -0.052105       0.643918       3.135070
       8.110000      -0.045384       0.628049       3.156959
       8.120000      -0.036381       0.613630       3.179165
       8.130000      -0.025627       0.601258       3.201196
       8.140000      -0.013842       0.591104       3.222597
       8.150000      -0.001772       0.582989       3.242943
       8.160000       0.009956       0.576528       3.261798
       8.170000       0.020929       0.571291       3.278678
       8.180000       0.030974       0.566924       3.293032
       8.190000       0.040112       0.563221       3.304260
       8.200000       0.048495       0.560141       3.311756
       8.210000       0.056327       0.557780       3.314982
       8.220000       0.063810       0.556277       3.313539
       8.230000       0.071105       0.555699       3.307219
       8.240000       0.078340       0.555934       3.296023
       8.250000       0.085641       0.556663       3.280144
       8.260000       0.093189       0.557433       3.259940
       8.270000       0.101254       0.557812       3.235899
       8.280000       0.110182       0.557544       3.208604
       8.290000       0.120331       0.556639       3.178696
       8.300000       0.131967       0.555336       3.146806
       8.310000       0.145164       0.553997       3.113503
       8.320000       0.159762       0.552981       3.079261
       8.330000       0.175411       0.552584       3.044486
       8.340000       0.191686       0.553060       3.009580
       8.350000       0.208244       0.554682       2.975034
       8.360000       0.224950       0.557775       2.941483
       8.370000       0.241918       0.562690       2.909706
       8.380000       0.259461       0.569725       2.880572
       8.390000       0.277950       0.579021       2.854964
       8.400000       0.297647       0.590486       2.833696
       8.410000       0.318573       0.603771       2.817442
       8.420000       0.340451       0.618290       2.806679
       8.430000       0.362744       0.633287       2.801671
       8.440000       0.384767       0.647938       2.802484
       8.450000       0.405817       0.661460       2.809042
       8.460000       0.425298       0.673212       2.821184
       8.470000       0.442806       0.682791       2.838701
       8.480000       0.458164       0.690080       2.861346
       8.490000       0.471417       0.695282       2.888818
       8.500000       0.482803       0.698906       2.920754
       8.510000       0.492706       0.701703       2.956719
       8.520000       0.501575       0.704556       2.996215
       8.530000       0.509833       0.708324       3.038693
       8.540000       0.517777       0.713691       3.083575
       8.550000       0.525522       0.721053       3.130307
       8.560000       0.533013       0.730480       3.178407
       8.570000       0.540111       0.741740       3.227520
       8.580000       0.546720       0.754379       3.277440
       8.590000       0.552890       0.767808       3.328086
       8.600000       0.558855       0.781401       3.379438
       8.610000       0.564981       0.794559       3.431452
       8.620000       0.571691       0.806755       3.483991
       8.630000       0.579382       0.817553       3.536800
       8.640000       0.588394       0.826628       3.589507
       8.650000       0.598997       0.833789       3.641643
       8.660000       0.611387       0.838995       3.692626
       8.670000       0.625667       0.842362       3.741726
       8.680000       0.641822       0.844135       3.787995
       8.690000       0.659734       0.844647       3.830192
       8.700000       0.679214       0.844283       3.866741
       8.710000       0.700081       0.843466       3.895719
       8.720000       0.722220       0.842650       3.914906
       8.730000       0.745607       0.842305       3.921885
       8.740000       0.770257       0.842858       3.914209
       8.750000       0.796138       0.844625       3.889629
       8.760000       0.823071       0.847757       3.846365
       8.770000       0.850685       0.852234       3.783403
       8.780000       0.878435       0.857919       3.700740
       8.790000       0.905680       0.864642       3.599511
       8.800000       0.931778       0.872284       3.481936
       8.810000       0.956168       0.880822       3.351098
       8.820000       0.978414       0.890326       3.210602
       8.830000       0.998210       0.900895       3.064212
       8.840000       1.015364       0.912582       2.915537
       8.850000       1.029775       0.925335       2.767798
       8.860000       1.041386       0.938988       2.623687
       8.870000       1.050127       0.953296       2.485300
       8.880000       1.055835       0.967988       2.354131
       8.890000       1.058184       0.982819       2.231129
       8.900000       1.056666       0.997590       2.116794
       8.910000       1.050634       1.012147       2.011288
       8.920000       1.039409       1.026362       1.914551
       8.930000       1.022438       1.040135       1.826408
       8.940000       0.999480       1.053423       1.746663
       8.950000       0.970765       1.066278       1.675181
       8.960000       0.937066       1.078884       1.611907
       8.970000       0.899640       1.091539       1.556839
       8.980000       0.860058       1.104610       1.509934
       8.990000       0.819968       1.118444       1.471014
       9.000000       0.780884       1.133311       1.439688
       9.010000       0.744025       1.149357       1.415305
       9.020000       0.710223       1.166610       1.396930
       9.030000       0.679914       1.184998       1.383348
       9.040000       0.653221       1.204380       1.373090
       9.050000       0.630119       1.224568       1.364522
       9.060000       0.610644       1.245334       1.355999
       9.070000       0.595030       1.266403       1.346087
       9.080000       0.583698       1.287446       1.333785
       9.090000       0.577075       1.308069       1.318668
       9.100000       0.575310       1.327821       1.300891
       9.110000       0.578014       1.346227       1.281050
       9.120000       0.584146       1.362833       1.259950
       9.130000       0.592087       1.377277       1.238397
       9.140000       0.599856       1.389362       1.217085
       9.150000       0.605411       1.399102       1.196598
       9.160000       0.606914       1.406725       1.177482
       9.170000       0.602937       1.412610       1.160295
       9.180000       0.592560       1.417181       1.145600
       9.190000       0.575421       1.420801       1.133907
       9.200000       0.551747       1.423697       1.125583
       9.210000       0.522366       1.425950       1.120783
       9.220000       0.488669       1.427513       1.119425
       9.230000       0.452464       1.428236       1.121208
       9.240000       0.415723       1.427896       1.125668
       9.250000       0.380295       1.426232       1.132239
       9.260000       0.347665       1.422999       1.140302
       9.270000       0.318832       1.418032       1.149199
       9.280000       0.294285       1.411288       1.158238
       9.290000       0.274025       1.402853       1.166738
       9.300000       0.257648       1.392929       1.174126
       9.310000       0.244489       1.381802       1.180073
       9.320000       0.233855       1.369807       1.184592
       9.330000       0.225280       1.357278       1.188043
       9.340000       0.218668       1.344504       1.191011
       9.350000       0.214249       1.331699       1.194133
       9.360000       0.212350       1.319038       1.197932
       9.370000       0.213102       1.306741       1.202730
       9.380000       0.216253       1.295152       1.208646
       9.390000       0.221163       1.284731       1.215631
       9.400000       0.226968       1.275920       1.223525
       9.410000       0.232807       1.268951       1.232114
       9.420000       0.238024       1.263691       1.241180
       9.430000       0.242283       1.259621       1.250546
       9.440000       0.245591       1.255957       1.260098
       9.450000       0.248234       1.251856       1.269756
       9.460000       0.250631       1.246607       1.279418
       9.470000       0.253144       1.239760       1.288914
       9.480000       0.255891       1.231150       1.298033
       9.490000       0.258669       1.220865       1.306608
       9.500000       0.260994       1.209204       1.314643
       9.510000       0.262245       1.196638       1.322383
       9.520000       0.261832       1.183787       1.330308
       9.530000       0.259278       1.171383       1.339042
       9.540000       0.254194       1.160205       1.349229
       9.550000       0.246165       1.150970       1.361417
       9.560000       0.234618       1.144210       1.375966
       9.570000       0.218772       1.140144       1.392978
       9.580000       0.197728       1.138626       1.412264
       9.590000       0.170696       1.139164       1.433358
       9.600000       0.137295       1.141021       1.455581
       9.610000       0.097813       1.143351       1.478156
       9.620000       0.053326       1.145360       1.500328
       9.630000       0.005627       1.146441       1.521468
       9.640000      -0.043027       1.146275       1.541120
       9.650000      -0.090284       1.144842       1.559000
       9.660000      -0.134079       1.142333       1.574959
       9.670000      -0.172935       1.138965       1.588946
       9.680000      -0.206111       1.134806       1.600975
       9.690000      -0.233604       1.129687       1.611101
       9.700000      -0.256022       1.123231       1.619416
       9.710000      -0.274393       1.114974       1.626034
       9.720000      -0.289958       1.104486       1.631104
       9.730000      -0.303952       1.091473       1.634829
       9.740000      -0.317423       1.075830       1.637501
       9.750000      -0.331093       1.057666       1.639492
       9.760000      -0.345306       1.037306       1.641203
       9.770000      -0.360067       1.015245       1.642948
       9.780000      -0.375136       0.992075       1.644851
       9.790000      -0.390123       0.968360       1.646813
       9.800000      -0.404535       0.944514       1.648562
       9.810000      -0.417783       0.920700       1.649745
       9.820000      -0.429154       0.896804       1.650015
       9.830000      -0.437815       0.872471       1.649054
       9.840000      -0.442856       0.847234       1.646543
       9.850000      -0.443402       0.820710       1.642100
       9.860000      -0.438752       0.792814       1.635246
       9.870000      -0.428513       0.763919       1.625434
       9.880000      -0.412685       0.734858       1.612131
       9.890000      -0.391673       0.706745       1.594951
       9.900000      -0.366234       0.680697       1.573795
       9.910000      -0.337370       0.657554       1.548956
       9.920000      -0.306205       0.637758       1.521156
       9.930000      -0.273857       0.621409       1.491488
       9.940000      -0.241335       0.608472       1.461255
       9.950000      -0.209471       0.598985       1.431752
       9.960000      -0.178900       0.593172       1.404045
       9.970000      -0.150074       0.591404       1.378826
       9.980000      -0.123313       0.594040       1.356398
       9.990000      -0.098870       0.601257       1.336765
      10.000000      -0.076990       0.612939       1.319772
      10.010000      -0.057962       0.628682       1.305221
      10.020000      -0.042122       0.647859       1.292907
      10.030000      -0.029807       0.669737       1.282612
      10.040000      -0.021266       0.693594       1.274070
      10.050000      -0.016567       0.718819       1.266972
      10.060000      -0.015519       0.744974       1.260977
      10.070000      -0.017650       0.771813       1.255729
      10.080000      -0.022249       0.799263       1.250867
      10.090000      -0.028456       0.827362       1.246017
      10.100000      -0.035376       0.856198       1.240783
      10.110000      -0.042203       0.885859       1.234740
      10.120000      -0.048319       0.916397       1.227444
      10.130000      -0.053375       0.947798       1.218463
      10.140000      -0.057345       0.979975       1.207432
      10.150000      -0.060541       1.012759       1.194130
      10.160000      -0.063598       1.045913       1.178562
      10.170000      -0.067406       1.079166       1.160991
      10.180000      -0.072979       1.112257       1.141920
      10.190000      -0.081266       1.144976       1.121984
      10.200000      -0.092947       1.177185       1.101792
      10.210000      -0.108273       1.208796       1.081763
      10.220000      -0.127010       1.239710       1.061999
      10.230000      -0.148500       1.269729       1.042258
      10.240000      -0.171808       1.298470       1.022043
      10.250000      -0.195888       1.325307       1.000768
      10.260000      -0.219735       1.349355       0.977951
      10.270000      -0.242490       1.369508       0.953389
      10.280000      -0.263498       1.384523       0.927284
      10.290000      -0.282335       1.393161       0.900299
      10.300000      -0.298806       1.394370       0.873542
      10.310000      -0.312910       1.387497       0.848448
      10.320000      -0.324786       1.372478       0.826586
      10.330000      -0.334627       1.349960       0.809417
      10.340000      -0.342615       1.321282       0.798071
      10.350000      -0.348884       1.288296       0.793195
      10.360000      -0.353543       1.253077       0.794902
      10.370000      -0.356727       1.217582       0.802811
      10.380000      -0.358639       1.183382       0.816145
      10.390000      -0.359541       1.151497       0.833834
      10.400000      -0.359710       1.122361       0.854613
      10.410000      -0.359381       1.095867       0.877076
      10.420000      -0.358717       1.071488       0.899722
      10.430000      -0.357824       1.048434       0.920989
      10.440000      -0.356800       1.025865       0.939313
      10.450000      -0.355782       1.003114       0.953206
      10.460000      -0.354953       0.979862       0.961376
      10.470000      -0.354511       0.956213       0.962844
      10.480000      -0.354590       0.932623       0.957070
      10.490000      -0.355182       0.909716       0.944044
      10.500000      -0.356086       0.888070       0.924327
      10.510000      -0.356915       0.868054       0.899039
      10.520000      -0.357157       0.849739       0.869778
      10.530000      -0.356267       0.832900       0.838502
      10.540000      -0.353766       0.817061       0.807352
      10.550000      -0.349292       0.801582       0.778434
      10.560000      -0.342606       0.785754       0.753573
      10.570000      -0.333575       0.768873       0.734115
      10.580000      -0.322147       0.750283       0.720818
      10.590000      -0.308347       0.729370       0.713877
      10.600000      -0.292287       0.705535       0.713045
      10.610000      -0.274180       0.678201       0.717804
      10.620000      -0.254334       0.646886       0.727521
      10.630000      -0.233131       0.611376       0.741538
      10.640000      -0.210994       0.571941       0.759194
      10.650000      -0.188341       0.529503       0.779768
      10.660000      -0.165551       0.485599       0.802409
      10.670000      -0.142929       0.442127       0.826068
      10.680000      -0.120692       0.400939       0.849500
      10.690000      -0.098969       0.363486       0.871328
      10.700000      -0.077813       0.330661       0.890163
      10.710000      -0.057226       0.302860       0.904741
      10.720000      -0.037187       0.280162       0.914011
      10.730000      -0.017687       0.262509       0.917137
      10.740000       0.001246       0.249799       0.913409
      10.750000       0.019520       0.241903       0.902134
      10.760000       0.036967       0.238649       0.882591
      10.770000       0.053343       0.239802       0.854100
      10.780000       0.068323       0.245044       0.816196
      10.790000       0.081509       0.253942       0.768836
      10.800000       0.092423       0.265914       0.712539
      10.810000       0.100512       0.280215       0.648395
      10.820000       0.105156       0.295957       0.577953
      10.830000       0.105708       0.312169       0.503024
      10.840000       0.101560       0.327901       0.425458
      10.850000       0.092236       0.342327       0.346962
      10.860000       0.077502       0.354828       0.268967
      10.870000       0.057455       0.365021       0.192589
      10.880000       0.032558       0.372733       0.118655
      10.890000       0.003598       0.377962       0.047782
      10.900000      -0.028412       0.380842      -0.019510
      10.910000      -0.062352       0.381640      -0.082684
      10.920000      -0.097089       0.380777      -0.141098
      10.930000      -0.131530       0.378818      -0.193985
      10.940000      -0.164636       0.376438      -0.240529
      10.950000      -0.195423       0.374312      -0.280047
      10.960000      -0.222989       0.372973      -0.312181
      10.970000      -0.246566       0.372684      -0.337037
      10.980000      -0.265578       0.373393      -0.355183
      10.990000      -0.279685       0.374824      -0.367518
      11.000000      -0.288790       0.376668      -0.375076
      11.010000      -0.293008       0.378821      -0.378832
      11.020000      -0.292629       0.381552      -0.379586
      11.030000      -0.288078       0.385512      -0.377940
      11.040000      -0.279889       0.391588      -0.374363
      11.050000      -0.268670       0.400641      -0.369283
      11.060000      -0.255067       0.413257      -0.363175
      11.070000      -0.239723       0.429586      -0.356608
      11.080000      -0.223233       0.449315      -0.350240
      11.090000      -0.206112       0.471753      -0.344780
      11.100000      -0.188786       0.495956      -0.340921
      11.110000      -0.171588       0.520870      -0.339257
      11.120000      -0.154777       0.545447      -0.340189
      11.130000      -0.138551       0.568728      -0.343848
      11.140000      -0.123055       0.589898      -0.350061
      11.150000      -0.108380       0.608312      -0.358371
      11.160000      -0.094552       0.623489      -0.368119
      11.170000      -0.081511       0.635106      -0.378543
      11.180000      -0.069103       0.642975      -0.388897
      11.190000      -0.057094       0.647044      -0.398545
      11.200000      -0.045211       0.647417      -0.407046
      11.210000      -0.033201       0.644392      -0.414189
      11.220000      -0.020885       0.638480      -0.419998
      11.230000      -0.008185       0.630383      -0.424707
      11.240000       0.004885       0.620879      -0.428720
      11.250000       0.018247       0.610664      -0.432558
      11.260000       0.031803       0.600182      -0.436794
      11.270000       0.045473       0.589539      -0.441982
      11.280000       0.059211       0.578538      -0.448574
      11.290000       0.073011       0.566823      -0.456870
      11.300000       0.086890       0.554084      -0.466998
      11.310000       0.100877       0.540248      -0.478926
      11.320000       0.114998       0.525576      -0.492496
      11.330000       0.129264       0.510672      -0.507457
      11.340000       0.143663       0.496399      -0.523496
      11.350000       0.158145       0.483743      -0.540268
      11.360000       0.172614       0.473651      -0.557428
      11.370000       0.186919       0.466874      -0.574662
      11.380000       0.200858       0.463852      -0.591707
      11.390000       0.214181       0.464685      -0.608357
      11.400000       0.226602       0.469164      -0.624466
      11.410000       0.237817       0.476867      -0.639946
      11.420000       0.247529       0.487252      -0.654762
      11.430000       0.255468       0.499730      -0.668903
      11.440000       0.261406       0.513700      -0.682359
      11.450000       0.265172       0.528583      -0.695072
      11.460000       0.266674       0.543868      -0.706918
      11.470000       0.265920       0.559172      -0.717702
      11.480000       0.263044       0.574294      -0.727191
      11.490000       0.258305       0.589222      -0.735174
      11.500000       0.252057       0.604090      -0.741529
      11.510000       0.244681       0.619083      -0.746275
      11.520000       0.236504       0.634333      -0.749583
      11.530000       0.227717       0.649846      -0.751736
      11.540000       0.218348       0.665486      -0.753064
      11.550000       0.208279       0.681021      -0.753881
      11.560000       0.197302       0.696188      -0.754430
      11.570000       0.185195       0.710781      -0.754866
      11.580000       0.171792       0.724697      -0.755250
      11.590000       0.157057       0.737949      -0.755571
      11.600000       0.141148       0.750613      -0.755763
      11.610000       0.124479       0.762766      -0.755734
      11.620000       0.107741       0.774412      -0.755381
      11.630000       0.091847       0.785451      -0.754594
      11.640000       0.077796       0.795698      -0.753246
      11.650000       0.066482       0.804939      -0.751186
      11.660000       0.058538       0.812999      -0.748238
      11.670000       0.054252       0.819794      -0.744205
      11.680000       0.053565       0.825344      -0.738882
      11.690000       0.056145       0.829762      -0.732080
      11.700000       0.061468       0.833216      -0.723662
      11.710000       0.068919       0.835894      -0.713587
      11.720000       0.077865       0.837949      -0.701938
      11.730000       0.087729       0.839458      -0.688925
      11.740000       0.098035       0.840393      -0.674862
      11.750000       0.108435       0.840614      -0.660101
      11.760000       0.118708       0.839883      -0.644980
      11.770000       0.128743       0.837894      -0.629768
      11.780000       0.138510       0.834305      -0.614644
      11.790000       0.148038       0.828785      -0.599705
      11.800000       0.157381       0.821082      -0.584990
      11.810000       0.166597       0.811096      -0.570511
      11.820000       0.175729       0.798940      -0.556291
      11.830000       0.184798       0.784946      -0.542386
      11.840000       0.193806       0.769606      -0.528901
      11.850000       0.202763       0.753468      -0.515996
      11.860000       0.211699       0.737003      -0.503865
      11.870000       0.220679       0.720507      -0.492697
      11.880000       0.229781       0.704048      -0.482636
      11.890000       0.239075       0.687499      -0.473735
      11.900000       0.248588       0.670638      -0.465935
      11.910000       0.258286       0.653297      -0.459064
      11.920000       0.268082       0.635491      -0.452861
      11.930000       0.277868       0.617481      -0.447010
      11.940000       0.287551       0.599749      -0.441192
      11.950000       0.297098       0.582896      -0.435126
      11.960000       0.306554       0.567511      -0.428602
      11.970000       0.316039       0.554061      -0.421497
      11.980000       0.325707       0.542821      -0.413765
      11.990000       0.335703       0.533849      -0.405425
      12.000000       0.346108       0.526995      -0.396545
      12.010000       0.356919       0.521947      -0.387237
      12.020000       0.368049       0.518285      -0.377645
      12.030000       0.379348       0.515555      -0.367933
      12.040000       0.390626       0.513338      -0.358257
      12.050000       0.401683       0.511324      -0.348754
      12.060000       0.412314       0.509364      -0.339524
      12.070000       0.422326       0.507483      -0.330641
      12.080000       0.431546       0.505859      -0.322164
      12.090000       0.439831       0.504762      -0.314148
      12.100000       0.447085       0.504472      -0.306631
      12.110000       0.453273       0.505203      -0.299622
      12.120000       0.458427       0.507043      -0.293070
      12.130000       0.462635       0.509929      -0.286856
      12.140000       0.466019       0.513647      -0.280802
      12.150000       0.468692       0.517860      -0.274692
      12.160000       0.470725       0.522141      -0.268307
      12.170000       0.472126       0.526038      -0.261454
      12.180000       0.472848       0.529122      -0.253995
      12.190000       0.472818       0.531049      -0.245861
      12.200000       0.471979       0.531607      -0.237058
      12.210000       0.470334       0.530743      -0.227661
      12.220000       0.467968       0.528576      -0.217801
      12.230000       0.465040       0.525376      -0.207649
      12.240000       0.461748       0.521504      -0.197396
      12.250000       0.458260       0.517330      -0.187235
      12.260000       0.454663       0.513149      -0.177339
      12.270000       0.450943       0.509123      -0.167841
      12.280000       0.446999       0.505276      -0.158820
      12.290000       0.442696       0.501527      -0.150294
      12.300000       0.437918       0.497747      -0.142227
      12.310000       0.432601       0.493802      -0.134537
      12.320000       0.426748       0.489588      -0.127110
      12.330000       0.420422       0.485053      -0.119823
      12.340000       0.413714       0.480216      -0.112572
      12.350000       0.406722       0.475186      -0.105284
      12.360000       0.399524       0.470139      -0.097944
      12.370000       0.392170       0.465259      -0.090599
      12.380000       0.384700       0.460644      -0.083370
      12.390000       0.377172       0.456206      -0.076445
      12.400000       0.369700       0.451621      -0.070066
      12.410000       0.362465       0.446357      -0.064503
      12.420000       0.355700       0.439762      -0.060023
      12.430000       0.349633       0.431240      -0.056848
      12.440000       0.344425       0.420434      -0.055117
      12.450000       0.340120       0.407374      -0.054851
      12.460000       0.336624       0.392532      -0.055948
      12.470000       0.333737       0.376737      -0.058183
      12.480000       0.331204       0.361007      -0.061251
      12.490000       0.328784       0.346350      -0.064797
      12.500000       0.326302       0.333612      -0.068468
      12.510000       0.323670       0.323399      -0.071939
      12.520000       0.320872       0.316051      -0.074937
      12.530000       0.317918       0.311650      -0.077252
      12.540000       0.314790       0.310041      -0.078736
      12.550000       0.311422       0.310882      -0.079297
      12.560000       0.307702       0.313710      -0.078872
      12.570000       0.303514       0.318044      -0.077419
      12.580000       0.298777       0.323479      -0.074901
      12.590000       0.293498       0.329755      -0.071293
      12.600000       0.287775       0.336786      -0.066604
      12.610000       0.281784       0.344625      -0.060895
      12.620000       0.275745       0.353391      -0.054295
      12.630000       0.269874       0.363170      -0.046993
      12.640000       0.264365       0.373913      -0.039216
      12.650000       0.259369       0.385363      -0.031196
      12.660000       0.254988       0.397018      -0.023140
      12.670000       0.251268       0.408151      -0.015210
      12.680000       0.248198       0.417868      -0.007511
      12.690000       0.245726       0.425208      -0.000101
      12.700000       0.243779       0.429235       0.007011
      12.710000       0.242288       0.429147       0.013855
      12.720000       0.241197       0.424373       0.020491
      12.730000       0.240461       0.414678       0.026997
      12.740000       0.240036       0.400228       0.033444
      12.750000       0.239865       0.381609       0.039874
      12.760000       0.239876       0.359732       0.046273
      12.770000       0.239991       0.335682       0.052564
      12.780000       0.240145       0.310530       0.058622
      12.790000       0.240311       0.285200       0.064296
      12.800000       0.240508       0.260412       0.069448
      12.810000       0.240809       0.236700       0.073979
      12.820000       0.241334       0.214461       0.077853
      12.830000       0.242247       0.194014       0.081103
      12.840000       0.243746       0.175632       0.083837
      12.850000       0.246047       0.159553       0.086231
      12.860000       0.249346       0.145968       0.088512
      12.870000       0.253776       0.134998       0.090932
      12.880000       0.259371       0.126655       0.093733
      12.890000       0.266047       0.120806       0.097108
      12.900000       0.273624       0.117129       0.101181
      12.910000       0.281861       0.115103       0.105994
      12.920000       0.290491       0.114029       0.111519
      12.930000       0.299248       0.113082       0.117668
      12.940000       0.307872       0.111421       0.124317
      12.950000       0.316092       0.108292       0.131321
      12.960000       0.323624       0.103154       0.138535
      12.970000       0.330160       0.095765       0.145836
      12.980000       0.335383       0.086236       0.153130
      12.990000       0.338983       0.075003       0.160370
      13.000000       0.340669       0.062722       0.167546
      13.010000       0.340193       0.050104       0.174684
      13.020000       0.337367       0.037738       0.181826
      13.030000       0.332099       0.025975       0.189017
      13.040000       0.324420       0.014902       0.196281
      13.050000       0.314521       0.004413       0.203609
      13.060000       0.302755      -0.005660       0.210964
      13.070000       0.289625      -0.015405       0.218285
      13.080000       0.275736      -0.024709       0.225509
      13.090000       0.261736      -0.033224       0.232586
      13.100000       0.248247      -0.040428       0.239493
      13.110000       0.235811      -0.045757       0.246234
      13.120000       0.224856      -0.048763       0.252834
      13.130000       0.215694      -0.049230       0.259327
      13.140000       0.208525      -0.047211       0.265752
      13.150000       0.203451      -0.042999       0.272144
      13.160000       0.200481      -0.037056       0.278527
      13.170000       0.199521      -0.029935       0.284919
      13.180000       0.200373      -0.022198       0.291326
      13.190000       0.202762      -0.014347       0.297746
      13.200000       0.206370      -0.006778       0.304161
      13.210000       0.210891       0.000237       0.310538
      13.220000       0.216072       0.006530       0.316830
      13.230000       0.221726       0.011989       0.322982
      13.240000       0.227720       0.016507       0.328942
      13.250000       0.233936       0.019950       0.334674
      13.260000       0.240238       0.022175       0.340164
      13.270000       0.246440       0.023093       0.345422
      13.280000       0.252306       0.022759       0.350475
      13.290000       0.257585       0.021440       0.355361
      13.300000       0.262059       0.019641       0.360121
      13.310000       0.265597       0.018034       0.364796
      13.320000       0.268195       0.017339       0.369428
      13.330000       0.269983       0.018170       0.374049
      13.340000       0.271186       0.020908       0.378686
      13.350000       0.272063       0.025648       0.383349
      13.360000       0.272828       0.032216       0.388033
      13.370000       0.273587       0.040244       0.392707
      13.380000       0.274300       0.049261       0.397325
      13.390000       0.274800       0.058770       0.401817
      13.400000       0.274848       0.068294       0.406103
      13.410000       0.274219       0.077405       0.410098
      13.420000       0.272784       0.085741       0.413718
      13.430000       0.270569       0.093013       0.416884
      13.440000       0.267751       0.099013       0.419530
      13.450000       0.264616       0.103591       0.421601
      13.460000       0.261476       0.106618       0.423054
      13.470000       0.258598       0.107965       0.423855
      13.480000       0.256168       0.107513       0.423994
      13.490000       0.254284       0.105214       0.423499
      13.500000       0.252981       0.101165       0.422457
      13.510000       0.252253       0.095668       0.421016
      13.520000       0.252065       0.089217       0.419384
      13.530000       0.252354       0.082418       0.417798
      13.540000       0.253033       0.075859       0.416503
      13.550000       0.254003       0.069979       0.415726
      13.560000       0.255163       0.064997       0.415660
      13.570000       0.256430       0.060904       0.416467
      13.580000       0.257740       0.057522       0.418258
      13.590000       0.259048       0.054592       0.421091
      13.600000       0.260324       0.051851       0.424956
      13.610000       0.261559       0.049092       0.429766
      13.620000       0.262770       0.046205       0.435366
      13.630000       0.264020       0.043187       0.441541
      13.640000       0.265414       0.040131       0.448039
      13.650000       0.267089       0.037201       0.454598
      13.660000       0.269194       0.034592       0.460974
      13.670000       0.271863       0.032495       0.466968
      13.680000       0.275190       0.031061       0.472459
      13.690000       0.279218       0.030387       0.477417
      13.700000       0.283933       0.030492       0.481908
      13.710000       0.289260       0.031318       0.486072
      13.720000       0.295077       0.032740       0.490093
      13.730000       0.301219       0.034591       0.494153
      13.740000       0.307498       0.036705       0.498404
      13.750000       0.313712       0.038964       0.502949
      13.760000       0.319671       0.041333       0.507839
      13.770000       0.325213       0.043870       0.513087
      13.780000       0.330215       0.046712       0.518671
      13.790000       0.334612       0.050026       0.524546
      13.800000       0.338394       0.053961       0.530649
      13.810000       0.341608       0.058595       0.536903
      13.820000       0.344333       0.063911       0.543233
      13.830000       0.346658       0.069787       0.549577
      13.840000       0.348650       0.076019       0.555894
      13.850000       0.350332       0.082343       0.562176
      13.860000       0.351674       0.088483       0.568443
      13.870000       0.352597       0.094192       0.574733
      13.880000       0.352999       0.099288       0.581099
      13.890000       0.352790       0.103673       0.587590
      13.900000       0.351935       0.107319       0.594248
      13.910000       0.350482       0.110230       0.601099
      13.920000       0.348576       0.112392       0.608148
      13.930000       0.346428       0.113749       0.615366
      13.940000       0.344266       0.114205       0.622686
      13.950000       0.342280       0.113662       0.630001
      13.960000       0.340573       0.112065       0.637173
      13.970000       0.339153       0.109449       0.644052
      13.980000       0.337946       0.105947       0.650499
      13.990000       0.336836       0.101777       0.656400
      14.000000       0.335707       0.097203       0.661681
      14.010000       0.334467       0.092504       0.666295
      14.020000       0.333062       0.087957       0.670216
      14.030000       0.331483       0.083845       0.673417
      14.040000       0.329768       0.080460       0.675861
      14.050000       0.328006       0.078095       0.677498
      14.060000       0.326342       0.077009       0.678278
      14.070000       0.324963       0.077382       0.678172
      14.080000       0.324070       0.079274       0.677186
      14.090000       0.323845       0.082622       0.675382
      14.100000       0.324411       0.087251       0.672865
      14.110000       0.325808       0.092922       0.669774
      14.120000       0.327981       0.099372       0.666249
      14.130000       0.330790       0.106354       0.662414
      14.140000       0.334039       0.113652       0.658360
      14.150000       0.337506       0.121095       0.654150
      14.160000       0.340988       0.128552       0.649841
      14.170000       0.344325       0.135941       0.645494
      14.180000       0.347421       0.143225       0.641186
      14.190000       0.350250       0.150413       0.637008
      14.200000       0.352850       0.157542       0.633050
      14.210000       0.355308       0.164652       0.629383
      14.220000       0.357730       0.171752       0.626038
      14.230000       0.360214       0.178803       0.622990
      14.240000       0.362821       0.185707       0.620155
      14.250000       0.365560       0.192323       0.617396
      14.260000       0.368391       0.198506       0.614537
      14.270000       0.371240       0.204144       0.611383
      14.280000       0.374023       0.209190       0.607751
      14.290000       0.376667       0.213678       0.603498
      14.300000       0.379123       0.217714       0.598546
      14.310000       0.381366       0.221453       0.592901
      14.320000       0.383394       0.225065       0.586649
      14.330000       0.385219       0.228708       0.579927
      14.340000       0.386865       0.232514       0.572898
      14.350000       0.388360       0.236576       0.565715
      14.360000       0.389741       0.240951       0.558506
      14.370000       0.391053       0.245651       0.551373
      14.380000       0.392346       0.250649       0.544403
      14.390000       0.393678       0.255876       0.537684
      14.400000       0.395099       0.261232       0.531315
      14.410000       0.396637       0.266579       0.525405
      14.420000       0.398287       0.271753       0.520067
      14.430000       0.400004       0.276568       0.515400
      14.440000       0.401716       0.280839       0.511473
      14.450000       0.403351       0.284419       0.508311
      14.460000       0.404873       0.287238       0.505900
      14.470000       0.406316       0.289342       0.504195
      14.480000       0.407796       0.290908       0.503143
      14.490000       0.409497       0.292212       0.502699
      14.500000       0.411627       0.293576       0.502832
      14.510000       0.414365       0.295287       0.503523
      14.520000       0.417807       0.297535       0.504752
      14.530000       0.421942       0.300387       0.506497
      14.540000       0.426653       0.303796       0.508728
      14.550000       0.431740       0.307640       0.511407
      14.560000       0.436948       0.311773       0.514486
      14.570000       0.442002       0.316054       0.517900
      14.580000       0.446627       0.320378       0.521567
      14.590000       0.450574       0.324661       0.525385
      14.600000       0.453637       0.328835       0.529245
      14.610000       0.455681       0.332824       0.533050
      14.620000       0.456658       0.336538       0.536738
      14.630000       0.456623       0.339882       0.540298
      14.640000       0.455722       0.342768       0.543775
      14.650000       0.454165       0.345134       0.547259
      14.660000       0.452196       0.346959       0.550862
      14.670000       0.450049       0.348260       0.554695
      14.680000       0.447930       0.349093       0.558848
      14.690000       0.445993       0.349539       0.563378
      14.700000       0.444338       0.349693       0.568300
      14.710000       0.443020       0.349666       0.573581
      14.720000       0.442055       0.349583       0.579147
      14.730000       0.441431       0.349595       0.584887
      14.740000       0.441114       0.349883       0.590681
      14.750000       0.441045       0.350639       0.596411
      14.760000       0.441153       0.352048       0.601987
      14.770000       0.441361       0.354252       0.607357
      14.780000       0.441606       0.357316       0.612514
      14.790000       0.441855       0.361216       0.617490
      14.800000       0.442110       0.365839       0.622351
      14.810000       0.442402       0.370992       0.627183
      14.820000       0.442771       0.376440       0.632073
      14.830000       0.443233       0.381931       0.637102
      14.840000       0.443759       0.387235       0.642334
      14.850000       0.444268       0.392164       0.647814
      14.860000       0.444638       0.396589       0.653562
      14.870000       0.444728       0.400432       0.659579
      14.880000       0.444405       0.403654       0.665844
      14.890000       0.443570       0.406235       0.672327
      14.900000       0.442170       0.408158       0.678984
      14.910000       0.440216       0.409406       0.685770
      14.920000       0.437791       0.409981       0.692629
      14.930000       0.435051       0.409928       0.699496
      14.940000       0.432210       0.409358       0.706296
      14.950000       0.429512       0.408445       0.712950
      14.960000       0.427185       0.407395       0.719375
      14.970000       0.425404       0.406409       0.725495
      14.980000       0.424259       0.405635       0.731227
      14.990000       0.423747       0.405167       0.736483
      15.000000       0.423802       0.405052       0.741153
      15.010000       0.424326       0.405317       0.745104
      15.020000       0.425228       0.405983       0.748191
      15.030000       0.426453       0.407061       0.750276
      15.040000       0.427979       0.408542       0.751249
      15.050000       0.429810       0.410384       0.751057
      15.060000       0.431949       0.412519       0.749718
      15.070000       0.434384       0.414869       0.747324
      15.080000       0.437082       0.417370       0.744033
      15.090000       0.439991       0.419993       0.740030
      15.100000       0.443049       0.422743       0.735492
      15.110000       0.446186       0.425645       0.730541
      15.120000       0.449328       0.428729       0.725217
      15.130000       0.452396       0.432007       0.719472
      15.140000       0.455317       0.435452       0.713205
      15.150000       0.458030       0.438999       0.706318
      15.160000       0.460499       0.442558       0.698781
      15.170000       0.462720       0.446051       0.690682
      15.180000       0.464728       0.449452       0.682256
      15.190000       0.466597       0.452827       0.673849
      15.200000       0.468425       0.456331       0.665856
      15.210000       0.470312       0.460174       0.658626
      15.220000       0.472329       0.464567       0.652376
      15.230000       0.474500       0.469650       0.647143
      15.240000       0.476782       0.475463       0.642777
      15.250000       0.479068       0.481930       0.638978
      15.260000       0.481200       0.488888       0.635352
      15.270000       0.482990       0.496109       0.631473
      15.280000       0.484245       0.503345       0.626950
      15.290000       0.484794       0.510353       0.621471
      15.300000       0.484506       0.516922       0.614846
      15.310000       0.483301       0.522898       0.607015
      15.320000       0.481153       0.528193       0.598046
      15.330000       0.478101       0.532801       0.588101
      15.340000       0.474241       0.536781       0.577386
      15.350000       0.469717       0.540242       0.566108
      15.360000       0.464704       0.543307       0.554440
      15.370000       0.459379       0.546083       0.542507
      15.380000       0.453905       0.548633       0.530398
      15.390000       0.448430       0.550961       0.518177
      15.400000       0.443092       0.553005       0.505896
      15.410000       0.438015       0.554645       0.493604
      15.420000       0.433308       0.555715       0.481352
      15.430000       0.429047       0.556039       0.469213
      15.440000       0.425266       0.555470       0.457299
      15.450000       0.421964       0.553932       0.445765
      15.460000       0.419122       0.551442       0.434799
      15.470000       0.416728       0.548098       0.424591
      15.480000       0.414795       0.544062       0.415292
      15.490000       0.413353       0.539521       0.406992
      15.500000       0.412433       0.534652       0.399713
      15.510000       0.412038       0.529605       0.393415
      15.520000       0.412121       0.524487       0.388016
      15.530000       0.412590       0.519366       0.383409
      15.540000       0.413324       0.514286       0.379478
      15.550000       0.414203       0.509277       0.376115
      15.560000       0.415130       0.504367       0.373224
      15.570000       0.416049       0.499586       0.370727
      15.580000       0.416941       0.494957       0.368560
      15.590000       0.417821       0.490491       0.366665
      15.600000       0.418724       0.486182       0.364986
      15.610000       0.419694       0.482004       0.363474
      15.620000       0.420767       0.477911       0.362085
      15.630000       0.421964       0.473845       0.360792
      15.640000       0.423284       0.469748       0.359583
      15.650000       0.424713       0.465565       0.358455
      15.660000       0.426223       0.461268       0.357409
      15.670000       0.427781       0.456864       0.356434
      15.680000       0.429352       0.452408       0.355496
      15.690000       0.430911       0.448002       0.354539
      15.700000       0.432441       0.443783       0.353489
      15.710000       0.433939       0.439897       0.352279
      15.720000       0.435412       0.436470       0.350874
      15.730000       0.436870       0.433592       0.349287
      15.740000       0.438318       0.431295       0.347585
      15.750000       0.439762       0.429552       0.345880
      15.760000       0.441201       0.428281       0.344294
      15.770000       0.442638       0.427348       0.342939
      15.780000       0.444081       0.426583       0.341883
      15.790000       0.445548       0.425789       0.341156
      15.800000       0.447067       0.424761       0.340755
      15.810000       0.448678       0.423306       0.340678
      15.820000       0.450426       0.421263       0.340949
      15.830000       0.452352       0.418527       0.341628
      15.840000       0.454479       0.415072       0.342803
      15.850000       0.456798       0.410958       0.344568
      15.860000       0.459261       0.406326       0.346993
      15.870000       0.461790       0.401370       0.350108
      15.880000       0.464299       0.396292       0.353900
      15.890000       0.466711       0.391262       0.358319
      15.900000       0.468975       0.386383       0.363290
      15.910000       0.471071       0.381690       0.368728
      15.920000       0.473004       0.377170       0.374538
      15.930000       0.474786       0.372788       0.380632
      15.940000       0.476431       0.368502       0.386923
      15.950000       0.477943       0.364277       0.393334
      15.960000       0.479327       0.360081       0.399805
      15.970000       0.480592       0.355878       0.406289
      15.980000       0.481768       0.351642       0.412754
      15.990000       0.482911       0.347373       0.419175
      16.000000       0.484100       0.343122       0.425529
      16.010000       0.485424       0.339013       0.431789
      16.020000       0.486960       0.335239       0.437927
      16.030000       0.488756       0.332030       0.443913
      16.040000       0.490827       0.329599       0.449717
      16.050000       0.493153       0.328093       0.455314
      16.060000       0.495699       0.327560       0.460682
      16.070000       0.498419       0.327941       0.465797
      16.080000       0.501269       0.329089       0.470642
      16.090000       0.504204       0.330805       0.475201
      16.100000       0.507174       0.332872       0.479468
      16.110000       0.510126       0.335088       0.483438
      16.120000       0.513001       0.337299       0.487114
      16.130000       0.515728       0.339405       0.490507
      16.140000       0.518226       0.341359       0.493631
      16.150000       0.520395       0.343158       0.496508
      16.160000       0.522125       0.344815       0.499163
      16.170000       0.523300       0.346347       0.501616
      16.180000       0.523814       0.347765       0.503880
      16.190000       0.523581       0.349067       0.505946
      16.200000       0.522547       0.350244       0.507793
      16.210000       0.520691       0.351267       0.509382
      16.220000       0.518029       0.352089       0.510671
      16.230000       0.514612       0.352635       0.511629
      16.240000       0.510525       0.352821       0.512245
      16.250000       0.505882       0.352565       0.512544
      16.260000       0.500821       0.351825       0.512589
      16.270000       0.495489       0.350609       0.512477
      16.280000       0.490035       0.348992       0.512322
      16.290000       0.484611       0.347108       0.512234
      16.300000       0.479374       0.345131       0.512301
      16.310000       0.474485       0.343255       0.512576
      16.320000       0.470104       0.341666       0.513082
      16.330000       0.466361       0.340512       0.513817
      16.340000       0.463338       0.339888       0.514771
      16.350000       0.461057       0.339824       0.515935
      16.360000       0.459477       0.340294       0.517309
      16.370000       0.458514       0.341223       0.518898
      16.380000       0.458060       0.342502       0.520707
      16.390000       0.458001       0.344005       0.522733
      16.400000       0.458240       0.345611       0.524962
      16.410000       0.458700       0.347231       0.527373
      16.420000       0.459334       0.348823       0.529936
      16.430000       0.460123       0.350395       0.532618
      16.440000       0.461070       0.351995       0.535385
      16.450000       0.462194       0.353672       0.538200
      16.460000       0.463522       0.355443       0.541028
      16.470000       0.465073       0.357279       0.543834
      16.480000       0.466858       0.359101       0.546592
      16.490000       0.468872       0.360810       0.549285
      16.500000       0.471099       0.362324       0.551912
      16.510000       0.473510       0.363611       0.554489
      16.520000       0.476068       0.364698       0.557047
      16.530000       0.478726       0.365660       0.559627
      16.540000       0.481427       0.366588       0.562273
      16.550000       0.484097       0.367552       0.565030
      16.560000       0.486649       0.368581       0.567932
      16.570000       0.488995       0.369666       0.571000
      16.580000       0.491062       0.370776       0.574237
      16.590000       0.492811       0.371885       0.577625
      16.600000       0.494251       0.372999       0.581127
      16.610000       0.495438       0.374162       0.584692
      16.620000       0.496460       0.375446       0.588268
      16.630000       0.497417       0.376934       0.591805
      16.640000       0.498391       0.378685       0.595268
      16.650000       0.499425       0.380717       0.598638
      16.660000       0.500523       0.382994       0.601904
      16.670000       0.501655       0.385442       0.605061
      16.680000       0.502770       0.387972       0.608099
      16.690000       0.503817       0.390509       0.610995
      16.700000       0.504750       0.393009       0.613717
      16.710000       0.505535       0.395454       0.616227
      16.720000       0.506155       0.397841       0.618486
      16.730000       0.506604       0.400167       0.620462
      16.740000       0.506896       0.402423       0.622136
      16.750000       0.507061       0.404592       0.623498
      16.760000       0.507141       0.406652       0.624556
      16.770000       0.507190       0.408580       0.625331
      16.780000       0.507262       0.410349       0.625858
      16.790000       0.507413       0.411935       0.626186
      16.800000       0.507691       0.413321       0.626376
      16.810000       0.508140       0.414506       0.626492
      16.820000       0.508794       0.415512       0.626597
      16.830000       0.509677       0.416374       0.626741
      16.840000       0.510801       0.417129       0.626959
      16.850000       0.512160       0.417794       0.627265
      16.860000       0.513730       0.418357       0.627654
      16.870000       0.515466       0.418778       0.628094
      16.880000       0.517303       0.419004       0.628535
      16.890000       0.519172       0.418997       0.628910
      16.900000       0.521000       0.418752       0.629144
      16.910000       0.522730       0.418313       0.629162
      16.920000       0.524325       0.417762       0.628905
      16.930000       0.525775       0.417207       0.628335
      16.940000       0.527092       0.416756       0.627444
      16.950000       0.528300       0.416496       0.626265
      16.960000       0.529425       0.416476       0.624863
      16.970000       0.530483       0.416700       0.623325
      16.980000       0.531477       0.417136       0.621743
      16.990000       0.532404       0.417730       0.620197
      17.000000       0.533262       0.418429       0.618745
      17.010000       0.534054       0.419187       0.617414
      17.020000       0.534799       0.419972       0.616217
      17.030000       0.535520       0.420756       0.615156
      17.040000       0.536244       0.421508       0.614238
      17.050000       0.536992       0.422186       0.613474
      17.060000       0.537771       0.422746       0.612877
      17.070000       0.538579       0.423157       0.612463
      17.080000       0.539403       0.423412       0.612241
      17.090000       0.540220       0.423526       0.612220
      17.100000       0.541001       0.423526       0.612401
      17.110000       0.541710       0.423426       0.612787
      17.120000       0.542299       0.423209       0.613384
      17.130000       0.542712       0.422818       0.614195
      17.140000       0.542883       0.422157       0.615228
      17.150000       0.542749       0.421111       0.616485
      17.160000       0.542255       0.419578       0.617963
      17.170000       0.541371       0.417500       0.619646
      17.180000       0.540101       0.414891       0.621507
      17.190000       0.538480       0.411855       0.623505
      17.200000       0.536577       0.408577       0.625583
      17.210000       0.534486       0.405290       0.627678
      17.220000       0.532309       0.402237       0.629721
      17.230000       0.530144       0.399622       0.631652
      17.240000       0.528067       0.397586       0.633423
      17.250000       0.526116       0.396185       0.635009
      17.260000       0.524298       0.395395       0.636411
      17.270000       0.522589       0.395124       0.637655
      17.280000       0.520965       0.395237       0.638787
      17.290000       0.519411       0.395581       0.639869
      17.300000       0.517943       0.396019       0.640967
      17.310000       0.516607       0.396452       0.642142
      17.320000       0.515473       0.396845       0.643441
      17.330000       0.514620       0.397226       0.644897
      17.340000       0.514110       0.397676       0.646526
      17.350000       0.513975       0.398298       0.648329
      17.360000       0.514202       0.399190       0.650294
      17.370000       0.514735       0.400422       0.652401
      17.380000       0.515480       0.402025       0.654622
      17.390000       0.516327       0.403988       0.656926
      17.400000       0.517159       0.406266       0.659283
      17.410000       0.517865       0.408783       0.661668
      17.420000       0.518350       0.411444       0.664059
      17.430000       0.518543       0.414144       0.666440
      17.440000       0.518409       0.416784       0.668800
      17.450000       0.517947       0.419283       0.671129
      17.460000       0.517196       0.421593       0.673418
      17.470000       0.516229       0.423696       0.675657
      17.480000       0.515139       0.425607       0.677837
      17.490000       0.514029       0.427357       0.679945
      17.500000       0.513001       0.428992       0.681969
      17.510000       0.512147       0.430557       0.683893
      17.520000       0.511536       0.432093       0.685703
      17.530000       0.511217       0.433632       0.687382
      17.540000       0.511208       0.435195       0.688916
      17.550000       0.511507       0.436786       0.690293
      17.560000       0.512086       0.438396       0.691511
      17.570000       0.512907       0.440002       0.692580
      17.580000       0.513916       0.441568       0.693519
      17.590000       0.515055       0.443054       0.694361
      17.600000       0.516268       0.444418       0.695148
      17.610000       0.517504       0.445629       0.695919
      17.620000       0.518724       0.446669       0.696714
      17.630000       0.519897       0.447538       0.697560
      17.640000       0.521005       0.448253       0.698474
      17.650000       0.522040       0.448843       0.699462
      17.660000       0.523004       0.449350       0.700520
      17.670000       0.523915       0.449817       0.701637
      17.680000       0.524793       0.450288       0.702803
      17.690000       0.525659       0.450803       0.704013
      17.700000       0.526527       0.451395       0.705270
      17.710000       0.527397       0.452094       0.706586
      17.720000       0.528256       0.452920       0.707984
      17.730000       0.529080       0.453884       0.709485
      17.740000       0.529841       0.454988       0.711108
      17.750000       0.530507       0.456219       0.712860
      17.760000       0.531049       0.457554       0.714735
      17.770000       0.531447       0.458963       0.716713
      17.780000       0.531696       0.460410       0.718771
      17.790000       0.531810       0.461868       0.720884
      17.800000       0.531827       0.463315       0.723032
      17.810000       0.531804       0.464742       0.725198
      17.820000       0.531809       0.466147       0.727375
      17.830000       0.531909       0.467531       0.729555
      17.840000       0.532159       0.468893       0.731732
      17.850000       0.532595       0.470230       0.733895
      17.860000       0.533232       0.471536       0.736031
      17.870000       0.534070       0.472806       0.738126
      17.880000       0.535101       0.474047       0.740172
      17.890000       0.536308       0.475272       0.742169
      17.900000       0.537671       0.476509       0.744127
      17.910000       0.539152       0.477785       0.746061
      17.920000       0.540696       0.479128       0.747992
      17.930000       0.542220       0.480554       0.749937
      17.940000       0.543622       0.482061       0.751909
      17.950000       0.544784       0.483634       0.753914
      17.960000       0.545591       0.485245       0.755956
      17.970000       0.545944       0.486866       0.758039
      17.980000       0.545778       0.488470       0.760166
      17.990000       0.545074       0.490045       0.762342
      18.000000       0.543859       0.491587       0.764570
      18.010000       0.542211       0.493103       0.766854
      18.020000       0.540246       0.494603       0.769192
      18.030000       0.538101       0.496097       0.771585
      18.040000       0.535912       0.497592       0.774028
      18.050000       0.533796       0.499100       0.776517
      18.060000       0.531833       0.500630       0.779047
      18.070000       0.530070       0.502200       0.781609
      18.080000       0.528523       0.503828       0.784192
      18.090000       0.527189       0.505534       0.786785
      18.100000       0.526065       0.507332       0.789373
      18.110000       0.525152       0.509227       0.791942
      18.120000       0.524466       0.511215       0.794480
      18.130000       0.524039       0.513283       0.796977
      18.140000       0.523908       0.515412       0.799420
      18.150000       0.524108       0.517580       0.801799
      18.160000       0.524661       0.519765       0.804100
      18.170000       0.525558       0.521948       0.806308
      18.180000       0.526769       0.524113       0.808402
      18.190000       0.528233       0.526244       0.810364
      18.200000       0.529874       0.528328       0.812177
      18.210000       0.531606       0.530346       0.813833
      18.220000       0.533344       0.532274       0.815335
      18.230000       0.535015       0.534084       0.816702
      18.240000       0.536565       0.535745       0.817965
      18.250000       0.537965       0.537231       0.819163
      18.260000       0.539214       0.538524       0.820335
      18.270000       0.540332       0.539625       0.821516
      18.280000       0.541357       0.540556       0.822731
      18.290000       0.542333       0.541358       0.823993
      18.300000       0.543304       0.542089       0.825306
      18.310000       0.544307       0.542807       0.826671
      18.320000       0.545364       0.543570       0.828088
      18.330000       0.546490       0.544424       0.829563
      18.340000       0.547693       0.545404       0.831103
      18.350000       0.548973       0.546534       0.832723
      18.360000       0.550332       0.547824       0.834436
      18.370000       0.551771       0.549273       0.836253
      18.380000       0.553290       0.550866       0.838181
      18.390000       0.554888       0.552576       0.840216
      18.400000       0.556559       0.554368       0.842343
      18.410000       0.558293       0.556209       0.844541
      18.420000       0.560075       0.558072       0.846780
      18.430000       0.561882       0.559939       0.849033
      18.440000       0.563690       0.561807       0.851285
      18.450000       0.565468       0.563684       0.853536
      18.460000       0.567186       0.565579       0.855806
      18.470000       0.568809       0.567501       0.858136
      18.480000       0.570306       0.569447       0.860574
      18.490000       0.571646       0.571398       0.863166
      18.500000       0.572804       0.573322       0.865946
      18.510000       0.573762       0.575174       0.868921
      18.520000       0.574510       0.576907       0.872081
      18.530000       0.575041       0.578478       0.875390
      18.540000       0.575354       0.579858       0.878800
      18.550000       0.575457       0.581034       0.882249
      18.560000       0.575363       0.582012       0.885669
      18.570000       0.575099       0.582814       0.888991
      18.580000       0.574700       0.583474       0.892148
      18.590000       0.574208       0.584028       0.895077
      18.600000       0.573664       0.584514       0.897729
      18.610000       0.573109       0.584958       0.900067
      18.620000       0.572580       0.585375       0.902075
      18.630000       0.572114       0.585763       0.903762
      18.640000       0.571746       0.586102       0.905163
      18.650000       0.571510       0.586358       0.906333
      18.660000       0.571436       0.586494       0.907348
      18.670000       0.571545       0.586479       0.908288
      18.680000       0.571848       0.586300       0.909228
      18.690000       0.572340       0.585969       0.910234
      18.700000       0.573003       0.585524       0.911345
      18.710000       0.573804       0.585020       0.912577
      18.720000       0.574700       0.584526       0.913916
      18.730000       0.575643       0.584097       0.915322
      18.740000       0.576585       0.583770       0.916726
      18.750000       0.577480       0.583552       0.918040
      18.760000       0.578292       0.583415       0.919158
      18.770000       0.578991       0.583314       0.919973
      18.780000       0.579558       0.583195       0.920385
      18.790000       0.579987       0.583009       0.920315
      18.800000       0.580279       0.582722       0.919722
      18.810000       0.580448       0.582316       0.918603
      18.820000       0.580510       0.581790       0.917003
      18.830000       0.580481       0.581161       0.915005
      18.840000       0.580377       0.580469       0.912721
      18.850000       0.580215       0.579777       0.910283
      18.860000       0.580010       0.579168       0.907823
      18.870000       0.579783       0.578727       0.905466
      18.880000       0.579559       0.578523       0.903323
      18.890000       0.579366       0.578593       0.901487
      18.900000       0.579236       0.578933       0.900021
      18.910000       0.579199       0.579500       0.898955
      18.920000       0.579279       0.580222       0.898279
      18.930000       0.579488       0.581009       0.897939
      18.940000       0.579828       0.581773       0.897850
      18.950000       0.580294       0.582434       0.897913
      18.960000       0.580882       0.582932       0.898026
      18.970000       0.581586       0.583227       0.898099
      18.980000       0.582402       0.583303       0.898054
      18.990000       0.583324       0.583162       0.897825
      19.000000       0.584339       0.582828       0.897353
      19.010000       0.585428       0.582336       0.896584
      19.020000       0.586565       0.581731       0.895468
      19.030000       0.587719       0.581056       0.893961
      19.040000       0.588864       0.580349       0.892022
      19.050000       0.589981       0.579641       0.889616
      19.060000       0.591065       0.578961       0.886716
      19.070000       0.592122       0.578341       0.883317
      19.080000       0.593168       0.577811       0.879446
      19.090000       0.594225       0.577396       0.875172
      19.100000       0.595311       0.577107       0.870618
      19.110000       0.596437       0.576932       0.865955
      19.120000       0.597604       0.576841       0.861390
      19.130000       0.598802       0.576786       0.857141
      19.140000       0.600014       0.576717       0.853406
      19.150000       0.601220       0.576586       0.850336
      19.160000       0.602400       0.576360       0.848016
      19.170000       0.603537       0.576023       0.846463
      19.180000       0.604620       0.575575       0.845639
      19.190000       0.605638       0.575026       0.845468
      19.200000       0.606579       0.574386       0.845858
      19.210000       0.607431       0.573655       0.846720
      19.220000       0.608185       0.572826       0.847980
      19.230000       0.608833       0.571886       0.849587
      19.240000       0.609376       0.570819       0.851512
      19.250000       0.609821       0.569617       0.853745
      19.260000       0.610184       0.568278       0.856278
      19.270000       0.610486       0.566811       0.859092
      19.280000       0.610754       0.565232       0.862145
      19.290000       0.611020       0.563565       0.865361
      19.300000       0.611316       0.561839       0.868642
      19.310000       0.611673       0.560091       0.871876
      19.320000       0.612120       0.558367       0.874954
      19.330000       0.612678       0.556729       0.877781
      19.340000       0.613359       0.555245       0.880290
      19.350000       0.614165       0.553986       0.882435
      19.360000       0.615085       0.553000       0.884188
      19.370000       0.616098       0.552311       0.885525
      19.380000       0.617177       0.551906       0.886425
      19.390000       0.618290       0.551745       0.886863
      19.400000       0.619405       0.551772       0.886813
      19.410000       0.620498       0.551928       0.886254
      19.420000       0.621550       0.552161       0.885176
      19.430000       0.622554       0.552431       0.883585
      19.440000       0.623510       0.552722       0.881506
      19.450000       0.624427       0.553032       0.878983
      19.460000       0.625314       0.553370       0.876077
      19.470000       0.626178       0.553744       0.872868
      19.480000       0.627020       0.554151       0.869447
      19.490000       0.627829       0.554573       0.865924
      19.500000       0.628585       0.554974       0.862422
      19.510000       0.629263       0.555311       0.859080
      19.520000       0.629836       0.555542       0.856035
      19.530000       0.630288       0.555642       0.853402
      19.540000       0.630612       0.555610       0.851257
      19.550000       0.630818       0.555472       0.849625
      19.560000       0.630923       0.555278       0.848475
      19.570000       0.630955       0.555096       0.847729
      19.580000       0.630941       0.554990       0.847283
      19.590000       0.630907       0.555023       0.847024
      19.600000       0.630881       0.555236       0.846848
      19.610000       0.630883       0.555658       0.846677
      19.620000       0.630935       0.556300       0.846463
      19.630000       0.631055       0.557165       0.846179
      19.640000       0.631258       0.558250       0.845822
      19.650000       0.631554       0.559545       0.845402
      19.660000       0.631950       0.561037       0.844943
      19.670000       0.632447       0.562703       0.844486
      19.680000       0.633039       0.564512       0.844082
      19.690000       0.633712       0.566428       0.843789
      19.700000       0.634449       0.568408       0.843665
      19.710000       0.635225       0.570409       0.843763
      19.720000       0.636015       0.572393       0.844119
      19.730000       0.636793       0.574329       0.844755
      19.740000       0.637539       0.576197       0.845670
      19.750000       0.638234       0.577986       0.846843
      19.760000       0.638868       0.579694       0.848235
      19.770000       0.639433       0.581324       0.849797
      19.780000       0.639928       0.582877       0.851478
      19.790000       0.640355       0.584355       0.853230
      19.800000       0.640718       0.585759       0.855022
      19.810000       0.641022       0.587089       0.856835
      19.820000       0.641276       0.588348       0.858674
      19.830000       0.641491       0.589544       0.860563
      19.840000       0.641680       0.590694       0.862542
      19.850000       0.641864       0.591822       0.864659
      19.860000       0.642065       0.592956       0.866960
      19.870000       0.642304       0.594123       0.869468
      19.880000       0.642603       0.595343       0.872176
      19.890000       0.642979       0.596628       0.875039
      19.900000       0.643443       0.597981       0.877983
      19.910000       0.644004       0.599395       0.880922
      19.920000       0.644667       0.600859       0.883774
      19.930000       0.645436       0.602359       0.886483
      19.940000       0.646314       0.603881       0.889027
      19.950000       0.647302       0.605411       0.891412
      19.960000       0.648397       0.606938       0.893664
      19.970000       0.649591       0.608452       0.895815
      19.980000       0.650871       0.609949       0.897893
      19.990000       0.652223       0.611429       0.899924
      20.000000       0.653630       0.612896       0.901931
