  # energy grid [eV]     epsi_x  epsi_y  epsi_z
       0.000000            NaN            NaN            NaN
       0.010000       0.010719       0.011893       0.002420
       0.020000       0.021520       0.023924       0.004862
       0.030000       0.032480       0.036219       0.007351
       0.040000       0.043655       0.048891       0.009911
       0.050000       0.055077       0.062020       0.012567
       0.060000       0.066727       0.075639       0.015346
       0.070000       0.078520       0.089710       0.018279
       0.080000       0.090281       0.104097       0.021398
       0.090000       0.101728       0.118547       0.024739
       0.100000       0.112478       0.132680       0.028342
       0.110000       0.122075       0.146002       0.032248
       0.120000       0.130065       0.157956       0.036505
       0.130000       0.136085       0.168003       0.041161
       0.140000       0.139962       0.175720       0.046266
       0.150000       0.141762       0.180876       0.051868
       0.160000       0.141774       0.183482       0.058006
       0.170000       0.140444       0.183788       0.064704
       0.180000       0.138267       0.182246       0.071958
       0.190000       0.135710       0.179443       0.079725
       0.200000       0.133153       0.176017       0.087906
       0.210000       0.130870       0.172582       0.096332
       0.220000       0.129038       0.169663       0.104766
       0.230000       0.127758       0.167663       0.112915
       0.240000       0.127070       0.166851       0.120463
       0.250000       0.126979       0.167360       0.127124
       0.260000       0.127466       0.169192       0.132693
       0.270000       0.128501       0.172217       0.137075
       0.280000       0.130049       0.176162       0.140279
       0.290000       0.132075       0.180611       0.142387
       0.300000       0.134545       0.185008       0.143507
       0.310000       0.137431       0.188702       0.143746
       0.320000       0.140708       0.191030       0.143200
       0.330000       0.144355       0.191435       0.141969
       0.340000       0.148355       0.189588       0.140160
       0.350000       0.152698       0.185463       0.137902
       0.360000       0.157373       0.179331       0.135330
       0.370000       0.162377       0.171681       0.132577
       0.380000       0.167708       0.163092       0.129746
       0.390000       0.173367       0.154124       0.126893
       0.400000       0.179358       0.145240       0.124026
       0.410000       0.185688       0.136777       0.121111
       0.420000       0.192366       0.128949       0.118107
       0.430000       0.199404       0.121869       0.115001
       0.440000       0.206817       0.115578       0.111839
       0.450000       0.214622       0.110066       0.108723
       0.460000       0.222839       0.105294       0.105798
       0.470000       0.231489       0.101210       0.103217
       0.480000       0.240598       0.097752       0.101109
       0.490000       0.250195       0.094860       0.099558
       0.500000       0.260311       0.092477       0.098593
       0.510000       0.270981       0.090551       0.098190
       0.520000       0.282246       0.089034       0.098274
       0.530000       0.294147       0.087887       0.098737
       0.540000       0.306735       0.087072       0.099447
       0.550000       0.320063       0.086559       0.100263
       0.560000       0.334190       0.086322       0.101053
       0.570000       0.349184       0.086339       0.101704
       0.580000       0.365118       0.086591       0.102133
       0.590000       0.382075       0.087062       0.102294
       0.600000       0.400147       0.087741       0.102179
       0.610000       0.419438       0.088618       0.101823
       0.620000       0.440062       0.089683       0.101290
       0.630000       0.462147       0.090933       0.100658
       0.640000       0.485838       0.092364       0.099998
       0.650000       0.511293       0.093973       0.099346
       0.660000       0.538692       0.095760       0.098699
       0.670000       0.568229       0.097728       0.098011
       0.680000       0.600120       0.099879       0.097219
       0.690000       0.634599       0.102218       0.096271
       0.700000       0.671914       0.104752       0.095147
       0.710000       0.712323       0.107489       0.093865
       0.720000       0.756086       0.110440       0.092469
       0.730000       0.803454       0.113616       0.091012
       0.740000       0.854662       0.117032       0.089540
       0.750000       0.909918       0.120706       0.088089
       0.760000       0.969418       0.124656       0.086697
       0.770000       1.033370       0.128907       0.085404
       0.780000       1.102065       0.133484       0.084264
       0.790000       1.175954       0.138417       0.083330
       0.800000       1.255737       0.143742       0.082643
       0.810000       1.342427       0.149498       0.082216
       0.820000       1.437354       0.155731       0.082022
       0.830000       1.542136       0.162492       0.082000
       0.840000       1.658609       0.169841       0.082061
       0.850000       1.788768       0.177844       0.082107
       0.860000       1.934717       0.186574       0.082050
       0.870000       2.098617       0.196113       0.081828
       0.880000       2.282633       0.206548       0.081419
       0.890000       2.488823       0.217968       0.080835
       0.900000       2.718966       0.230462       0.080117
       0.910000       2.974267       0.244108       0.079317
       0.920000       3.254948       0.258961       0.078483
       0.930000       3.559705       0.275039       0.077641
       0.940000       3.885091       0.292297       0.076788
       0.950000       4.224971       0.310612       0.075896
       0.960000       4.570273       0.329762       0.074928
       0.970000       4.909321       0.349426       0.073858
       0.980000       5.228937       0.369203       0.072689
       0.990000       5.516224       0.388656       0.071462
       1.000000       5.760551       0.407373       0.070243
       1.010000       5.955110       0.425034       0.069107
       1.020000       6.097567       0.441455       0.068114
       1.030000       6.189785       0.456628       0.067296
       1.040000       6.236891       0.470722       0.066652
       1.050000       6.245920       0.484071       0.066150
       1.060000       6.224229       0.497123       0.065739
       1.070000       6.177977       0.510374       0.065368
       1.080000       6.111174       0.524306       0.064999
       1.090000       6.025695       0.539358       0.064620
       1.100000       5.922192       0.555932       0.064249
       1.110000       5.801242       0.574413       0.063925
       1.120000       5.663931       0.595178       0.063695
       1.130000       5.511510       0.618575       0.063595
       1.140000       5.344478       0.644863       0.063637
       1.150000       5.161931       0.674138       0.063805
       1.160000       4.961856       0.706272       0.064059
       1.170000       4.742403       0.740854       0.064342
       1.180000       4.503521       0.777174       0.064600
       1.190000       4.248041       0.814247       0.064800
       1.200000       3.981645       0.850918       0.064939
       1.210000       3.711789       0.886058       0.065047
       1.220000       3.446196       0.918843       0.065178
       1.230000       3.191550       0.949027       0.065396
       1.240000       2.952747       0.977089       0.065750
       1.250000       2.732725       1.004163       0.066264
       1.260000       2.532667       1.031764       0.066919
       1.270000       2.352401       1.061402       0.067662
       1.280000       2.190831       1.094206       0.068408
       1.290000       2.046353       1.130643       0.069060
       1.300000       1.917197       1.170388       0.069535
       1.310000       1.801691       1.212344       0.069784
       1.320000       1.698432       1.254835       0.069814
       1.330000       1.606327       1.295957       0.069680
       1.340000       1.524550       1.334000       0.069476
       1.350000       1.452444       1.367792       0.069310
       1.360000       1.389403       1.396844       0.069278
       1.370000       1.334775       1.421209       0.069444
       1.380000       1.287787       1.441202       0.069828
       1.390000       1.247493       1.457163       0.070403
       1.400000       1.212753       1.469439       0.071099
       1.410000       1.182249       1.478570       0.071822
       1.420000       1.154573       1.485529       0.072469
       1.430000       1.128377       1.491811       0.072958
       1.440000       1.102580       1.499262       0.073239
       1.450000       1.076552       1.509700       0.073302
       1.460000       1.050215       1.524453       0.073169
       1.470000       1.023995       1.544002       0.072879
       1.480000       0.998667       1.567788       0.072475
       1.490000       0.975147       1.594277       0.072000
       1.500000       0.954319       1.621288       0.071491
       1.510000       0.936928       1.646562       0.070987
       1.520000       0.923550       1.668438       0.070517
       1.530000       0.914604       1.686425       0.070102
       1.540000       0.910389       1.701425       0.069744
       1.550000       0.911118       1.715503       0.069429
       1.560000       0.916946       1.731283       0.069127
       1.570000       0.927975       1.751222       0.068801
       1.580000       0.944248       1.776940       0.068419
       1.590000       0.965719       1.808767       0.067966
       1.600000       0.992219       1.845527       0.067457
       1.610000       1.023414       1.884586       0.066939
       1.620000       1.058772       1.922205       0.066478
       1.630000       1.097573       1.954198       0.066153
       1.640000       1.138951       1.976819       0.066031
       1.650000       1.181991       1.987631       0.066155
       1.660000       1.225855       1.986083       0.066542
       1.670000       1.269900       1.973562       0.067172
       1.680000       1.313767       1.952969       0.067996
       1.690000       1.357412       1.928034       0.068946
       1.700000       1.401061       1.902649       0.069945
       1.710000       1.445098       1.880358       0.070924
       1.720000       1.489903       1.864027       0.071839
       1.730000       1.535711       1.855660       0.072670
       1.740000       1.582556       1.856309       0.073427
       1.750000       1.630336       1.866053       0.074135
       1.760000       1.678923       1.884039       0.074825
       1.770000       1.728240       1.908565       0.075525
       1.780000       1.778241       1.937250       0.076247
       1.790000       1.828805       1.967326       0.076989
       1.800000       1.879637       1.996061       0.077744
       1.810000       1.930267       2.021196       0.078505
       1.820000       1.980120       2.041248       0.079283
       1.830000       2.028641       2.055504       0.080107
       1.840000       2.075365       2.063757       0.081014
       1.850000       2.119946       2.065962       0.082042
       1.860000       2.162167       2.062075       0.083210
       1.870000       2.201966       2.052163       0.084512
       1.880000       2.239439       2.036698       0.085921
       1.890000       2.274777       2.016765       0.087390
       1.900000       2.308080       1.994026       0.088871
       1.910000       2.339130       1.970420       0.090323
       1.920000       2.367207       1.947785       0.091723
       1.930000       2.390999       1.927583       0.093066
       1.940000       2.408608       1.910789       0.094361
       1.950000       2.417615       1.897878       0.095626
       1.960000       2.415242       1.888805       0.096875
       1.970000       2.398634       1.882941       0.098115
       1.980000       2.365295       1.879023       0.099341
       1.990000       2.313611       1.875238       0.100535
       2.000000       2.243337       1.869479       0.101668
       2.010000       2.155870       1.859729       0.102710
       2.020000       2.054165       1.844435       0.103629
       2.030000       1.942290       1.822784       0.104402
       2.040000       1.824752       1.794806       0.105023
       2.050000       1.705850       1.761353       0.105510
       2.060000       1.589201       1.723936       0.105915
       2.070000       1.477531       1.684467       0.106312
       2.080000       1.372673       1.644959       0.106794
       2.090000       1.275692       1.607272       0.107452
       2.100000       1.187065       1.572965       0.108357
       2.110000       1.106853       1.543246       0.109548
       2.120000       1.034847       1.518922       0.111029
       2.130000       0.970676       1.500318       0.112771
       2.140000       0.913868       1.487161       0.114727
       2.150000       0.863892       1.478497       0.116837
       2.160000       0.820185       1.472736       0.119037
       2.170000       0.782163       1.467884       0.121257
       2.180000       0.749241       1.461933       0.123421
       2.190000       0.720832       1.453304       0.125446
       2.200000       0.696344       1.441155       0.127253
       2.210000       0.675169       1.425411       0.128776
       2.220000       0.656663       1.406514       0.129973
       2.230000       0.640147       1.385024       0.130829
       2.240000       0.624928       1.361275       0.131356
       2.250000       0.610366       1.335244       0.131582
       2.260000       0.595959       1.306627       0.131543
       2.270000       0.581424       1.275088       0.131275
       2.280000       0.566740       1.240546       0.130819
       2.290000       0.552128       1.203395       0.130217
       2.300000       0.537978       1.164594       0.129511
       2.310000       0.524751       1.125574       0.128732
       2.320000       0.512892       1.088007       0.127895
       2.330000       0.502767       1.053543       0.126999
       2.340000       0.494640       1.023572       0.126029
       2.350000       0.488663       0.999085       0.124972
       2.360000       0.484881       0.980612       0.123824
       2.370000       0.483238       0.968211       0.122601
       2.380000       0.483577       0.961486       0.121335
       2.390000       0.485649       0.959607       0.120074
       2.400000       0.489125       0.961362       0.118874
       2.410000       0.493630       0.965255       0.117794
       2.420000       0.498801       0.969675       0.116897
       2.430000       0.504357       0.973118       0.116249
       2.440000       0.510160       0.974436       0.115911
       2.450000       0.516237       0.973029       0.115943
       2.460000       0.522758       0.968916       0.116393
       2.470000       0.529966       0.962674       0.117291
       2.480000       0.538104       0.955243       0.118640
       2.490000       0.547346       0.947668       0.120409
       2.500000       0.557749       0.940847       0.122536
       2.510000       0.569229       0.935348       0.124934
       2.520000       0.581581       0.931326       0.127505
       2.530000       0.594522       0.928536       0.130151
       2.540000       0.607778       0.926429       0.132790
       2.550000       0.621179       0.924312       0.135351
       2.560000       0.634713       0.921520       0.137781
       2.570000       0.648518       0.917541       0.140036
       2.580000       0.662797       0.912043       0.142078
       2.590000       0.677702       0.904797       0.143870
       2.600000       0.693238       0.895565       0.145372
       2.610000       0.709233       0.884048       0.146536
       2.620000       0.725379       0.869944       0.147302
       2.630000       0.741294       0.853119       0.147604
       2.640000       0.756572       0.833769       0.147369
       2.650000       0.770773       0.812499       0.146529
       2.660000       0.783360       0.790258       0.145038
       2.670000       0.793636       0.768157       0.142885
       2.680000       0.800722       0.747259       0.140111
       2.690000       0.803615       0.728412       0.136812
       2.700000       0.801331       0.712158       0.133124
       2.710000       0.793094       0.698719       0.129209
       2.720000       0.778548       0.688023       0.125227
       2.730000       0.757898       0.679771       0.121325
       2.740000       0.731932       0.673508       0.117621
       2.750000       0.701906       0.668721       0.114211
       2.760000       0.669319       0.664934       0.111160
       2.770000       0.635670       0.661787       0.108509
       2.780000       0.602273       0.659076       0.106274
       2.790000       0.570150       0.656739       0.104447
       2.800000       0.540007       0.654805       0.103003
       2.810000       0.512259       0.653338       0.101908
       2.820000       0.487083       0.652414       0.101127
       2.830000       0.464468       0.652101       0.100628
       2.840000       0.444279       0.652451       0.100384
       2.850000       0.426305       0.653486       0.100373
       2.860000       0.410312       0.655170       0.100581
       2.870000       0.396078       0.657402       0.101007
       2.880000       0.383421       0.660044       0.101658
       2.890000       0.372193       0.662968       0.102551
       2.900000       0.362267       0.666121       0.103698
       2.910000       0.353519       0.669551       0.105101
       2.920000       0.345812       0.673383       0.106741
       2.930000       0.338991       0.677738       0.108583
       2.940000       0.332890       0.682641       0.110584
       2.950000       0.327354       0.687952       0.112714
       2.960000       0.322253       0.693362       0.114965
       2.970000       0.317500       0.698457       0.117356
       2.980000       0.313057       0.702805       0.119922
       2.990000       0.308930       0.706032       0.122690
       3.000000       0.305150       0.707850       0.125644
       3.010000       0.301752       0.708056       0.128706
       3.020000       0.298751       0.706511       0.131724
       3.030000       0.296137       0.703161       0.134483
       3.040000       0.293880       0.698064       0.136740
       3.050000       0.291946       0.691421       0.138258
       3.060000       0.290317       0.683565       0.138859
       3.070000       0.288993       0.674919       0.138448
       3.080000       0.287991       0.665937       0.137026
       3.090000       0.287335       0.657072       0.134684
       3.100000       0.287046       0.648769       0.131582
       3.110000       0.287133       0.641482       0.127924
       3.120000       0.287600       0.635683       0.123934
       3.130000       0.288437       0.631861       0.119829
       3.140000       0.289630       0.630494       0.115805
       3.150000       0.291160       0.632018       0.112022
       3.160000       0.293016       0.636804       0.108609
       3.170000       0.295205       0.645141       0.105657
       3.180000       0.297761       0.657231       0.103226
       3.190000       0.300738       0.673182       0.101346
       3.200000       0.304191       0.692998       0.100016
       3.210000       0.308154       0.716572       0.099205
       3.220000       0.312613       0.743684       0.098859
       3.230000       0.317500       0.774032       0.098902
       3.240000       0.322703       0.807288       0.099237
       3.250000       0.328095       0.843187       0.099759
       3.260000       0.333566       0.881605       0.100349
       3.270000       0.339069       0.922595       0.100889
       3.280000       0.344632       0.966331       0.101268
       3.290000       0.350363       1.012969       0.101397
       3.300000       0.356429       1.062467       0.101227
       3.310000       0.363023       1.114425       0.100759
       3.320000       0.370327       1.168002       0.100053
       3.330000       0.378487       1.221938       0.099215
       3.340000       0.387582       1.274671       0.098378
       3.350000       0.397617       1.324500       0.097684
       3.360000       0.408529       1.369737       0.097258
       3.370000       0.420202       1.408803       0.097194
       3.380000       0.432501       1.440275       0.097554
       3.390000       0.445296       1.462902       0.098363
       3.400000       0.458475       1.475659       0.099614
       3.410000       0.471934       1.477873       0.101273
       3.420000       0.485553       1.469403       0.103276
       3.430000       0.499175       1.450824       0.105541
       3.440000       0.512613       1.423506       0.107965
       3.450000       0.525676       1.389542       0.110439
       3.460000       0.538222       1.351521       0.112858
       3.470000       0.550209       1.312227       0.115135
       3.480000       0.561740       1.274319       0.117214
       3.490000       0.573077       1.240079       0.119071
       3.500000       0.584633       1.211250       0.120706
       3.510000       0.596938       1.188965       0.122125
       3.520000       0.610571       1.173741       0.123323
       3.530000       0.626095       1.165520       0.124271
       3.540000       0.643991       1.163736       0.124923
       3.550000       0.664611       1.167407       0.125227
       3.560000       0.688150       1.175260       0.125150
       3.570000       0.714632       1.185888       0.124688
       3.580000       0.743903       1.197923       0.123875
       3.590000       0.775642       1.210193       0.122766
       3.600000       0.809386       1.221837       0.121425
       3.610000       0.844596       1.232328       0.119901
       3.620000       0.880744       1.241404       0.118227
       3.630000       0.917403       1.248920       0.116417
       3.640000       0.954296       1.254689       0.114482
       3.650000       0.991258       1.258391       0.112447
       3.660000       1.028137       1.259620       0.110358
       3.670000       1.064701       1.258064       0.108286
       3.680000       1.100621       1.253737       0.106318
       3.690000       1.135570       1.247125       0.104544
       3.700000       1.169393       1.239182       0.103044
       3.710000       1.202246       1.231179       0.101878
       3.720000       1.234601       1.224489       0.101076
       3.730000       1.267109       1.220390       0.100643
       3.740000       1.300377       1.219943       0.100562
       3.750000       1.334793       1.223916       0.100805
       3.760000       1.370456       1.232754       0.101342
       3.770000       1.407222       1.246580       0.102140
       3.780000       1.444793       1.265210       0.103172
       3.790000       1.482726       1.288192       0.104404
       3.800000       1.520371       1.314874       0.105805
       3.810000       1.556780       1.344480       0.107340
       3.820000       1.590718       1.376170       0.108979
       3.830000       1.620860       1.409058       0.110701
       3.840000       1.646114       1.442177       0.112490
       3.850000       1.665942       1.474434       0.114334
       3.860000       1.680513       1.504591       0.116222
       3.870000       1.690669       1.531327       0.118141
       3.880000       1.697748       1.553358       0.120082
       3.890000       1.703381       1.569601       0.122051
       3.900000       1.709312       1.579302       0.124072
       3.910000       1.717222       1.582107       0.126198
       3.920000       1.728561       1.578082       0.128499
       3.930000       1.744419       1.567703       0.131051
       3.940000       1.765462       1.551860       0.133907
       3.950000       1.791956       1.531838       0.137079
       3.960000       1.823810       1.509269       0.140520
       3.970000       1.860609       1.486017       0.144119
       3.980000       1.901592       1.464027       0.147716
       3.990000       1.945656       1.445161       0.151127
       4.000000       1.991461       1.431053       0.154174
       4.010000       2.037677       1.422999       0.156720
       4.020000       2.083334       1.421898       0.158688
       4.030000       2.128123       1.428247       0.160070
       4.040000       2.172478       1.442196       0.160921
       4.050000       2.217366       1.463646       0.161345
       4.060000       2.263820       1.492356       0.161478
       4.070000       2.312399       1.528030       0.161472
       4.080000       2.362797       1.570343       0.161475
       4.090000       2.413734       1.618917       0.161623
       4.100000       2.463178       1.673272       0.162023
       4.110000       2.508798       1.732792       0.162745
       4.120000       2.548471       1.796742       0.163821
       4.130000       2.580668       1.864305       0.165251
       4.140000       2.604597       1.934632       0.167007
       4.150000       2.620131       2.006872       0.169047
       4.160000       2.627612       2.080177       0.171320
       4.170000       2.627637       2.153694       0.173763
       4.180000       2.620890       2.226555       0.176310
       4.190000       2.608028       2.297893       0.178883
       4.200000       2.589606       2.366857       0.181405
       4.210000       2.566034       2.432581       0.183804
       4.220000       2.537587       2.494060       0.186021
       4.230000       2.504482       2.549966       0.188019
       4.240000       2.467036       2.598490       0.189775
       4.250000       2.425880       2.637332       0.191276
       4.260000       2.382146       2.663905       0.192507
       4.270000       2.337529       2.675756       0.193454
       4.280000       2.294164       2.671115       0.194108
       4.290000       2.254349       2.649410       0.194481
       4.300000       2.220216       2.611551       0.194608
       4.310000       2.193460       2.559880       0.194546
       4.320000       2.175198       2.497771       0.194365
       4.330000       2.165975       2.429072       0.194140
       4.340000       2.165866       2.357563       0.193953
       4.350000       2.174610       2.286581       0.193889
       4.360000       2.191708       2.218814       0.194034
       4.370000       2.216440       2.156232       0.194459
       4.380000       2.247796       2.100074       0.195199
       4.390000       2.284391       2.050894       0.196230
       4.400000       2.324423       2.008631       0.197462
       4.410000       2.365751       1.972762       0.198751
       4.420000       2.406061       1.942519       0.199932
       4.430000       2.443068       1.917156       0.200859
       4.440000       2.474700       1.896184       0.201443
       4.450000       2.499224       1.879483       0.201669
       4.460000       2.515327       1.867260       0.201598
       4.470000       2.522175       1.859854       0.201348
       4.480000       2.519453       1.857501       0.201071
       4.490000       2.507384       1.860123       0.200921
       4.500000       2.486706       1.867218       0.201023
       4.510000       2.458590       1.877874       0.201458
       4.520000       2.424509       1.890880       0.202248
       4.530000       2.386053       1.904895       0.203366
       4.540000       2.344735       1.918616       0.204752
       4.550000       2.301838       1.930895       0.206331
       4.560000       2.258355       1.940807       0.208034
       4.570000       2.215051       1.947708       0.209810
       4.580000       2.172593       1.951328       0.211621
       4.590000       2.131673       1.951883       0.213435
       4.600000       2.093032       1.950138       0.215209
       4.610000       2.057416       1.947338       0.216883
       4.620000       2.025498       1.944993       0.218377
       4.630000       1.997842       1.944573       0.219601
       4.640000       1.974928       1.947207       0.220461
       4.650000       1.957165       1.953454       0.220873
       4.660000       1.944856       1.963185       0.220772
       4.670000       1.938083       1.975571       0.220112
       4.680000       1.936577       1.989204       0.218879
       4.690000       1.939631       2.002322       0.217088
       4.700000       1.946107       2.013117       0.214789
       4.710000       1.954515       2.020047       0.212062
       4.720000       1.963144       2.022035       0.209014
       4.730000       1.970225       2.018517       0.205762
       4.740000       1.974127       2.009323       0.202420
       4.750000       1.973567       1.994501       0.199092
       4.760000       1.967797       1.974199       0.195865
       4.770000       1.956708       1.948687       0.192809
       4.780000       1.940808       1.918516       0.189976
       4.790000       1.921129       1.884697       0.187401
       4.800000       1.899104       1.848774       0.185108
       4.810000       1.876458       1.812732       0.183105
       4.820000       1.855107       1.778739       0.181395
       4.830000       1.837024       1.748845       0.179964
       4.840000       1.824067       1.724727       0.178783
       4.850000       1.817792       1.707553       0.177798
       4.860000       1.819281       1.697956       0.176926
       4.870000       1.829030       1.696075       0.176060
       4.880000       1.846885       1.701606       0.175076
       4.890000       1.872070       1.713869       0.173849
       4.900000       1.903279       1.731868       0.172273
       4.910000       1.938848       1.754371       0.170281
       4.920000       1.976933       1.779999       0.167858
       4.930000       2.015657       1.807323       0.165047
       4.940000       2.053160       1.834937       0.161941
       4.950000       2.087593       1.861535       0.158667
       4.960000       2.117137       1.885986       0.155370
       4.970000       2.140113       1.907427       0.152195
       4.980000       2.155190       1.925364       0.149281
       4.990000       2.161576       1.939713       0.146750
       5.000000       2.159105       1.950760       0.144697
       5.010000       2.148203       1.959035       0.143191
       5.020000       2.129785       1.965137       0.142265
       5.030000       2.105152       1.969599       0.141915
       5.040000       2.075901       1.972776       0.142104
       5.050000       2.043790       1.974788       0.142768
       5.060000       2.010560       1.975485       0.143829
       5.070000       1.977760       1.974451       0.145209
       5.080000       1.946653       1.971052       0.146843
       5.090000       1.918232       1.964551       0.148692
       5.100000       1.893303       1.954287       0.150741
       5.110000       1.872583       1.939914       0.152994
       5.120000       1.856743       1.921613       0.155455
       5.130000       1.846392       1.900219       0.158124
       5.140000       1.841995       1.877170       0.160982
       5.150000       1.843770       1.854301       0.163990
       5.160000       1.851569       1.833514       0.167087
       5.170000       1.864789       1.816448       0.170197
       5.180000       1.882315       1.804206       0.173222
       5.190000       1.902520       1.797214       0.176050
       5.200000       1.923373       1.795200       0.178564
       5.210000       1.942684       1.797301       0.180653
       5.220000       1.958481       1.802264       0.182235
       5.230000       1.969431       1.808701       0.183264
       5.240000       1.975126       1.815306       0.183737
       5.250000       1.976105       1.820997       0.183678
       5.260000       1.973558       1.824935       0.183126
       5.270000       1.968849       1.826449       0.182122
       5.280000       1.963018       1.824928       0.180702
       5.290000       1.956456       1.819735       0.178896
       5.300000       1.948841       1.810192       0.176737
       5.310000       1.939314       1.795662       0.174265
       5.320000       1.926845       1.775691       0.171533
       5.330000       1.910643       1.750177       0.168611
       5.340000       1.890497       1.719467       0.165589
       5.350000       1.866935       1.684340       0.162560
       5.360000       1.841172       1.645900       0.159618
       5.370000       1.814898       1.605439       0.156848
       5.380000       1.789993       1.564360       0.154315
       5.390000       1.768250       1.524138       0.152069
       5.400000       1.751192       1.486289       0.150144
       5.410000       1.739969       1.452292       0.148557
       5.420000       1.735354       1.423479       0.147314
       5.430000       1.737781       1.400928       0.146414
       5.440000       1.747384       1.385379       0.145851
       5.450000       1.763996       1.377195       0.145627
       5.460000       1.787087       1.376354       0.145750
       5.470000       1.815660       1.382441       0.146234
       5.480000       1.848175       1.394639       0.147097
       5.490000       1.882550       1.411737       0.148353
       5.500000       1.916303       1.432182       0.150006
       5.510000       1.946830       1.454218       0.152046
       5.520000       1.971766       1.476112       0.154444
       5.530000       1.989337       1.496413       0.157157
       5.540000       1.998581       1.514170       0.160119
       5.550000       1.999388       1.529021       0.163251
       5.560000       1.992367       1.541141       0.166465
       5.570000       1.978611       1.551055       0.169674
       5.580000       1.959482       1.559418       0.172810
       5.590000       1.936448       1.566797       0.175834
       5.600000       1.910967       1.573528       0.178747
       5.610000       1.884386       1.579638       0.181579
       5.620000       1.857837       1.584856       0.184378
       5.630000       1.832136       1.588701       0.187196
       5.640000       1.807737       1.590621       0.190064
       5.650000       1.784750       1.590146       0.192988
       5.660000       1.763064       1.586999       0.195937
       5.670000       1.742546       1.581158       0.198851
       5.680000       1.723266       1.572900       0.201650
       5.690000       1.705643       1.562825       0.204244
       5.700000       1.690474       1.551855       0.206551
       5.710000       1.678799       1.541162       0.208498
       5.720000       1.671693       1.532018       0.210031
       5.730000       1.670058       1.525600       0.211107
       5.740000       1.674471       1.522791       0.211702
       5.750000       1.685118       1.524015       0.211803
       5.760000       1.701775       1.529124       0.211422
       5.770000       1.723811       1.537357       0.210597
       5.780000       1.750192       1.547398       0.209396
       5.790000       1.779492       1.557559       0.207918
       5.800000       1.809960       1.566062       0.206281
       5.810000       1.839665       1.571355       0.204609
       5.820000       1.866729       1.572357       0.203015
       5.830000       1.889576       1.568555       0.201595
       5.840000       1.907099       1.559940       0.200417
       5.850000       1.918690       1.546863       0.199530
       5.860000       1.924148       1.529896       0.198965
       5.870000       1.923546       1.509757       0.198742
       5.880000       1.917122       1.487320       0.198872
       5.890000       1.905238       1.463648       0.199353
       5.900000       1.888398       1.440010       0.200158
       5.910000       1.867257       1.417823       0.201238
       5.920000       1.842598       1.398523       0.202523
       5.930000       1.815258       1.383391       0.203935
       5.940000       1.786054       1.373385       0.205409
       5.950000       1.755744       1.369033       0.206903
       5.960000       1.725055       1.370393       0.208408
       5.970000       1.694727       1.377087       0.209954
       5.980000       1.665546       1.388379       0.211606
       5.990000       1.638335       1.403301       0.213449
       6.000000       1.613926       1.420781       0.215580
       6.010000       1.593097       1.439752       0.218081
       6.020000       1.576507       1.459209       0.221011
       6.030000       1.564592       1.478215       0.224388
       6.040000       1.557463       1.495877       0.228184
       6.050000       1.554831       1.511340       0.232322
       6.060000       1.556018       1.523815       0.236676
       6.070000       1.560087       1.532669       0.241079
       6.080000       1.566083       1.537532       0.245342
       6.090000       1.573326       1.538422       0.249283
       6.100000       1.581643       1.535817       0.252757
       6.110000       1.591440       1.530665       0.255686
       6.120000       1.603586       1.524274       0.258068
       6.130000       1.619156       1.518109       0.259969
       6.140000       1.639136       1.513547       0.261492
       6.150000       1.664194       1.511652       0.262744
       6.160000       1.694560       1.513043       0.263803
       6.170000       1.730045       1.517867       0.264702
       6.180000       1.770149       1.525880       0.265425
       6.190000       1.814191       1.536612       0.265928
       6.200000       1.861379       1.549546       0.266160
       6.210000       1.910779       1.564266       0.266084
       6.220000       1.961207       1.580533       0.265689
       6.230000       2.011157       1.598292       0.264988
       6.240000       2.058841       1.617627       0.264014
       6.250000       2.102394       1.638698       0.262807
       6.260000       2.140173       1.661628       0.261415
       6.270000       2.171044       1.686388       0.259893
       6.280000       2.194560       1.712671       0.258301
       6.290000       2.210963       1.739838       0.256707
       6.300000       2.221065       1.766950       0.255179
       6.310000       2.226038       1.792898       0.253787
       6.320000       2.227215       1.816552       0.252599
       6.330000       2.225913       1.836873       0.251687
       6.340000       2.223292       1.852932       0.251121
       6.350000       2.220247       1.863870       0.250966
       6.360000       2.217357       1.868879       0.251274
       6.370000       2.214918       1.867279       0.252079
       6.380000       2.213039       1.858679       0.253396
       6.390000       2.211781       1.843139       0.255227
       6.400000       2.211256       1.821218       0.257556
       6.410000       2.211676       1.793879       0.260354
       6.420000       2.213355       1.762284       0.263577
       6.430000       2.216678       1.727595       0.267156
       6.440000       2.222019       1.690873       0.271001
       6.450000       2.229632       1.653076       0.275000
       6.460000       2.239505       1.615127       0.279016
       6.470000       2.251268       1.577981       0.282902
       6.480000       2.264183       1.542654       0.286508
       6.490000       2.277287       1.510208       0.289701
       6.500000       2.289640       1.481697       0.292382
       6.510000       2.300634       1.458062       0.294509
       6.520000       2.310239       1.440022       0.296096
       6.530000       2.319078       1.427960       0.297213
       6.540000       2.328273       1.421857       0.297961
       6.550000       2.339121       1.421290       0.298453
       6.560000       2.352749       1.425480       0.298789
       6.570000       2.369882       1.433409       0.299043
       6.580000       2.390798       1.443963       0.299254
       6.590000       2.415446       1.456099       0.299434
       6.600000       2.443631       1.469012       0.299574
       6.610000       2.475139       1.482271       0.299659
       6.620000       2.509757       1.495877       0.299685
       6.630000       2.547189       1.510224       0.299673
       6.640000       2.586912       1.525962       0.299664
       6.650000       2.628067       1.543808       0.299724
       6.660000       2.669433       1.564356       0.299921
       6.670000       2.709534       1.587921       0.300317
       6.680000       2.746857       1.614442       0.300951
       6.690000       2.780135       1.643442       0.301833
       6.700000       2.808566       1.674077       0.302937
       6.710000       2.831866       1.705269       0.304211
       6.720000       2.850138       1.735908       0.305589
       6.730000       2.863627       1.765069       0.307000
       6.740000       2.872484       1.792160       0.308386
       6.750000       2.876653       1.816983       0.309696
       6.760000       2.875910       1.839720       0.310894
       6.770000       2.870044       1.860912       0.311960
       6.780000       2.859120       1.881460       0.312885
       6.790000       2.843741       1.902631       0.313670
       6.800000       2.825210       1.925995       0.314320
       6.810000       2.805525       1.953267       0.314841
       6.820000       2.787159       1.986054       0.315236
       6.830000       2.772712       2.025557       0.315516
       6.840000       2.764528       2.072296       0.315704
       6.850000       2.764385       2.125911       0.315849
       6.860000       2.773284       2.185084       0.316024
       6.870000       2.791348       2.247597       0.316316
       6.880000       2.817823       2.310550       0.316817
       6.890000       2.851172       2.370713       0.317608
       6.900000       2.889234       2.424949       0.318747
       6.910000       2.929440       2.470610       0.320267
       6.920000       2.969041       2.505823       0.322174
       6.930000       3.005314       2.529607       0.324458
       6.940000       3.035735       2.541829       0.327106
       6.950000       3.058125       2.543062       0.330105
       6.960000       3.070767       2.534386       0.333451
       6.970000       3.072521       2.517191       0.337142
       6.980000       3.062961       2.493051       0.341164
       6.990000       3.042512       2.463685       0.345479
       7.000000       3.012545       2.431015       0.350013
       7.010000       2.975326       2.397225       0.354660
       7.020000       2.933789       2.364732       0.359298
       7.030000       2.891144       2.336030       0.363812
       7.040000       2.850414       2.313418       0.368122
       7.050000       2.814047       2.298730       0.372213
       7.060000       2.783692       2.293119       0.376130
       7.070000       2.760166       2.296979       0.379976
       7.080000       2.743589       2.309979       0.383886
       7.090000       2.733600       2.331194       0.388006
       7.100000       2.729556       2.359280       0.392472
       7.110000       2.730670       2.392626       0.397398
       7.120000       2.736038       2.429436       0.402876
       7.130000       2.744604       2.467716       0.408971
       7.140000       2.755082       2.505203       0.415721
       7.150000       2.765927       2.539343       0.423139
       7.160000       2.775369       2.567427       0.431224
       7.170000       2.781561       2.586893       0.439960
       7.180000       2.782810       2.595743       0.449312
       7.190000       2.777803       2.592863       0.459222
       7.200000       2.765765       2.578123       0.469601
       7.210000       2.746481       2.552221       0.480337
       7.220000       2.720219       2.516396       0.491320
       7.230000       2.687635       2.472178       0.502463
       7.240000       2.649734       2.421281       0.513724
       7.250000       2.607863       2.365606       0.525113
       7.260000       2.563675       2.307240       0.536676
       7.270000       2.518994       2.248376       0.548471
       7.280000       2.475598       2.191158       0.560553
       7.290000       2.434993       2.137505       0.572969
       7.300000       2.398223       2.088972       0.585753
       7.310000       2.365779       2.046654       0.598937
       7.320000       2.337578       2.011118       0.612551
       7.330000       2.313011       1.982356       0.626610
       7.340000       2.291064       1.959782       0.641119
       7.350000       2.270480       1.942314       0.656062
       7.360000       2.249967       1.928557       0.671412
       7.370000       2.228392       1.917056       0.687136
       7.380000       2.204902       1.906537       0.703203
       7.390000       2.178961       1.896048       0.719593
       7.400000       2.150296       1.884973       0.736308
       7.410000       2.118838       1.872973       0.753371
       7.420000       2.084714       1.859937       0.770812
       7.430000       2.048290       1.845993       0.788648
       7.440000       2.010199       1.831538       0.806848
       7.450000       1.971285       1.817211       0.825328
       7.460000       1.932435       1.803750       0.843948
       7.470000       1.894393       1.791779       0.862544
       7.480000       1.857606       1.781605       0.880961
       7.490000       1.822177       1.773103       0.899080
       7.500000       1.787930       1.765742       0.916834
       7.510000       1.754537       1.758732       0.934195
       7.520000       1.721686       1.751233       0.951153
       7.530000       1.689227       1.742562       0.967704
       7.540000       1.657264       1.732335       0.983852
       7.550000       1.626189       1.720501       0.999618
       7.560000       1.596657       1.707307       1.015046
       7.570000       1.569508       1.693189       1.030201
       7.580000       1.545659       1.678672       1.045147
       7.590000       1.525948       1.664274       1.059936
       7.600000       1.510978       1.650443       1.074588
       7.610000       1.500992       1.637496       1.089080
       7.620000       1.495814       1.625554       1.103346
       7.630000       1.494878       1.614476       1.117267
       7.640000       1.497326       1.603817       1.130679
       7.650000       1.502160       1.592875       1.143367
       7.660000       1.508413       1.580816       1.155059
       7.670000       1.515295       1.566859       1.165420
       7.680000       1.522273       1.550446       1.174058
       7.690000       1.529054       1.531315       1.180559
       7.700000       1.535470       1.509482       1.184548
       7.710000       1.541312       1.485140       1.185763
       7.720000       1.546184       1.458584       1.184120
       7.730000       1.549430       1.430179       1.179737
       7.740000       1.550172       1.400385       1.172919
       7.750000       1.547443       1.369755       1.164106
       7.760000       1.540369       1.338896       1.153820
       7.770000       1.528346       1.308361       1.142593
       7.780000       1.511163       1.278535       1.130904
       7.790000       1.489029       1.249579       1.119127
       7.800000       1.462514       1.221432       1.107508
       7.810000       1.432438       1.193918       1.096189
       7.820000       1.399757       1.166879       1.085262
       7.830000       1.365467       1.140319       1.074818
       7.840000       1.330546       1.114473       1.064978
       7.850000       1.295903       1.089794       1.055892
       7.860000       1.262325       1.066845       1.047722
       7.870000       1.230414       1.046168       1.040637
       7.880000       1.200539       1.028147       1.034802
       7.890000       1.172813       1.012933       1.030377
       7.900000       1.147134       1.000431       1.027505
       7.910000       1.123262       0.990350       1.026306
       7.920000       1.100922       0.982303       1.026877
       7.930000       1.079875       0.975908       1.029310
       7.940000       1.059956       0.970872       1.033728
       7.950000       1.041083       0.967027       1.040312
       7.960000       1.023244       0.964320       1.049310
       7.970000       1.006497       0.962791       1.061012
       7.980000       0.990976       0.962550       1.075683
       7.990000       0.976891       0.963767       1.093483
       8.000000       0.964508       0.966666       1.114400
       8.010000       0.954083       0.971475       1.138208
       8.020000       0.945786       0.978341       1.164476
       8.030000       0.939605       0.987219       1.192596
       8.040000       0.935281       0.997769       1.221854
       8.050000       0.932279       1.009316       1.251512
       8.060000       0.929830       1.020900       1.280891
       8.070000       0.927055       1.031427       1.309437
       8.080000       0.923137       1.039897       1.336749
       8.090000       0.917519       1.045646       1.362573
       8.100000       0.910027       1.048495       1.386791
       8.110000       0.900886       1.048757       1.409405
       8.120000       0.890629       1.047113       1.430523
       8.130000       0.879943       1.044405       1.450324
       8.140000       0.869534       1.041452       1.469009
       8.150000       0.860025       1.038910       1.486740
       8.160000       0.851914       1.037211       1.503578
       8.170000       0.845547       1.036540       1.519458
       8.180000       0.841118       1.036862       1.534203
       8.190000       0.838688       1.037975       1.547590
       8.200000       0.838201       1.039584       1.559437
       8.210000       0.839508       1.041386       1.569681
       8.220000       0.842381       1.043140       1.578393
       8.230000       0.846518       1.044702       1.585728
       8.240000       0.851549       1.046033       1.591829
       8.250000       0.857044       1.047159       1.596735
       8.260000       0.862532       1.048131       1.600367
       8.270000       0.867524       1.048965       1.602574
       8.280000       0.871559       1.049607       1.603246
       8.290000       0.874262       1.049919       1.602402
       8.300000       0.875412       1.049711       1.600233
       8.310000       0.875007       1.048836       1.597072
       8.320000       0.873276       1.047300       1.593344
       8.330000       0.870641       1.045354       1.589503
       8.340000       0.867606       1.043495       1.585992
       8.350000       0.864629       1.042372       1.583221
       8.360000       0.862000       1.042642       1.581553
       8.370000       0.859783       1.044813       1.581306
       8.380000       0.857814       1.049151       1.582769
       8.390000       0.855747       1.055638       1.586240
       8.400000       0.853132       1.064016       1.592067
       8.410000       0.849502       1.073879       1.600674
       8.420000       0.844469       1.084806       1.612543
       8.430000       0.837805       1.096495       1.628179
       8.440000       0.829516       1.108863       1.648059
       8.450000       0.819853       1.122076       1.672601
       8.460000       0.809272       1.136509       1.702169
       8.470000       0.798348       1.152675       1.737112
       8.480000       0.787678       1.171148       1.777826
       8.490000       0.777796       1.192485       1.824798
       8.500000       0.769127       1.217167       1.878618
       8.510000       0.761953       1.245527       1.939944
       8.520000       0.756386       1.277674       2.009424
       8.530000       0.752358       1.313432       2.087596
       8.540000       0.749634       1.352329       2.174777
       8.550000       0.747847       1.393631       2.270991
       8.560000       0.746576       1.436444       2.375923
       8.570000       0.745421       1.479835       2.488929
       8.580000       0.744067       1.522908       2.609063
       8.590000       0.742309       1.564829       2.735121
       8.600000       0.740060       1.604785       2.865654
       8.610000       0.737330       1.641961       2.998941
       8.620000       0.734211       1.675579       3.132945
       8.630000       0.730849       1.705021       3.265293
       8.640000       0.727422       1.729967       3.393315
       8.650000       0.724095       1.750487       3.514152
       8.660000       0.720979       1.767022       3.624955
       8.670000       0.718089       1.780305       3.723123
       8.680000       0.715319       1.791250       3.806582
       8.690000       0.712448       1.800860       3.874046
       8.700000       0.709187       1.810144       3.925220
       8.710000       0.705239       1.820045       3.960862
       8.720000       0.700387       1.831386       3.982655
       8.730000       0.694558       1.844870       3.992887
       8.740000       0.687866       1.861114       3.994019
       8.750000       0.680611       1.880679       3.988269
       8.760000       0.673229       1.904030       3.977314
       8.770000       0.666219       1.931427       3.962167
       8.780000       0.660067       1.962762       3.943211
       8.790000       0.655190       1.997440       3.920349
       8.800000       0.651923       2.034367       3.893235
       8.810000       0.650524       2.072101       3.861542
       8.820000       0.651203       2.109124       3.825177
       8.830000       0.654144       2.144155       3.784380
       8.840000       0.659520       2.176394       3.739665
       8.850000       0.667503       2.205605       3.691664
       8.860000       0.678269       2.232059       3.640981
       8.870000       0.691998       2.256334       3.588152
       8.880000       0.708860       2.279070       3.533697
       8.890000       0.729007       2.300740       3.478195
       8.900000       0.752542       2.321506       3.422294
       8.910000       0.779506       2.341190       3.366613
       8.920000       0.809868       2.359328       3.311573
       8.930000       0.843521       2.375270       3.257236
       8.940000       0.880315       2.388309       3.203256
       8.950000       0.920096       2.397805       3.148987
       8.960000       0.962762       2.403295       3.093747
       8.970000       1.008318       2.404548       3.037124
       8.980000       1.056898       2.401561       2.979204
       8.990000       1.108760       2.394527       2.920628
       9.000000       1.164235       2.383841       2.862466
       9.010000       1.223656       2.370139       2.805990
       9.020000       1.287259       2.354345       2.752401
       9.030000       1.355083       2.337638       2.702595
       9.040000       1.426854       2.321298       2.657009
       9.050000       1.501886       2.306479       2.615573
       9.060000       1.579016       2.293971       2.577786
       9.070000       1.656584       2.284020       2.542890
       9.080000       1.732487       2.276236       2.510081
       9.090000       1.804345       2.269628       2.478704
       9.100000       1.869771       2.262757       2.448372
       9.110000       1.926753       2.254015       2.419009
       9.120000       1.974032       2.241952       2.390837
       9.130000       2.011354       2.225573       2.364320
       9.140000       2.039437       2.204522       2.340082
       9.150000       2.059632       2.179108       2.318768
       9.160000       2.073385       2.150191       2.300878
       9.170000       2.081711       2.118950       2.286575
       9.180000       2.084845       2.086587       2.275533
       9.190000       2.082200       2.054041       2.266877
       9.200000       2.072607       2.021798       2.259260
       9.210000       2.054771       1.989859       2.251074
       9.220000       2.027773       1.957873       2.240762
       9.230000       1.991452       1.925377       2.227153
       9.240000       1.946557       1.892029       2.209717
       9.250000       1.894667       1.857740       2.188661
       9.260000       1.837935       1.822666       2.164833
       9.270000       1.778789       1.787112       2.139468
       9.280000       1.719664       1.751423       2.113878
       9.290000       1.662799       1.715932       2.089182
       9.300000       1.610097       1.680957       2.066159
       9.310000       1.563032       1.646817       2.045229
       9.320000       1.522591       1.613827       2.026542
       9.330000       1.489279       1.582295       2.010093
       9.340000       1.463161       1.552533       1.995808
       9.350000       1.443938       1.524890       1.983568
       9.360000       1.431028       1.499780       1.973198
       9.370000       1.423626       1.477653       1.964454
       9.380000       1.420733       1.458906       1.957059
       9.390000       1.421169       1.443786       1.950783
       9.400000       1.423605       1.432326       1.945538
       9.410000       1.426630       1.424368       1.941439
       9.420000       1.428894       1.419653       1.938800
       9.430000       1.429278       1.417912       1.938054
       9.440000       1.427072       1.418895       1.939650
       9.450000       1.422105       1.422315       1.943953
       9.460000       1.414761       1.427719       1.951187
       9.470000       1.405887       1.434360       1.961406
       9.480000       1.396572       1.441154       1.974493
       9.490000       1.387854       1.446772       1.990185
       9.500000       1.380435       1.449877       2.008119
       9.510000       1.374471       1.449442       2.027910
       9.520000       1.369524       1.445051       2.049240
       9.530000       1.364687       1.437062       2.071931
       9.540000       1.358828       1.426555       2.095985
       9.550000       1.350900       1.415094       2.121567
       9.560000       1.340186       1.404386       2.148961
       9.570000       1.326427       1.395953       2.178494
       9.580000       1.309806       1.390893       2.210474
       9.590000       1.290846       1.389761       2.245128
       9.600000       1.270248       1.392539       2.282572
       9.610000       1.248752       1.398674       2.322824
       9.620000       1.227030       1.407152       2.365839
       9.630000       1.205636       1.416627       2.411564
       9.640000       1.185009       1.425597       2.459948
       9.650000       1.165491       1.432610       2.510868
       9.660000       1.147352       1.436443       2.563984
       9.670000       1.130786       1.436220       2.618583
       9.680000       1.115915       1.431466       2.673499
       9.690000       1.102799       1.422146       2.727205
       9.700000       1.091448       1.408700       2.778066
       9.710000       1.081847       1.392057       2.824680
       9.720000       1.073959       1.373568       2.866148
       9.730000       1.067727       1.354826       2.902166
       9.740000       1.063060       1.337421       2.932913
       9.750000       1.059835       1.322686       2.958795
       9.760000       1.057896       1.311512       2.980168
       9.770000       1.057077       1.304250       2.997158
       9.780000       1.057229       1.300706       3.009628
       9.790000       1.058267       1.300204       3.017315
       9.800000       1.060189       1.301700       3.020034
       9.810000       1.063080       1.303934       3.017856
       9.820000       1.067065       1.305641       3.011181
       9.830000       1.072249       1.305772       3.000673
       9.840000       1.078666       1.303716       2.987111
       9.850000       1.086260       1.299418       2.971238
       9.860000       1.094903       1.293341       2.953643
       9.870000       1.104432       1.286295       2.934717
       9.880000       1.114695       1.279185       2.914658
       9.890000       1.125589       1.272782       2.893533
       9.900000       1.137080       1.267609       2.871358
       9.910000       1.149216       1.263914       2.848183
       9.920000       1.162118       1.261705       2.824131
       9.930000       1.175953       1.260773       2.799391
       9.940000       1.190898       1.260682       2.774159
       9.950000       1.207083       1.260776       2.748593
       9.960000       1.224529       1.260212       2.722790
       9.970000       1.243078       1.258074       2.696780
       9.980000       1.262327       1.253532       2.670530
       9.990000       1.281565       1.246015       2.643934
      10.000000       1.299772       1.235317       2.616810
      10.010000       1.315699       1.221624       2.588926
      10.020000       1.328061       1.205446       2.560064
      10.030000       1.335804       1.187483       2.530114
      10.040000       1.338363       1.168497       2.499169
      10.050000       1.335813       1.149213       2.467584
      10.060000       1.328858       1.130285       2.435946
      10.070000       1.318674       1.112275       2.404957
      10.080000       1.306647       1.095651       2.375274
      10.090000       1.294122       1.080763       2.347336
      10.100000       1.282200       1.067840       2.321261
      10.110000       1.271628       1.056992       2.296842
      10.120000       1.262770       1.048258       2.273657
      10.130000       1.255625       1.041658       2.251263
      10.140000       1.249884       1.037260       2.229403
      10.150000       1.245031       1.035198       2.208128
      10.160000       1.240491       1.035669       2.187763
      10.170000       1.235793       1.038883       2.168749
      10.180000       1.230727       1.044997       2.151431
      10.190000       1.225420       1.054061       2.135890
      10.200000       1.220334       1.065992       2.121898
      10.210000       1.216169       1.080593       2.108999
      10.220000       1.213730       1.097596       2.096675
      10.230000       1.213781       1.116715       2.084512
      10.240000       1.216904       1.137682       2.072314
      10.250000       1.223387       1.160274       2.060107
      10.260000       1.233139       1.184332       2.048064
      10.270000       1.245646       1.209788       2.036369
      10.280000       1.259991       1.236676       2.025101
      10.290000       1.274930       1.265118       2.014169
      10.300000       1.289046       1.295260       2.003321
      10.310000       1.300933       1.327177       1.992252
      10.320000       1.309417       1.360769       1.980748
      10.330000       1.313723       1.395702       1.968833
      10.340000       1.313574       1.431428       1.956845
      10.350000       1.309187       1.467281       1.945425
      10.360000       1.301189       1.502590       1.935416
      10.370000       1.290463       1.536752       1.927725
      10.380000       1.277982       1.569205       1.923186
      10.390000       1.264652       1.599336       1.922442
      10.400000       1.251230       1.626371       1.925893
      10.410000       1.238310       1.649336       1.933698
      10.420000       1.226374       1.667119       1.945844
      10.430000       1.215840       1.678619       1.962248
      10.440000       1.207077       1.682959       1.982858
      10.450000       1.200378       1.679674       2.007724
      10.460000       1.195924       1.668852       2.037017
      10.470000       1.193757       1.651146       2.070979
      10.480000       1.193763       1.627685       2.109838
      10.490000       1.195690       1.599897       2.153699
      10.500000       1.199174       1.569308       2.202452
      10.510000       1.203791       1.537361       2.255704
      10.520000       1.209121       1.505281       2.312777
      10.530000       1.214800       1.474016       2.372756
      10.540000       1.220562       1.444232       2.434605
      10.550000       1.226227       1.416357       2.497317
      10.560000       1.231664       1.390642       2.560061
      10.570000       1.236729       1.367201       2.622261
      10.580000       1.241215       1.346022       2.683591
      10.590000       1.244818       1.326949       2.743876
      10.600000       1.247138       1.309664       2.802967
      10.610000       1.247729       1.293689       2.860621
      10.620000       1.246178       1.278459       2.916458
      10.630000       1.242198       1.263448       2.969977
      10.640000       1.235674       1.248318       3.020625
      10.650000       1.226643       1.233026       3.067859
      10.660000       1.215225       1.217852       3.111138
      10.670000       1.201554       1.203324       3.149854
      10.680000       1.185761       1.190073       3.183251
      10.690000       1.168034       1.178676       3.210383
      10.700000       1.148679       1.169531       3.230178
      10.710000       1.128159       1.162777       3.241556
      10.720000       1.107065       1.158271       3.243567
      10.730000       1.086045       1.155610       3.235501
      10.740000       1.065712       1.154192       3.216961
      10.750000       1.046573       1.153337       3.187926
      10.760000       1.028975       1.152420       3.148795
      10.770000       1.013072       1.151009       3.100397
      10.780000       0.998850       1.148935       3.043948
      10.790000       0.986190       1.146302       2.980958
      10.800000       0.974963       1.143437       2.913105
      10.810000       0.965116       1.140818       2.842121
      10.820000       0.956700       1.139006       2.769679
      10.830000       0.949843       1.138575       2.697326
      10.840000       0.944657       1.140052       2.626434
      10.850000       0.941157       1.143855       2.558178
      10.860000       0.939188       1.150244       2.493537
      10.870000       0.938426       1.159291       2.433289
      10.880000       0.938409       1.170867       2.378027
      10.890000       0.938622       1.184663       2.328153
      10.900000       0.938606       1.200219       2.283876
      10.910000       0.938045       1.216981       2.245180
      10.920000       0.936835       1.234377       2.211801
      10.930000       0.935086       1.251886       2.183206
      10.940000       0.933081       1.269073       2.158614
      10.950000       0.931203       1.285565       2.137079
      10.960000       0.929861       1.300973       2.117608
      10.970000       0.929438       1.314790       2.099322
      10.980000       0.930240       1.326318       2.081586
      10.990000       0.932481       1.334689       2.064085
      11.000000       0.936273       1.338995       2.046831
      11.010000       0.941637       1.338490       2.030091
      11.020000       0.948522       1.332813       2.014274
      11.030000       0.956830       1.322114       1.999806
      11.040000       0.966420       1.307062       1.987020
      11.050000       0.977115       1.288695       1.976082
      11.060000       0.988693       1.268211       1.966965
      11.070000       1.000885       1.246746       1.959449
      11.080000       1.013378       1.225225       1.953139
      11.090000       1.025853       1.204274       1.947482
      11.100000       1.038052       1.184219       1.941791
      11.110000       1.049859       1.165118       1.935289
      11.120000       1.061356       1.146838       1.927199
      11.130000       1.072814       1.129139       1.916877
      11.140000       1.084590       1.111769       1.903945
      11.150000       1.096964       1.094528       1.888376
      11.160000       1.109982       1.077305       1.870484
      11.170000       1.123368       1.060074       1.850843
      11.180000       1.136558       1.042870       1.830174
      11.190000       1.148838       1.025769       1.809226
      11.200000       1.159520       1.008896       1.788687
      11.210000       1.168095       0.992457       1.769109
      11.220000       1.174313       0.976769       1.750846
      11.230000       1.178163       0.962266       1.734010
      11.240000       1.179822       0.949449       1.718449
      11.250000       1.179567       0.938804       1.703750
      11.260000       1.177721       0.930717       1.689289
      11.270000       1.174596       0.925399       1.674310
      11.280000       1.170459       0.922841       1.658031
      11.290000       1.165512       0.922793       1.639754
      11.300000       1.159890       0.924755       1.618944
      11.310000       1.153674       0.928011       1.595301
      11.320000       1.146906       0.931696       1.568789
      11.330000       1.139604       0.934923       1.539639
      11.340000       1.131796       0.936928       1.508323
      11.350000       1.123551       0.937183       1.475492
      11.360000       1.115023       0.935456       1.441885
      11.370000       1.106441       0.931779       1.408227
      11.380000       1.098073       0.926381       1.375133
      11.390000       1.090160       0.919614       1.343031
      11.400000       1.082865       0.911915       1.312132
      11.410000       1.076258       0.903795       1.282443
      11.420000       1.070337       0.895843       1.253812
      11.430000       1.065057       0.888700       1.225994
      11.440000       1.060361       0.883007       1.198722
      11.450000       1.056195       0.879342       1.171781
      11.460000       1.052501       0.878156       1.145076
      11.470000       1.049188       0.879735       1.118676
      11.480000       1.046119       0.884187       1.092811
      11.490000       1.043088       0.891432       1.067821
      11.500000       1.039821       0.901199       1.044058
      11.510000       1.035980       0.913014       1.021787
      11.520000       1.031176       0.926211       1.001123
      11.530000       1.025003       0.939967       0.982025
      11.540000       1.017105       0.953383       0.964341
      11.550000       1.007261       0.965597       0.947866
      11.560000       0.995500       0.975917       0.932389
      11.570000       0.982179       0.983927       0.917701
      11.580000       0.967991       0.989563       0.903592
      11.590000       0.953865       0.993106       0.889836
      11.600000       0.940788       0.995124       0.876199
      11.610000       0.929599       0.996343       0.862469
      11.620000       0.920838       0.997522       0.848507
      11.630000       0.914667       0.999339       0.834294
      11.640000       0.910911       1.002320       0.819959
      11.650000       0.909153       1.006808       0.805761
      11.660000       0.908885       1.012956       0.792044
      11.670000       0.909627       1.020723       0.779166
      11.680000       0.911003       1.029881       0.767441
      11.690000       0.912752       1.040018       0.757093
      11.700000       0.914708       1.050574       0.748232
      11.710000       0.916756       1.060892       0.740838
      11.720000       0.918810       1.070291       0.734751
      11.730000       0.920809       1.078158       0.729674
      11.740000       0.922717       1.084046       0.725210
      11.750000       0.924526       1.087749       0.720914
      11.760000       0.926241       1.089317       0.716374
      11.770000       0.927861       1.089011       0.711280
      11.780000       0.929364       1.087182       0.705464
      11.790000       0.930687       1.084136       0.698902
      11.800000       0.931710       1.080029       0.691692
      11.810000       0.932234       1.074834       0.683993
      11.820000       0.931975       1.068384       0.675975
      11.830000       0.930590       1.060472       0.667783
      11.840000       0.927737       1.050951       0.659523
      11.850000       0.923154       1.039802       0.651274
      11.860000       0.916722       1.027135       0.643119
      11.870000       0.908496       1.013178       0.635155
      11.880000       0.898689       0.998248       0.627494
      11.890000       0.887647       0.982738       0.620229
      11.900000       0.875793       0.967117       0.613406
      11.910000       0.863565       0.951913       0.607008
      11.920000       0.851350       0.937693       0.600961
      11.930000       0.839419       0.925019       0.595146
      11.940000       0.827894       0.914403       0.589424
      11.950000       0.816758       0.906267       0.583651
      11.960000       0.805890       0.900898       0.577697
      11.970000       0.795119       0.898402       0.571475
      11.980000       0.784278       0.898663       0.564973
      11.990000       0.773248       0.901307       0.558290
      12.000000       0.761995       0.905700       0.551640
      12.010000       0.750587       0.910995       0.545332
      12.020000       0.739177       0.916235       0.539724
      12.030000       0.727952       0.920504       0.535147
      12.040000       0.717075       0.923095       0.531847
      12.050000       0.706642       0.923634       0.529940
      12.060000       0.696668       0.922114       0.529410
      12.070000       0.687119       0.918821       0.530135
      12.080000       0.677940       0.914161       0.531926
      12.090000       0.669094       0.908474       0.534575
      12.100000       0.660593       0.901890       0.537880
      12.110000       0.652510       0.894292       0.541658
      12.120000       0.644992       0.885382       0.545735
      12.130000       0.638246       0.874821       0.549945
      12.140000       0.632510       0.862372       0.554130
      12.150000       0.628016       0.848002       0.558158
      12.160000       0.624954       0.831902       0.561942
      12.170000       0.623451       0.814441       0.565461
      12.180000       0.623555       0.796094       0.568753
      12.190000       0.625242       0.777361       0.571894
      12.200000       0.628426       0.758712       0.574958
      12.210000       0.632972       0.740555       0.577977
      12.220000       0.638726       0.723219       0.580913
      12.230000       0.645534       0.706949       0.583666
      12.240000       0.653263       0.691916       0.586093
      12.250000       0.661827       0.678215       0.588049
      12.260000       0.671206       0.665885       0.589423
      12.270000       0.681462       0.654918       0.590153
      12.280000       0.692728       0.645285       0.590232
      12.290000       0.705172       0.636958       0.589693
      12.300000       0.718922       0.629924       0.588595
      12.310000       0.733975       0.624182       0.587002
      12.320000       0.750116       0.619726       0.584967
      12.330000       0.766876       0.616524       0.582522
      12.340000       0.783560       0.614498       0.579669
      12.350000       0.799323       0.613535       0.576382
      12.360000       0.813292       0.613484       0.572626
      12.370000       0.824683       0.614164       0.568388
      12.380000       0.832894       0.615363       0.563704
      12.390000       0.837553       0.616828       0.558678
      12.400000       0.838538       0.618288       0.553478
      12.410000       0.835960       0.619476       0.548304
      12.420000       0.830159       0.620168       0.543339
      12.430000       0.821667       0.620210       0.538695
      12.440000       0.811164       0.619519       0.534375
      12.450000       0.799403       0.618088       0.530263
      12.460000       0.787118       0.615984       0.526139
      12.470000       0.774945       0.613354       0.521722
      12.480000       0.763363       0.610412       0.516732
      12.490000       0.752662       0.607419       0.510941
      12.500000       0.742935       0.604647       0.504227
      12.510000       0.734095       0.602337       0.496596
      12.520000       0.725904       0.600672       0.488183
      12.530000       0.718023       0.599751       0.479221
      12.540000       0.710072       0.599586       0.470008
      12.550000       0.701701       0.600103       0.460862
      12.560000       0.692658       0.601163       0.452090
      12.570000       0.682840       0.602587       0.443960
      12.580000       0.672318       0.604190       0.436681
      12.590000       0.661306       0.605812       0.430391
      12.600000       0.650111       0.607331       0.425151
      12.610000       0.639049       0.608679       0.420948
      12.620000       0.628394       0.609833       0.417699
      12.630000       0.618327       0.610815       0.415268
      12.640000       0.608931       0.611677       0.413482
      12.650000       0.600204       0.612474       0.412141
      12.660000       0.592089       0.613227       0.411041
      12.670000       0.584515       0.613881       0.409984
      12.680000       0.577425       0.614271       0.408797
      12.690000       0.570786       0.614119       0.407347
      12.700000       0.564583       0.613080       0.405558
      12.710000       0.558804       0.610827       0.403422
      12.720000       0.553424       0.607149       0.400989
      12.730000       0.548391       0.602009       0.398356
      12.740000       0.543629       0.595547       0.395637
      12.750000       0.539048       0.588024       0.392952
      12.760000       0.534566       0.579753       0.390410
      12.770000       0.530133       0.571044       0.388101
      12.780000       0.525735       0.562172       0.386088
      12.790000       0.521391       0.553354       0.384396
      12.800000       0.517125       0.544718       0.383002
      12.810000       0.512956       0.536271       0.381823
      12.820000       0.508891       0.527873       0.380721
      12.830000       0.504933       0.519262       0.379512
      12.840000       0.501086       0.510107       0.377999
      12.850000       0.497352       0.500103       0.376007
      12.860000       0.493714       0.489066       0.373423
      12.870000       0.490131       0.477004       0.370223
      12.880000       0.486532       0.464132       0.366480
      12.890000       0.482830       0.450836       0.362348
      12.900000       0.478940       0.437587       0.358026
      12.910000       0.474818       0.424857       0.353703
      12.920000       0.470497       0.413036       0.349519
      12.930000       0.466107       0.402403       0.345535
      12.940000       0.461873       0.393123       0.341727
      12.950000       0.458087       0.385267       0.338010
      12.960000       0.455058       0.378849       0.334267
      12.970000       0.453074       0.373847       0.330383
      12.980000       0.452370       0.370212       0.326268
      12.990000       0.453117       0.367867       0.321876
      13.000000       0.455423       0.366698       0.317211
      13.010000       0.459338       0.366550       0.312318
      13.020000       0.464865       0.367235       0.307277
      13.030000       0.471956       0.368541       0.302197
      13.040000       0.480511       0.370256       0.297196
      13.050000       0.490367       0.372183       0.292390
      13.060000       0.501296       0.374152       0.287874
      13.070000       0.512993       0.376019       0.283711
      13.080000       0.525068       0.377671       0.279929
      13.090000       0.537059       0.379032       0.276517
      13.100000       0.548467       0.380072       0.273438
      13.110000       0.558833       0.380821       0.270630
      13.120000       0.567819       0.381369       0.268019
      13.130000       0.575279       0.381859       0.265521
      13.140000       0.581263       0.382468       0.263051
      13.150000       0.585976       0.383390       0.260533
      13.160000       0.589686       0.384812       0.257905
      13.170000       0.592631       0.386901       0.255122
      13.180000       0.594952       0.389776       0.252151
      13.190000       0.596664       0.393482       0.248976
      13.200000       0.597648       0.397967       0.245594
      13.210000       0.597680       0.403074       0.242025
      13.220000       0.596468       0.408557       0.238312
      13.230000       0.593718       0.414122       0.234526
      13.240000       0.589199       0.419473       0.230756
      13.250000       0.582806       0.424365       0.227099
      13.260000       0.574588       0.428619       0.223645
      13.270000       0.564735       0.432115       0.220473
      13.280000       0.553539       0.434758       0.217638
      13.290000       0.541340       0.436454       0.215183
      13.300000       0.528489       0.437097       0.213132
      13.310000       0.515317       0.436588       0.211505
      13.320000       0.502114       0.434862       0.210314
      13.330000       0.489115       0.431919       0.209569
      13.340000       0.476491       0.427853       0.209274
      13.350000       0.464362       0.422847       0.209419
      13.360000       0.452812       0.417170       0.209977
      13.370000       0.441918       0.411144       0.210895
      13.380000       0.431753       0.405120       0.212093
      13.390000       0.422382       0.399440       0.213467
      13.400000       0.413841       0.394410       0.214905
      13.410000       0.406111       0.390269       0.216302
      13.420000       0.399113       0.387170       0.217579
      13.430000       0.392714       0.385164       0.218694
      13.440000       0.386764       0.384206       0.219639
      13.450000       0.381137       0.384161       0.220434
      13.460000       0.375761       0.384843       0.221104
      13.470000       0.370638       0.386038       0.221676
      13.480000       0.365826       0.387553       0.222164
      13.490000       0.361418       0.389233       0.222581
      13.500000       0.357514       0.390977       0.222947
      13.510000       0.354195       0.392737       0.223297
      13.520000       0.351525       0.394503       0.223691
      13.530000       0.349548       0.396299       0.224212
      13.540000       0.348303       0.398166       0.224951
      13.550000       0.347822       0.400161       0.225992
      13.560000       0.348127       0.402326       0.227394
      13.570000       0.349217       0.404673       0.229179
      13.580000       0.351052       0.407161       0.231330
      13.590000       0.353536       0.409699       0.233799
      13.600000       0.356513       0.412166       0.236519
      13.610000       0.359773       0.414449       0.239422
      13.620000       0.363069       0.416480       0.242451
      13.630000       0.366145       0.418258       0.245570
      13.640000       0.368772       0.419852       0.248764
      13.650000       0.370777       0.421373       0.252043
      13.660000       0.372065       0.422947       0.255424
      13.670000       0.372634       0.424689       0.258925
      13.680000       0.372584       0.426679       0.262552
      13.690000       0.372106       0.428952       0.266297
      13.700000       0.371463       0.431501       0.270155
      13.710000       0.370950       0.434275       0.274131
      13.720000       0.370843       0.437182       0.278259
      13.730000       0.371349       0.440100       0.282595
      13.740000       0.372578       0.442897       0.287204
      13.750000       0.374525       0.445458       0.292133
      13.760000       0.377073       0.447716       0.297393
      13.770000       0.380018       0.449679       0.302943
      13.780000       0.383087       0.451434       0.308696
      13.790000       0.385980       0.453142       0.314536
      13.800000       0.388397       0.455003       0.320341
      13.810000       0.390077       0.457214       0.326016
      13.820000       0.390833       0.459912       0.331497
      13.830000       0.390578       0.463129       0.336758
      13.840000       0.389349       0.466768       0.341790
      13.850000       0.387309       0.470619       0.346584
      13.860000       0.384730       0.474412       0.351116
      13.870000       0.381953       0.477893       0.355343
      13.880000       0.379335       0.480897       0.359218
      13.890000       0.377197       0.483374       0.362710
      13.900000       0.375790       0.485382       0.365812
      13.910000       0.375282       0.487039       0.368539
      13.920000       0.375764       0.488465       0.370916
      13.930000       0.377262       0.489733       0.372969
      13.940000       0.379739       0.490853       0.374725
      13.950000       0.383106       0.491781       0.376229
      13.960000       0.387214       0.492451       0.377556
      13.970000       0.391858       0.492827       0.378821
      13.980000       0.396796       0.492931       0.380172
      13.990000       0.401777       0.492858       0.381753
      14.000000       0.406589       0.492757       0.383675
      14.010000       0.411094       0.492798       0.385977
      14.020000       0.415250       0.493132       0.388608
      14.030000       0.419097       0.493864       0.391433
      14.040000       0.422710       0.495018       0.394259
      14.050000       0.426154       0.496525       0.396867
      14.060000       0.429445       0.498230       0.399053
      14.070000       0.432543       0.499921       0.400631
      14.080000       0.435352       0.501379       0.401442
      14.090000       0.437752       0.502433       0.401333
      14.100000       0.439617       0.502989       0.400162
      14.110000       0.440854       0.503044       0.397816
      14.120000       0.441427       0.502678       0.394247
      14.130000       0.441375       0.502025       0.389508
      14.140000       0.440815       0.501242       0.383765
      14.150000       0.439913       0.500475       0.377280
      14.160000       0.438852       0.499822       0.370372
      14.170000       0.437790       0.499307       0.363366
      14.180000       0.436839       0.498891       0.356554
      14.190000       0.436041       0.498485       0.350172
      14.200000       0.435366       0.497999       0.344396
      14.210000       0.434704       0.497373       0.339338
      14.220000       0.433885       0.496594       0.335057
      14.230000       0.432708       0.495697       0.331557
      14.240000       0.430988       0.494751       0.328791
      14.250000       0.428594       0.493838       0.326666
      14.260000       0.425480       0.493038       0.325047
      14.270000       0.421694       0.492414       0.323765
      14.280000       0.417379       0.492001       0.322628
      14.290000       0.412759       0.491799       0.321440
      14.300000       0.408111       0.491787       0.320018
      14.310000       0.403731       0.491933       0.318214
      14.320000       0.399899       0.492213       0.315932
      14.330000       0.396845       0.492628       0.313145
      14.340000       0.394734       0.493211       0.309895
      14.350000       0.393648       0.494022       0.306292
      14.360000       0.393585       0.495137       0.302493
      14.370000       0.394462       0.496621       0.298678
      14.380000       0.396119       0.498502       0.295012
      14.390000       0.398334       0.500760       0.291617
      14.400000       0.400838       0.503328       0.288560
      14.410000       0.403332       0.506113       0.285849
      14.420000       0.405505       0.509038       0.283449
      14.430000       0.407057       0.512067       0.281302
      14.440000       0.407723       0.515233       0.279351
      14.450000       0.407310       0.518628       0.277556
      14.460000       0.405735       0.522394       0.275910
      14.470000       0.403044       0.526693       0.274436
      14.480000       0.399413       0.531683       0.273187
      14.490000       0.395121       0.537478       0.272227
      14.500000       0.390501       0.544120       0.271621
      14.510000       0.385878       0.551533       0.271418
      14.520000       0.381522       0.559507       0.271637
      14.530000       0.377605       0.567687       0.272261
      14.540000       0.374190       0.575593       0.273234
      14.550000       0.371226       0.582671       0.274464
      14.560000       0.368579       0.588354       0.275828
      14.570000       0.366067       0.592144       0.277185
      14.580000       0.363507       0.593701       0.278385
      14.590000       0.360756       0.592902       0.279282
      14.600000       0.357741       0.589860       0.279753
      14.610000       0.354457       0.584887       0.279725
      14.620000       0.350953       0.578408       0.279183
      14.630000       0.347291       0.570860       0.278179
      14.640000       0.343518       0.562624       0.276818
      14.650000       0.339645       0.553991       0.275235
      14.660000       0.335657       0.545166       0.273576
      14.670000       0.331543       0.536299       0.271982
      14.680000       0.327319       0.527512       0.270583
      14.690000       0.323052       0.518923       0.269489
      14.700000       0.318856       0.510655       0.268786
      14.710000       0.314869       0.502829       0.268535
      14.720000       0.311212       0.495558       0.268770
      14.730000       0.307957       0.488937       0.269506
      14.740000       0.305106       0.483031       0.270743
      14.750000       0.302592       0.477870       0.272480
      14.760000       0.300296       0.473453       0.274715
      14.770000       0.298084       0.469755       0.277450
      14.780000       0.295844       0.466736       0.280683
      14.790000       0.293527       0.464345       0.284398
      14.800000       0.291163       0.462525       0.288563
      14.810000       0.288863       0.461201       0.293120
      14.820000       0.286793       0.460278       0.297996
      14.830000       0.285135       0.459630       0.303102
      14.840000       0.284057       0.459108       0.308343
      14.850000       0.283687       0.458541       0.313620
      14.860000       0.284101       0.457756       0.318844
      14.870000       0.285313       0.456591       0.323934
      14.880000       0.287283       0.454906       0.328839
      14.890000       0.289916       0.452598       0.333546
      14.900000       0.293078       0.449606       0.338097
      14.910000       0.296613       0.445921       0.342589
      14.920000       0.300361       0.441593       0.347172
      14.930000       0.304182       0.436731       0.352023
      14.940000       0.307978       0.431493       0.357320
      14.950000       0.311709       0.426073       0.363219
      14.960000       0.315398       0.420684       0.369831
      14.970000       0.319114       0.415536       0.377218
      14.980000       0.322946       0.410820       0.385394
      14.990000       0.326968       0.406695       0.394330
      15.000000       0.331221       0.403281       0.403957
      15.010000       0.335708       0.400649       0.414180
      15.020000       0.340404       0.398822       0.424882
      15.030000       0.345271       0.397774       0.435944
      15.040000       0.350270       0.397440       0.447270
      15.050000       0.355359       0.397719       0.458808
      15.060000       0.360489       0.398489       0.470559
      15.070000       0.365589       0.399615       0.482566
      15.080000       0.370562       0.400964       0.494896
      15.090000       0.375296       0.402422       0.507600
      15.100000       0.379682       0.403905       0.520692
      15.110000       0.383634       0.405358       0.534129
      15.120000       0.387098       0.406737       0.547797
      15.130000       0.390052       0.407984       0.561516
      15.140000       0.392481       0.409001       0.575046
      15.150000       0.394354       0.409647       0.588102
      15.160000       0.395597       0.409752       0.600370
      15.170000       0.396089       0.409146       0.611528
      15.180000       0.395680       0.407694       0.621267
      15.190000       0.394231       0.405320       0.629314
      15.200000       0.391662       0.402029       0.635453
      15.210000       0.387983       0.397907       0.639556
      15.220000       0.383290       0.393119       0.641597
      15.230000       0.377729       0.387893       0.641664
      15.240000       0.371461       0.382496       0.639957
      15.250000       0.364640       0.377194       0.636764
      15.260000       0.357408       0.372222       0.632422
      15.270000       0.349905       0.367755       0.627275
      15.280000       0.342277       0.363895       0.621626
      15.290000       0.334680       0.360682       0.615711
      15.300000       0.327267       0.358108       0.609692
      15.310000       0.320175       0.356131       0.603666
      15.320000       0.313521       0.354688       0.597690
      15.330000       0.307381       0.353699       0.591801
      15.340000       0.301796       0.353066       0.586028
      15.350000       0.296769       0.352692       0.580395
      15.360000       0.292272       0.352492       0.574920
      15.370000       0.288261       0.352412       0.569611
      15.380000       0.284689       0.352425       0.564462
      15.390000       0.281508       0.352531       0.559447
      15.400000       0.278687       0.352739       0.554527
      15.410000       0.276209       0.353057       0.549643
      15.420000       0.274079       0.353492       0.544727
      15.430000       0.272321       0.354045       0.539700
      15.440000       0.270959       0.354700       0.534483
      15.450000       0.269998       0.355410       0.528988
      15.460000       0.269405       0.356081       0.523129
      15.470000       0.269094       0.356561       0.516824
      15.480000       0.268934       0.356653       0.510008
      15.490000       0.268767       0.356142       0.502651
      15.500000       0.268443       0.354842       0.494770
      15.510000       0.267845       0.352645       0.486439
      15.520000       0.266919       0.349540       0.477787
      15.530000       0.265678       0.345625       0.468979
      15.540000       0.264205       0.341084       0.460193
      15.550000       0.262625       0.336145       0.451589
      15.560000       0.261075       0.331043       0.443277
      15.570000       0.259665       0.325975       0.435295
      15.580000       0.258460       0.321080       0.427595
      15.590000       0.257471       0.316429       0.420051
      15.600000       0.256678       0.312044       0.412479
      15.610000       0.256048       0.307908       0.404672
      15.620000       0.255559       0.303987       0.396439
      15.630000       0.255214       0.300233       0.387650
      15.640000       0.255036       0.296589       0.378253
      15.650000       0.255067       0.292989       0.368285
      15.660000       0.255356       0.289357       0.357838
      15.670000       0.255957       0.285619       0.347035
      15.680000       0.256927       0.281704       0.335997
      15.690000       0.258315       0.277553       0.324830
      15.700000       0.260161       0.273128       0.313631
      15.710000       0.262483       0.268422       0.302501
      15.720000       0.265270       0.263466       0.291552
      15.730000       0.268485       0.258334       0.280908
      15.740000       0.272058       0.253140       0.270700
      15.750000       0.275896       0.248020       0.261052
      15.760000       0.279887       0.243110       0.252067
      15.770000       0.283903       0.238529       0.243822
      15.780000       0.287811       0.234360       0.236356
      15.790000       0.291474       0.230640       0.229677
      15.800000       0.294761       0.227359       0.223759
      15.810000       0.297560       0.224462       0.218557
      15.820000       0.299795       0.221866       0.214008
      15.830000       0.301441       0.219472       0.210041
      15.840000       0.302524       0.217196       0.206584
      15.850000       0.303118       0.214983       0.203569
      15.860000       0.303324       0.212827       0.200929
      15.870000       0.303249       0.210756       0.198605
      15.880000       0.302990       0.208829       0.196546
      15.890000       0.302631       0.207104       0.194710
      15.900000       0.302232       0.205627       0.193072
      15.910000       0.301838       0.204417       0.191626
      15.920000       0.301472       0.203469       0.190380
      15.930000       0.301147       0.202762       0.189351
      15.940000       0.300870       0.202267       0.188556
      15.950000       0.300651       0.201956       0.188001
      15.960000       0.300504       0.201816       0.187678
      15.970000       0.300452       0.201844       0.187570
      15.980000       0.300515       0.202044       0.187651
      15.990000       0.300702       0.202419       0.187895
      16.000000       0.300995       0.202962       0.188282
      16.010000       0.301347       0.203646       0.188791
      16.020000       0.301681       0.204424       0.189402
      16.030000       0.301908       0.205235       0.190090
      16.040000       0.301941       0.206014       0.190823
      16.050000       0.301716       0.206697       0.191576
      16.060000       0.301209       0.207229       0.192327
      16.070000       0.300445       0.207572       0.193073
      16.080000       0.299486       0.207695       0.193823
      16.090000       0.298422       0.207581       0.194590
      16.100000       0.297338       0.207212       0.195384
      16.110000       0.296293       0.206573       0.196193
      16.120000       0.295301       0.205643       0.196979
      16.130000       0.294323       0.204397       0.197675
      16.140000       0.293270       0.202815       0.198195
      16.150000       0.292023       0.200883       0.198442
      16.160000       0.290459       0.198607       0.198334
      16.170000       0.288480       0.196015       0.197813
      16.180000       0.286034       0.193160       0.196865
      16.190000       0.283116       0.190107       0.195514
      16.200000       0.279769       0.186933       0.193825
      16.210000       0.276064       0.183721       0.191883
      16.220000       0.272092       0.180555       0.189786
      16.230000       0.267947       0.177520       0.187624
      16.240000       0.263719       0.174704       0.185471
      16.250000       0.259499       0.172187       0.183379
      16.260000       0.255369       0.170035       0.181381
      16.270000       0.251409       0.168294       0.179490
      16.280000       0.247678       0.166984       0.177709
      16.290000       0.244211       0.166095       0.176035
      16.300000       0.241012       0.165590       0.174465
      16.310000       0.238065       0.165410       0.172991
      16.320000       0.235345       0.165478       0.171603
      16.330000       0.232832       0.165708       0.170291
      16.340000       0.230521       0.166010       0.169041
      16.350000       0.228427       0.166297       0.167840
      16.360000       0.226582       0.166494       0.166674
      16.370000       0.225027       0.166539       0.165518
      16.380000       0.223800       0.166390       0.164341
      16.390000       0.222927       0.166023       0.163102
      16.400000       0.222409       0.165429       0.161757
      16.410000       0.222219       0.164614       0.160266
      16.420000       0.222310       0.163593       0.158606
      16.430000       0.222633       0.162402       0.156771
      16.440000       0.223155       0.161094       0.154776
      16.450000       0.223871       0.159739       0.152649
      16.460000       0.224811       0.158420       0.150426
      16.470000       0.226027       0.157216       0.148147
      16.480000       0.227581       0.156198       0.145853
      16.490000       0.229527       0.155417       0.143590
      16.500000       0.231898       0.154903       0.141409
      16.510000       0.234698       0.154662       0.139363
      16.520000       0.237895       0.154682       0.137503
      16.530000       0.241423       0.154928       0.135870
      16.540000       0.245185       0.155353       0.134489
      16.550000       0.249057       0.155896       0.133362
      16.560000       0.252901       0.156488       0.132475
      16.570000       0.256575       0.157060       0.131800
      16.580000       0.259945       0.157555       0.131306
      16.590000       0.262897       0.157931       0.130962
      16.600000       0.265343       0.158169       0.130742
      16.610000       0.267226       0.158268       0.130629
      16.620000       0.268516       0.158238       0.130603
      16.630000       0.269209       0.158089       0.130641
      16.640000       0.269315       0.157825       0.130714
      16.650000       0.268849       0.157445       0.130780
      16.660000       0.267836       0.156944       0.130787
      16.670000       0.266309       0.156321       0.130681
      16.680000       0.264311       0.155586       0.130413
      16.690000       0.261897       0.154759       0.129950
      16.700000       0.259126       0.153873       0.129285
      16.710000       0.256058       0.152959       0.128442
      16.720000       0.252756       0.152046       0.127478
      16.730000       0.249292       0.151152       0.126472
      16.740000       0.245747       0.150287       0.125514
      16.750000       0.242207       0.149461       0.124687
      16.760000       0.238754       0.148685       0.124059
      16.770000       0.235451       0.147984       0.123674
      16.780000       0.232341       0.147390       0.123546
      16.790000       0.229444       0.146940       0.123669
      16.800000       0.226753       0.146669       0.124016
      16.810000       0.224247       0.146595       0.124547
      16.820000       0.221880       0.146717       0.125217
      16.830000       0.219598       0.147009       0.125972
      16.840000       0.217336       0.147426       0.126764
      16.850000       0.215031       0.147909       0.127542
      16.860000       0.212628       0.148400       0.128261
      16.870000       0.210090       0.148844       0.128885
      16.880000       0.207401       0.149197       0.129380
      16.890000       0.204568       0.149425       0.129721
      16.900000       0.201627       0.149499       0.129888
      16.910000       0.198637       0.149402       0.129864
      16.920000       0.195673       0.149125       0.129637
      16.930000       0.192815       0.148674       0.129198
      16.940000       0.190148       0.148073       0.128547
      16.950000       0.187746       0.147371       0.127691
      16.960000       0.185676       0.146629       0.126647
      16.970000       0.183993       0.145917       0.125434
      16.980000       0.182741       0.145302       0.124080
      16.990000       0.181946       0.144830       0.122616
      17.000000       0.181625       0.144526       0.121081
      17.010000       0.181781       0.144384       0.119520
      17.020000       0.182404       0.144370       0.117985
      17.030000       0.183480       0.144430       0.116524
      17.040000       0.184989       0.144494       0.115176
      17.050000       0.186906       0.144493       0.113962
      17.060000       0.189204       0.144370       0.112882
      17.070000       0.191847       0.144092       0.111915
      17.080000       0.194792       0.143648       0.111029
      17.090000       0.197986       0.143049       0.110187
      17.100000       0.201363       0.142322       0.109357
      17.110000       0.204848       0.141495       0.108523
      17.120000       0.208352       0.140596       0.107688
      17.130000       0.211770       0.139648       0.106874
      17.140000       0.214982       0.138668       0.106120
      17.150000       0.217851       0.137671       0.105470
      17.160000       0.220233       0.136672       0.104966
      17.170000       0.221985       0.135691       0.104641
      17.180000       0.222977       0.134754       0.104510
      17.190000       0.223112       0.133893       0.104569
      17.200000       0.222336       0.133141       0.104794
      17.210000       0.220655       0.132532       0.105146
      17.220000       0.218143       0.132087       0.105573
      17.230000       0.214938       0.131817       0.106017
      17.240000       0.211231       0.131716       0.106424
      17.250000       0.207237       0.131765       0.106752
      17.260000       0.203169       0.131936       0.106974
      17.270000       0.199212       0.132200       0.107080
      17.280000       0.195515       0.132532       0.107069
      17.290000       0.192185       0.132918       0.106944
      17.300000       0.189293       0.133355       0.106707
      17.310000       0.186882       0.133844       0.106352
      17.320000       0.184969       0.134385       0.105872
      17.330000       0.183543       0.134974       0.105260
      17.340000       0.182561       0.135598       0.104510
      17.350000       0.181940       0.136238       0.103627
      17.360000       0.181552       0.136869       0.102623
      17.370000       0.181233       0.137465       0.101520
      17.380000       0.180792       0.138005       0.100351
      17.390000       0.180043       0.138466       0.099157
      17.400000       0.178823       0.138833       0.097982
      17.410000       0.177028       0.139088       0.096872
      17.420000       0.174623       0.139222       0.095866
      17.430000       0.171647       0.139229       0.094994
      17.440000       0.168201       0.139113       0.094272
      17.450000       0.164425       0.138887       0.093701
      17.460000       0.160481       0.138572       0.093270
      17.470000       0.156524       0.138195       0.092954
      17.480000       0.152693       0.137785       0.092723
      17.490000       0.149098       0.137369       0.092547
      17.500000       0.145823       0.136976       0.092401
      17.510000       0.142923       0.136629       0.092274
      17.520000       0.140426       0.136351       0.092168
      17.530000       0.138339       0.136160       0.092093
      17.540000       0.136643       0.136073       0.092059
      17.550000       0.135304       0.136096       0.092072
      17.560000       0.134274       0.136224       0.092122
      17.570000       0.133505       0.136442       0.092192
      17.580000       0.132952       0.136722       0.092260
      17.590000       0.132585       0.137038       0.092310
      17.600000       0.132388       0.137363       0.092331
      17.610000       0.132351       0.137679       0.092325
      17.620000       0.132469       0.137977       0.092297
      17.630000       0.132731       0.138248       0.092254
      17.640000       0.133112       0.138485       0.092200
      17.650000       0.133579       0.138675       0.092135
      17.660000       0.134082       0.138804       0.092058
      17.670000       0.134565       0.138861       0.091970
      17.680000       0.134971       0.138844       0.091880
      17.690000       0.135242       0.138768       0.091804
      17.700000       0.135328       0.138664       0.091768
      17.710000       0.135189       0.138573       0.091802
      17.720000       0.134799       0.138541       0.091937
      17.730000       0.134144       0.138605       0.092199
      17.740000       0.133230       0.138788       0.092604
      17.750000       0.132080       0.139098       0.093156
      17.760000       0.130736       0.139530       0.093847
      17.770000       0.129255       0.140068       0.094655
      17.780000       0.127700       0.140694       0.095546
      17.790000       0.126136       0.141388       0.096476
      17.800000       0.124624       0.142132       0.097393
      17.810000       0.123216       0.142907       0.098243
      17.820000       0.121953       0.143696       0.098975
      17.830000       0.120873       0.144483       0.099548
      17.840000       0.120003       0.145246       0.099938
      17.850000       0.119364       0.145963       0.100135
      17.860000       0.118967       0.146607       0.100147
      17.870000       0.118817       0.147154       0.099995
      17.880000       0.118915       0.147591       0.099711
      17.890000       0.119262       0.147921       0.099337
      17.900000       0.119857       0.148166       0.098916
      17.910000       0.120704       0.148364       0.098496
      17.920000       0.121805       0.148559       0.098126
      17.930000       0.123167       0.148791       0.097853
      17.940000       0.124795       0.149087       0.097717
      17.950000       0.126700       0.149447       0.097756
      17.960000       0.128895       0.149846       0.097996
      17.970000       0.131390       0.150230       0.098459
      17.980000       0.134190       0.150530       0.099157
      17.990000       0.137283       0.150671       0.100099
      18.000000       0.140643       0.150591       0.101291
      18.010000       0.144217       0.150252       0.102733
      18.020000       0.147929       0.149648       0.104417
      18.030000       0.151682       0.148808       0.106328
      18.040000       0.155362       0.147786       0.108445
      18.050000       0.158850       0.146653       0.110737
      18.060000       0.162036       0.145480       0.113175
      18.070000       0.164826       0.144329       0.115734
      18.080000       0.167145       0.143241       0.118399
      18.090000       0.168933       0.142240       0.121161
      18.100000       0.170137       0.141323       0.124018
      18.110000       0.170705       0.140471       0.126968
      18.120000       0.170593       0.139655       0.130007
      18.130000       0.169774       0.138843       0.133129
      18.140000       0.168252       0.138014       0.136328
      18.150000       0.166068       0.137162       0.139594
      18.160000       0.163300       0.136302       0.142922
      18.170000       0.160050       0.135460       0.146305
      18.180000       0.156432       0.134671       0.149735
      18.190000       0.152562       0.133968       0.153206
      18.200000       0.148550       0.133382       0.156710
      18.210000       0.144493       0.132935       0.160236
      18.220000       0.140476       0.132639       0.163768
      18.230000       0.136569       0.132494       0.167279
      18.240000       0.132832       0.132490       0.170731
      18.250000       0.129309       0.132605       0.174070
      18.260000       0.126035       0.132805       0.177234
      18.270000       0.123032       0.133053       0.180165
      18.280000       0.120313       0.133311       0.182823
      18.290000       0.117879       0.133545       0.185203
      18.300000       0.115723       0.133726       0.187341
      18.310000       0.113825       0.133837       0.189312
      18.320000       0.112164       0.133870       0.191218
      18.330000       0.110714       0.133821       0.193174
      18.340000       0.109457       0.133698       0.195295
      18.350000       0.108379       0.133516       0.197685
      18.360000       0.107475       0.133293       0.200423
      18.370000       0.106740       0.133043       0.203556
      18.380000       0.106165       0.132774       0.207099
      18.390000       0.105737       0.132476       0.211036
      18.400000       0.105433       0.132127       0.215336
      18.410000       0.105222       0.131693       0.219959
      18.420000       0.105074       0.131145       0.224866
      18.430000       0.104957       0.130465       0.230007
      18.440000       0.104847       0.129657       0.235316
      18.450000       0.104726       0.128753       0.240691
      18.460000       0.104585       0.127799       0.245997
      18.470000       0.104423       0.126852       0.251078
      18.480000       0.104245       0.125963       0.255780
      18.490000       0.104055       0.125173       0.259974
      18.500000       0.103860       0.124504       0.263561
      18.510000       0.103664       0.123963       0.266475
      18.520000       0.103474       0.123535       0.268674
      18.530000       0.103299       0.123193       0.270145
      18.540000       0.103155       0.122894       0.270906
      18.550000       0.103066       0.122589       0.271019
      18.560000       0.103065       0.122225       0.270588
      18.570000       0.103190       0.121759       0.269740
      18.580000       0.103480       0.121162       0.268606
      18.590000       0.103970       0.120423       0.267304
      18.600000       0.104688       0.119550       0.265929
      18.610000       0.105648       0.118565       0.264562
      18.620000       0.106850       0.117494       0.263280
      18.630000       0.108278       0.116364       0.262171
      18.640000       0.109897       0.115197       0.261329
      18.650000       0.111650       0.114011       0.260849
      18.660000       0.113469       0.112823       0.260815
      18.670000       0.115270       0.111649       0.261287
      18.680000       0.116967       0.110502       0.262294
      18.690000       0.118479       0.109395       0.263827
      18.700000       0.119735       0.108334       0.265837
      18.710000       0.120690       0.107321       0.268239
      18.720000       0.121324       0.106356       0.270913
      18.730000       0.121646       0.105435       0.273720
      18.740000       0.121696       0.104556       0.276519
      18.750000       0.121534       0.103722       0.279179
      18.760000       0.121234       0.102940       0.281591
      18.770000       0.120871       0.102223       0.283669
      18.780000       0.120514       0.101586       0.285355
      18.790000       0.120215       0.101043       0.286616
      18.800000       0.120007       0.100603       0.287450
      18.810000       0.119902       0.100266       0.287898
      18.820000       0.119894       0.100020       0.288040
      18.830000       0.119966       0.099842       0.288002
      18.840000       0.120093       0.099699       0.287934
      18.850000       0.120253       0.099549       0.287998
      18.860000       0.120431       0.099348       0.288337
      18.870000       0.120616       0.099053       0.289053
      18.880000       0.120800       0.098633       0.290193
      18.890000       0.120980       0.098067       0.291743
      18.900000       0.121154       0.097352       0.293635
      18.910000       0.121318       0.096502       0.295763
      18.920000       0.121471       0.095544       0.298016
      18.930000       0.121608       0.094516       0.300298
      18.940000       0.121722       0.093460       0.302555
      18.950000       0.121794       0.092419       0.304782
      18.960000       0.121797       0.091431       0.307017
      18.970000       0.121688       0.090527       0.309325
      18.980000       0.121421       0.089723       0.311772
      18.990000       0.120955       0.089028       0.314408
      19.000000       0.120259       0.088434       0.317246
      19.010000       0.119326       0.087930       0.320246
      19.020000       0.118164       0.087496       0.323315
      19.030000       0.116799       0.087114       0.326311
      19.040000       0.115267       0.086773       0.329059
      19.050000       0.113610       0.086472       0.331382
      19.060000       0.111873       0.086217       0.333128
      19.070000       0.110101       0.086019       0.334200
      19.080000       0.108341       0.085892       0.334567
      19.090000       0.106638       0.085845       0.334263
      19.100000       0.105031       0.085885       0.333375
      19.110000       0.103550       0.086013       0.332019
      19.120000       0.102213       0.086221       0.330326
      19.130000       0.101027       0.086490       0.328422
      19.140000       0.099984       0.086785       0.326413
      19.150000       0.099069       0.087064       0.324375
      19.160000       0.098258       0.087281       0.322336
      19.170000       0.097527       0.087395       0.320275
      19.180000       0.096852       0.087385       0.318126
      19.190000       0.096213       0.087253       0.315801
      19.200000       0.095597       0.087022       0.313215
      19.210000       0.094994       0.086731       0.310308
      19.220000       0.094401       0.086423       0.307068
      19.230000       0.093815       0.086135       0.303532
      19.240000       0.093238       0.085890       0.299782
      19.250000       0.092674       0.085702       0.295937
      19.260000       0.092131       0.085572       0.292131
      19.270000       0.091627       0.085500       0.288498
      19.280000       0.091182       0.085484       0.285151
      19.290000       0.090819       0.085528       0.282178
      19.300000       0.090557       0.085636       0.279638
      19.310000       0.090408       0.085818       0.277566
      19.320000       0.090371       0.086080       0.275981
      19.330000       0.090436       0.086430       0.274884
      19.340000       0.090586       0.086867       0.274265
      19.350000       0.090802       0.087386       0.274100
      19.360000       0.091061       0.087971       0.274359
      19.370000       0.091345       0.088592       0.275008
      19.380000       0.091634       0.089209       0.276010
      19.390000       0.091906       0.089769       0.277334
      19.400000       0.092143       0.090212       0.278938
      19.410000       0.092323       0.090482       0.280773
      19.420000       0.092433       0.090534       0.282773
      19.430000       0.092463       0.090337       0.284859
      19.440000       0.092412       0.089884       0.286938
      19.450000       0.092287       0.089190       0.288917
      19.460000       0.092099       0.088288       0.290710
      19.470000       0.091864       0.087224       0.292256
      19.480000       0.091594       0.086053       0.293530
      19.490000       0.091301       0.084827       0.294554
      19.500000       0.090990       0.083596       0.295394
      19.510000       0.090664       0.082400       0.296153
      19.520000       0.090326       0.081273       0.296952
      19.530000       0.089980       0.080240       0.297904
      19.540000       0.089635       0.079318       0.299089
      19.550000       0.089305       0.078519       0.300545
      19.560000       0.089004       0.077852       0.302251
      19.570000       0.088746       0.077317       0.304128
      19.580000       0.088541       0.076912       0.306058
      19.590000       0.088395       0.076627       0.307895
      19.600000       0.088301       0.076449       0.309499
      19.610000       0.088247       0.076359       0.310767
      19.620000       0.088215       0.076335       0.311653
      19.630000       0.088186       0.076358       0.312186
      19.640000       0.088144       0.076409       0.312452
      19.650000       0.088085       0.076474       0.312575
      19.660000       0.088011       0.076545       0.312676
      19.670000       0.087935       0.076617       0.312841
      19.680000       0.087872       0.076688       0.313103
      19.690000       0.087835       0.076758       0.313436
      19.700000       0.087829       0.076829       0.313777
      19.710000       0.087851       0.076903       0.314044
      19.720000       0.087889       0.076986       0.314166
      19.730000       0.087925       0.077081       0.314096
      19.740000       0.087938       0.077196       0.313810
      19.750000       0.087910       0.077333       0.313292
      19.760000       0.087826       0.077494       0.312519
      19.770000       0.087683       0.077676       0.311458
      19.780000       0.087483       0.077870       0.310072
      19.790000       0.087234       0.078067       0.308337
      19.800000       0.086943       0.078251       0.306261
      19.810000       0.086614       0.078407       0.303893
      19.820000       0.086247       0.078518       0.301317
      19.830000       0.085837       0.078570       0.298640
      19.840000       0.085378       0.078553       0.295975
      19.850000       0.084868       0.078463       0.293413
      19.860000       0.084308       0.078303       0.291018
      19.870000       0.083710       0.078085       0.288816
      19.880000       0.083094       0.077828       0.286802
      19.890000       0.082487       0.077553       0.284953
      19.900000       0.081922       0.077286       0.283237
      19.910000       0.081428       0.077046       0.281626
      19.920000       0.081031       0.076850       0.280095
      19.930000       0.080747       0.076702       0.278626
      19.940000       0.080583       0.076602       0.277207
      19.950000       0.080537       0.076538       0.275824
      19.960000       0.080597       0.076497       0.274467
      19.970000       0.080747       0.076460       0.273121
      19.980000       0.080965       0.076409       0.271767
      19.990000       0.081223       0.076329       0.270378
      20.000000       0.081493       0.076208       0.268926
