  # energy grid [eV]     epsr_x  epsr_y  epsr_z
       0.000000            NaN            NaN            NaN
       0.010000 -109689.630510  -89634.852964       2.065122
       0.020000  -27418.899749  -22405.971657       2.065335
       0.030000  -12183.579437   -9956.179283       2.065688
       0.040000   -6851.217688   -5598.752653       2.066180
       0.050000   -4383.096552   -3581.887625       2.066808
       0.060000   -3042.389660   -2486.308029       2.067569
       0.070000   -2233.986935   -1825.709971       2.068456
       0.080000   -1709.304112   -1396.958848       2.069460
       0.090000   -1349.585317   -1103.011478       2.070570
       0.100000   -1092.282900    -892.756166       2.071768
       0.110000    -901.910667    -737.194927       2.073030
       0.120000    -757.119324    -618.881950       2.074322
       0.130000    -644.439588    -526.810650       2.075602
       0.140000    -555.033025    -453.758524       2.076808
       0.150000    -482.904967    -394.826789       2.077863
       0.160000    -423.873254    -346.597658       2.078666
       0.170000    -374.948356    -306.627833       2.079093
       0.180000    -333.947453    -273.133197       2.078993
       0.190000    -299.246703    -244.786461       2.078194
       0.200000    -269.617913    -220.583757       2.076515
       0.210000    -244.118260    -199.754566       2.073787
       0.220000    -222.014267    -181.699593       2.069884
       0.230000    -202.728396    -165.947094       2.064754
       0.240000    -185.800877    -152.121663       2.058454
       0.250000    -170.862021    -139.921563       2.051151
       0.260000    -157.611830    -129.102046       2.043102
       0.270000    -145.804806    -119.462913       2.034602
       0.280000    -135.238484    -110.839110       2.025930
       0.290000    -125.744685    -103.093541       2.017309
       0.300000    -117.182777     -96.111495       2.008897
       0.310000    -109.434430     -89.796294       2.000807
       0.320000    -102.399504     -84.065877       1.993130
       0.330000     -95.992793     -78.850128       1.985948
       0.340000     -90.141428     -74.088816       1.979333
       0.350000     -84.782794     -69.730017       1.973334
       0.360000     -79.862846     -65.728888       1.967969
       0.370000     -75.334738     -62.046664       1.963212
       0.380000     -71.157701     -58.649794       1.958997
       0.390000     -67.296120     -55.509165       1.955240
       0.400000     -63.718774     -52.599424       1.951861
       0.410000     -60.398196     -49.898379       1.948820
       0.420000     -57.310147     -47.386513       1.946129
       0.430000     -54.433166     -45.046573       1.943849
       0.440000     -51.748202     -42.863245       1.942065
       0.450000     -49.238291     -40.822885       1.940841
       0.460000     -46.888288     -38.913295       1.940191
       0.470000     -44.684637     -37.123545       1.940067
       0.480000     -42.615173     -35.443813       1.940360
       0.490000     -40.668958     -33.865254       1.940921
       0.500000     -38.836126     -32.379886       1.941583
       0.510000     -37.107769     -30.980492       1.942180
       0.520000     -35.475816     -29.660535       1.942569
       0.530000     -33.932948     -28.414082       1.942640
       0.540000     -32.472508     -27.235740       1.942324
       0.550000     -31.088434     -26.120596       1.941596
       0.560000     -29.775194     -25.064171       1.940479
       0.570000     -28.527728     -24.062370       1.939027
       0.580000     -27.341403     -23.111448       1.937327
       0.590000     -26.211968     -22.207972       1.935481
       0.600000     -25.135516     -21.348791       1.933593
       0.610000     -24.108452     -20.531009       1.931757
       0.620000     -23.127461     -19.751959       1.930036
       0.630000     -22.189484     -19.009185       1.928452
       0.640000     -21.291696     -18.300419       1.926984
       0.650000     -20.431485     -17.623564       1.925579
       0.660000     -19.606434     -16.976681       1.924177
       0.670000     -18.814309     -16.357973       1.922740
       0.680000     -18.053048     -15.765773       1.921266
       0.690000     -17.320746     -15.198534       1.919797
       0.700000     -16.615650     -14.654814       1.918401
       0.710000     -15.936152     -14.133276       1.917144
       0.720000     -15.280775     -13.632669       1.916072
       0.730000     -14.648162     -13.151830       1.915208
       0.740000     -14.037056     -12.689671       1.914553
       0.750000     -13.446263     -12.245174       1.914105
       0.760000     -12.874617     -11.817390       1.913859
       0.770000     -12.320934     -11.405428       1.913811
       0.780000     -11.783979     -11.008454       1.913944
       0.790000     -11.262470     -10.625686       1.914214
       0.800000     -10.755124     -10.256393       1.914556
       0.810000     -10.260754      -9.899887       1.914880
       0.820000      -9.778383      -9.555527       1.915098
       0.830000      -9.307353      -9.222712       1.915133
       0.840000      -8.847402      -8.900883       1.914940
       0.850000      -8.398716      -8.589522       1.914517
       0.860000      -7.961976      -8.288149       1.913901
       0.870000      -7.538420      -7.996329       1.913158
       0.880000      -7.129937      -7.713672       1.912370
       0.890000      -6.739191      -7.439834       1.911610
       0.900000      -6.369762      -7.174523       1.910934
       0.910000      -6.026268      -6.917505       1.910363
       0.920000      -5.714419      -6.668603       1.909890
       0.930000      -5.440900      -6.427695       1.909487
       0.940000      -5.213001      -6.194711       1.909121
       0.950000      -5.037870      -5.969608       1.908774
       0.960000      -4.921379      -5.752344       1.908457
       0.970000      -4.866747      -5.542829       1.908213
       0.980000      -4.873291      -5.340879       1.908100
       0.990000      -4.935794      -5.146179       1.908171
       1.000000      -5.044889      -4.958263       1.908454
       1.010000      -5.188419      -4.776536       1.908940
       1.020000      -5.353315      -4.600307       1.909586
       1.030000      -5.527426      -4.428849       1.910328
       1.040000      -5.700936      -4.261460       1.911097
       1.050000      -5.867236      -4.097532       1.911839
       1.060000      -6.023156      -3.936602       1.912526
       1.070000      -6.168401      -3.778374       1.913159
       1.080000      -6.304255      -3.622697       1.913768
       1.090000      -6.432071      -3.469529       1.914395
       1.100000      -6.552262      -3.318901       1.915081
       1.110000      -6.664279      -3.170908       1.915844
       1.120000      -6.767369      -3.025738       1.916679
       1.130000      -6.861363      -2.883709       1.917551
       1.140000      -6.946730      -2.745286       1.918409
       1.150000      -7.023712      -2.611066       1.919201
       1.160000      -7.091058      -2.481730       1.919889
       1.170000      -7.145237      -2.357954       1.920462
       1.180000      -7.180752      -2.240297       1.920940
       1.190000      -7.191523      -2.129060       1.921368
       1.200000      -7.172663      -2.024139       1.921805
       1.210000      -7.121801      -1.924911       1.922299
       1.220000      -7.039496      -1.830246       1.922875
       1.230000      -6.928789      -1.738685       1.923523
       1.240000      -6.794304      -1.648775       1.924197
       1.250000      -6.641304      -1.559456       1.924830
       1.260000      -6.474943      -1.470361       1.925343
       1.270000      -6.299786      -1.381919       1.925673
       1.280000      -6.119557      -1.295257       1.925786
       1.290000      -5.937076      -1.211953       1.925695
       1.300000      -5.754310      -1.133688       1.925457
       1.310000      -5.572528      -1.061881       1.925169
       1.320000      -5.392513      -0.997354       1.924939
       1.330000      -5.214785      -0.940123       1.924861
       1.340000      -5.039784      -0.889397       1.924991
       1.350000      -4.867983      -0.843821       1.925332
       1.360000      -4.699933      -0.801859       1.925840
       1.370000      -4.536255      -0.762148       1.926431
       1.380000      -4.377588      -0.723628       1.927004
       1.390000      -4.224530      -0.685440       1.927459
       1.400000      -4.077538      -0.646713       1.927718
       1.410000      -3.936819      -0.606450       1.927744
       1.420000      -3.802213      -0.563644       1.927543
       1.430000      -3.673125      -0.517604       1.927168
       1.440000      -3.548530      -0.468295       1.926694
       1.450000      -3.427112      -0.416536       1.926206
       1.460000      -3.307486      -0.363934       1.925772
       1.470000      -3.188450      -0.312589       1.925440
       1.480000      -3.069156      -0.264632       1.925237
       1.490000      -2.949169      -0.221699       1.925175
       1.500000      -2.828423      -0.184471       1.925256
       1.510000      -2.707114      -0.152406       1.925472
       1.520000      -2.585598      -0.123821       1.925802
       1.530000      -2.464299      -0.096354       1.926217
       1.540000      -2.343674      -0.067713       1.926682
       1.550000      -2.224185      -0.036425       1.927167
       1.560000      -2.106313      -0.002327       1.927654
       1.570000      -1.990568       0.033319       1.928147
       1.580000      -1.877504       0.068082       1.928673
       1.590000      -1.767733       0.098853       1.929281
       1.600000      -1.661913       0.122473       1.930027
       1.610000      -1.560716       0.136421       1.930958
       1.620000      -1.464766       0.139461       1.932096
       1.630000      -1.374557       0.132115       1.933431
       1.640000      -1.290362       0.116780       1.934919
       1.650000      -1.212176       0.097353       1.936491
       1.660000      -1.139701       0.078436       1.938066
       1.670000      -1.072400       0.064373       1.939562
       1.680000      -1.009605       0.058459       1.940914
       1.690000      -0.950652       0.062530       1.942082
       1.700000      -0.895029       0.076926       1.943057
       1.710000      -0.842480       0.100700       1.943865
       1.720000      -0.793036       0.131912       1.944552
       1.730000      -0.746932       0.167948       1.945174
       1.740000      -0.704467       0.205827       1.945782
       1.750000      -0.665879       0.242482       1.946408
       1.760000      -0.631318       0.275034       1.947067
       1.770000      -0.600916       0.301058       1.947754
       1.780000      -0.574887       0.318846       1.948456
       1.790000      -0.553558       0.327642       1.949162
       1.800000      -0.537303       0.327729       1.949872
       1.810000      -0.526416       0.320282       1.950599
       1.820000      -0.521018       0.306987       1.951364
       1.830000      -0.521048       0.289580       1.952182
       1.840000      -0.526316       0.269538       1.953049
       1.850000      -0.536570       0.248068       1.953937
       1.860000      -0.551536       0.226328       1.954800
       1.870000      -0.570977       0.205656       1.955588
       1.880000      -0.594789       0.187578       1.956255
       1.890000      -0.623142       0.173543       1.956776
       1.900000      -0.656565       0.164543       1.957148
       1.910000      -0.695912       0.160846       1.957392
       1.920000      -0.742201       0.161970       1.957539
       1.930000      -0.796378       0.166859       1.957619
       1.940000      -0.859085       0.174107       1.957658
       1.950000      -0.930407       0.182116       1.957664
       1.960000      -1.009630       0.189199       1.957637
       1.970000      -1.095004       0.193700       1.957562
       1.980000      -1.183628       0.194219       1.957424
       1.990000      -1.271551       0.189897       1.957209
       2.000000      -1.354144       0.180670       1.956914
       2.010000      -1.426730       0.167359       1.956550
       2.020000      -1.485315       0.151548       1.956142
       2.030000      -1.527179       0.135312       1.955733
       2.040000      -1.551151       0.120880       1.955381
       2.050000      -1.557522       0.110291       1.955150
       2.060000      -1.547693       0.105107       1.955099
       2.070000      -1.523738       0.106218       1.955265
       2.080000      -1.488005       0.113796       1.955653
       2.090000      -1.442820       0.127380       1.956227
       2.100000      -1.390320       0.146026       1.956918
       2.110000      -1.332366       0.168433       1.957636
       2.120000      -1.270541       0.193016       1.958284
       2.130000      -1.206165       0.217972       1.958775
       2.140000      -1.140341       0.241406       1.959042
       2.150000      -1.073985       0.261560       1.959034
       2.160000      -1.007854       0.277127       1.958716
       2.170000      -0.942570       0.287534       1.958066
       2.180000      -0.878642       0.293086       1.957074
       2.190000      -0.816481       0.294860       1.955752
       2.200000      -0.756420       0.294346       1.954136
       2.210000      -0.698719       0.292981       1.952285
       2.220000      -0.643554       0.291779       1.950279
       2.230000      -0.590979       0.291219       1.948200
       2.240000      -0.540885       0.291396       1.946123
       2.250000      -0.492970       0.292332       1.944107
       2.260000      -0.446741       0.294275       1.942200
       2.270000      -0.401586       0.297856       1.940432
       2.280000      -0.356865       0.304081       1.938829
       2.290000      -0.312035       0.314146       1.937404
       2.300000      -0.266725       0.329146       1.936155
       2.310000      -0.220777       0.349794       1.935070
       2.320000      -0.174229       0.376236       1.934126
       2.330000      -0.127265       0.408004       1.933307
       2.340000      -0.080170       0.444113       1.932611
       2.350000      -0.033283       0.483211       1.932056
       2.360000       0.013037       0.523745       1.931674
       2.370000       0.058435       0.564103       1.931504
       2.380000       0.102579       0.602738       1.931583
       2.390000       0.145195       0.638282       1.931938
       2.400000       0.186096       0.669681       1.932583
       2.410000       0.225219       0.696322       1.933520
       2.420000       0.262648       0.718144       1.934737
       2.430000       0.298601       0.735673       1.936208
       2.440000       0.333372       0.749942       1.937894
       2.450000       0.367257       0.762295       1.939736
       2.460000       0.400468       0.774108       1.941658
       2.470000       0.433078       0.786516       1.943563
       2.480000       0.465008       0.800197       1.945343
       2.490000       0.496055       0.815294       1.946890
       2.500000       0.525941       0.831459       1.948107
       2.510000       0.554377       0.848009       1.948923
       2.520000       0.581136       0.864120       1.949298
       2.530000       0.606112       0.879032       1.949220
       2.540000       0.629347       0.892208       1.948700
       2.550000       0.651002       0.903426       1.947763
       2.560000       0.671262       0.912770       1.946439
       2.570000       0.690231       0.920530       1.944753
       2.580000       0.707839       0.927063       1.942731
       2.590000       0.723838       0.932688       1.940393
       2.600000       0.737864       0.937696       1.937756
       2.610000       0.749534       0.942450       1.934838
       2.620000       0.758531       0.947511       1.931665
       2.630000       0.764630       0.953670       1.928277
       2.640000       0.767667       0.961859       1.924738
       2.650000       0.767494       0.972948       1.921143
       2.660000       0.763966       0.987522       1.917615
       2.670000       0.756999       1.005755       1.914309
       2.680000       0.746684       1.027391       1.911384
       2.690000       0.733413       1.051835       1.908987
       2.700000       0.717981       1.078295       1.907226
       2.710000       0.701599       1.105919       1.906161
       2.720000       0.685806       1.133911       1.905799
       2.730000       0.672266       1.161615       1.906106
       2.740000       0.662501       1.188576       1.907018
       2.750000       0.657653       1.214565       1.908453
       2.760000       0.658339       1.239570       1.910318
       2.770000       0.664646       1.263736       1.912517
       2.780000       0.676222       1.287283       1.914954
       2.790000       0.692429       1.310416       1.917543
       2.800000       0.712485       1.333283       1.920215
       2.810000       0.735578       1.355960       1.922917
       2.820000       0.760943       1.378465       1.925613
       2.830000       0.787910       1.400776       1.928282
       2.840000       0.815930       1.422826       1.930910
       2.850000       0.844585       1.444514       1.933491
       2.860000       0.873580       1.465717       1.936024
       2.870000       0.902719       1.486339       1.938511
       2.880000       0.931867       1.506343       1.940949
       2.890000       0.960923       1.525774       1.943320
       2.900000       0.989789       1.544735       1.945593
       2.910000       1.018372       1.563314       1.947724
       2.920000       1.046586       1.581514       1.949666
       2.930000       1.074369       1.599198       1.951384
       2.940000       1.101700       1.616114       1.952864
       2.950000       1.128600       1.631969       1.954109
       2.960000       1.155134       1.646536       1.955133
       2.970000       1.181393       1.659733       1.955936
       2.980000       1.207475       1.671650       1.956485
       2.990000       1.233459       1.682516       1.956700
       3.000000       1.259392       1.692651       1.956464
       3.010000       1.285283       1.702420       1.955641
       3.020000       1.311115       1.712234       1.954119
       3.030000       1.336867       1.722552       1.951841
       3.040000       1.362529       1.733873       1.948838
       3.050000       1.388113       1.746689       1.945240
       3.060000       1.413652       1.761426       1.941262
       3.070000       1.439177       1.778396       1.937170
       3.080000       1.464714       1.797803       1.933246
       3.090000       1.490270       1.819755       1.929751
       3.100000       1.515838       1.844307       1.926893
       3.110000       1.541406       1.871462       1.924818
       3.120000       1.566958       1.901164       1.923598
       3.130000       1.592479       1.933275       1.923241
       3.140000       1.617963       1.967556       1.923702
       3.150000       1.643417       2.003673       1.924894
       3.160000       1.668864       2.041207       1.926710
       3.170000       1.694335       2.079678       1.929024
       3.180000       1.719855       2.118561       1.931703
       3.190000       1.745428       2.157300       1.934613
       3.200000       1.771017       2.195327       1.937623
       3.210000       1.796551       2.232091       1.940608
       3.220000       1.821938       2.267092       1.943459
       3.230000       1.847100       2.299933       1.946085
       3.240000       1.871998       2.330351       1.948419
       3.250000       1.896661       2.358215       1.950416
       3.260000       1.921188       2.383455       1.952065
       3.270000       1.945728       2.405943       1.953385
       3.280000       1.970451       2.425359       1.954435
       3.290000       1.995500       2.441097       1.955312
       3.300000       2.020960       2.452272       1.956145
       3.310000       2.046844       2.457828       1.957073
       3.320000       2.073080       2.456720       1.958230
       3.330000       2.099534       2.448119       1.959713
       3.340000       2.126024       2.431562       1.961573
       3.350000       2.152357       2.407034       1.963804
       3.360000       2.178361       2.374950       1.966355
       3.370000       2.203906       2.336102       1.969137
       3.380000       2.228920       2.291603       1.972042
       3.390000       2.253377       2.242874       1.974955
       3.400000       2.277274       2.191673       1.977760
       3.410000       2.300612       2.140121       1.980350
       3.420000       2.323393       2.090646       1.982632
       3.430000       2.345642       2.045805       1.984532
       3.440000       2.367444       2.007997       1.986002
       3.450000       2.388976       1.979144       1.987029
       3.460000       2.410518       1.960438       1.987630
       3.470000       2.432438       1.952217       1.987856
       3.480000       2.455140       1.953985       1.987774
       3.490000       2.479013       1.964552       1.987451
       3.500000       2.504359       1.982226       1.986937
       3.510000       2.531334       2.005033       1.986259
       3.520000       2.559915       2.030903       1.985422
       3.530000       2.589886       2.057836       1.984429
       3.540000       2.620865       2.084044       1.983302
       3.550000       2.652339       2.108065       1.982088
       3.560000       2.683716       2.128863       1.980862
       3.570000       2.714368       2.145882       1.979717
       3.580000       2.743684       2.159040       1.978736
       3.590000       2.771127       2.168650       1.977980
       3.600000       2.796291       2.175286       1.977478
       3.610000       2.818954       2.179599       1.977239
       3.620000       2.839089       2.182164       1.977262
       3.630000       2.856827       2.183398       1.977551
       3.640000       2.872353       2.183596       1.978131
       3.650000       2.885811       2.183075       1.979041
       3.660000       2.897263       2.182354       1.980324
       3.670000       2.906743       2.182255       1.982012
       3.680000       2.914379       2.183858       1.984113
       3.690000       2.920502       2.188289       1.986604
       3.700000       2.925637       2.196464       1.989435
       3.710000       2.930372       2.208894       1.992532
       3.720000       2.935142       2.225603       1.995814
       3.730000       2.940052       2.246167       1.999198
       3.740000       2.944841       2.269807       2.002617
       3.750000       2.948979       2.295502       2.006017
       3.760000       2.951835       2.322093       2.009358
       3.770000       2.952813       2.348374       2.012612
       3.780000       2.951379       2.373184       2.015755
       3.790000       2.947036       2.395477       2.018768
       3.800000       2.939320       2.414386       2.021639
       3.810000       2.927911       2.429231       2.024364
       3.820000       2.912852       2.439501       2.026949
       3.830000       2.894754       2.444806       2.029404
       3.840000       2.874851       2.444857       2.031742
       3.850000       2.854833       2.439495       2.033971
       3.860000       2.836530       2.428783       2.036101
       3.870000       2.821582       2.413110       2.038148
       3.880000       2.811219       2.393262       2.040134
       3.890000       2.806157       2.370411       2.042092
       3.900000       2.806565       2.346033       2.044057
       3.910000       2.812078       2.321783       2.046050
       3.920000       2.821854       2.299377       2.048064
       3.930000       2.834700       2.280505       2.050052
       3.940000       2.849240       2.266738       2.051919
       3.950000       2.864050       2.259427       2.053542
       3.960000       2.877742       2.259576       2.054783
       3.970000       2.889014       2.267737       2.055527
       3.980000       2.896711       2.283950       2.055705
       3.990000       2.899964       2.307753       2.055316
       4.000000       2.898375       2.338241       2.054434
       4.010000       2.892148       2.374180       2.053197
       4.020000       2.882051       2.414143       2.051782
       4.030000       2.869137       2.456651       2.050376
       4.040000       2.854295       2.500299       2.049152
       4.050000       2.837804       2.543837       2.048250
       4.060000       2.819095       2.586188       2.047761
       4.070000       2.796824       2.626405       2.047730
       4.080000       2.769263       2.663607       2.048152
       4.090000       2.734847       2.696927       2.048980
       4.100000       2.692672       2.725508       2.050129
       4.110000       2.642788       2.748542       2.051495
       4.120000       2.586179       2.765326       2.052964
       4.130000       2.524490       2.775289       2.054432
       4.140000       2.459638       2.777990       2.055805
       4.150000       2.393469       2.773097       2.057010
       4.160000       2.327543       2.760351       2.057986
       4.170000       2.263077       2.739553       2.058685
       4.180000       2.200962       2.710567       2.059075
       4.190000       2.141834       2.673314       2.059138
       4.200000       2.086159       2.627739       2.058878
       4.210000       2.034336       2.573734       2.058320
       4.220000       1.986820       2.511090       2.057509
       4.230000       1.944248       2.439552       2.056496
       4.240000       1.907512       2.359033       2.055332
       4.250000       1.877729       2.269945       2.054059
       4.260000       1.856067       2.173555       2.052718
       4.270000       1.843453       2.072210       2.051358
       4.280000       1.840280       1.969320       2.050038
       4.290000       1.846219       1.869027       2.048828
       4.300000       1.860208       1.775613       2.047796
       4.310000       1.880610       1.692835       2.046997
       4.320000       1.905457       1.623382       2.046466
       4.330000       1.932694       1.568642       2.046221
       4.340000       1.960351       1.528752       2.046261
       4.350000       1.986607       1.502844       2.046563
       4.360000       2.009768       1.489348       2.047076
       4.370000       2.028206       1.486270       2.047712
       4.380000       2.040344       1.491423       2.048344
       4.390000       2.044720       1.502644       2.048833
       4.400000       2.040148       1.517984       2.049056
       4.410000       2.025894       1.535893       2.048941
       4.420000       2.001808       1.555330       2.048493
       4.430000       1.968348       1.575766       2.047796
       4.440000       1.926526       1.597041       2.046991
       4.450000       1.877805       1.619115       2.046243
       4.460000       1.823987       1.641807       2.045704
       4.470000       1.767103       1.664619       2.045483
       4.480000       1.709295       1.686702       2.045626
       4.490000       1.652675       1.706967       2.046110
       4.500000       1.599177       1.724279       2.046856
       4.510000       1.550404       1.737671       2.047743
       4.520000       1.507514       1.746514       2.048640
       4.530000       1.471163       1.750604       2.049427
       4.540000       1.441538       1.750150       2.050014
       4.550000       1.418476       1.745717       2.050348
       4.560000       1.401651       1.738150       2.050406
       4.570000       1.390734       1.728539       2.050183
       4.580000       1.385466       1.718164       2.049672
       4.590000       1.385614       1.708375       2.048856
       4.600000       1.390870       1.700376       2.047710
       4.610000       1.400783       1.694966       2.046209
       4.620000       1.414755       1.692325       2.044340
       4.630000       1.432085       1.691941       2.042116
       4.640000       1.452001       1.692687       2.039576
       4.650000       1.473624       1.693026       2.036786
       4.660000       1.495912       1.691272       2.033836
       4.670000       1.517632       1.685890       2.030835
       4.680000       1.537435       1.675767       2.027901
       4.690000       1.553994       1.660423       2.025158
       4.700000       1.566195       1.640092       2.022725
       4.710000       1.573288       1.615638       2.020702
       4.720000       1.575009       1.588330       2.019159
       4.730000       1.571652       1.559570       2.018136
       4.740000       1.564093       1.530686       2.017634
       4.750000       1.553731       1.502874       2.017630
       4.760000       1.542340       1.477279       2.018080
       4.770000       1.531842       1.455130       2.018928
       4.780000       1.524069       1.437780       2.020109
       4.790000       1.520591       1.426605       2.021554
       4.800000       1.522603       1.422747       2.023195
       4.810000       1.530864       1.426845       2.024962
       4.820000       1.545628       1.438847       2.026786
       4.830000       1.566585       1.458000       2.028592
       4.840000       1.592835       1.482979       2.030304
       4.850000       1.622934       1.512097       2.031847
       4.860000       1.655002       1.543509       2.033159
       4.870000       1.686898       1.575365       2.034206
       4.880000       1.716414       1.605915       2.034990
       4.890000       1.741490       1.633599       2.035560
       4.900000       1.760402       1.657108       2.036012
       4.910000       1.771888       1.675450       2.036483
       4.920000       1.775175       1.687980       2.037130
       4.930000       1.769931       1.694410       2.038106
       4.940000       1.756185       1.694798       2.039540
       4.950000       1.734311       1.689527       2.041523
       4.960000       1.705083       1.679286       2.044099
       4.970000       1.669759       1.665027       2.047271
       4.980000       1.630078       1.647864       2.051005
       4.990000       1.588119       1.628919       2.055231
       5.000000       1.546075       1.609144       2.059852
       5.010000       1.506033       1.589191       2.064754
       5.020000       1.469833       1.569376       2.069810
       5.030000       1.438979       1.549711       2.074894
       5.040000       1.414558       1.529988       2.079893
       5.050000       1.397166       1.509874       2.084717
       5.060000       1.386896       1.489021       2.089307
       5.070000       1.383413       1.467191       2.093639
       5.080000       1.386113       1.444382       2.097715
       5.090000       1.394283       1.420951       2.101551
       5.100000       1.407185       1.397683       2.105160
       5.110000       1.424061       1.375764       2.108541
       5.120000       1.444070       1.356625       2.111673
       5.130000       1.466214       1.341660       2.114515
       5.140000       1.489291       1.331900       2.117015
       5.150000       1.511892       1.327742       2.119117
       5.160000       1.532461       1.328826       2.120771
       5.170000       1.549411       1.334077       2.121934
       5.180000       1.561281       1.341891       2.122583
       5.190000       1.566949       1.350409       2.122717
       5.200000       1.565863       1.357811       2.122371
       5.210000       1.558256       1.362576       2.121615
       5.220000       1.545211       1.363660       2.120555
       5.230000       1.528512       1.360559       2.119315
       5.240000       1.510241       1.353239       2.118013
       5.250000       1.492257       1.341979       2.116753
       5.260000       1.475755       1.327204       2.115613
       5.270000       1.461066       1.309356       2.114652
       5.280000       1.447774       1.288872       2.113921
       5.290000       1.435069       1.266234       2.113465
       5.300000       1.422197       1.242079       2.113337
       5.310000       1.408859       1.217299       2.113589
       5.320000       1.395439       1.193074       2.114279
       5.330000       1.383000       1.170807       2.115456
       5.340000       1.373055       1.151953       2.117153
       5.350000       1.367217       1.137827       2.119381
       5.360000       1.366827       1.129466       2.122124
       5.370000       1.372690       1.127593       2.125345
       5.380000       1.384955       1.132631       2.128995
       5.390000       1.403152       1.144707       2.133013
       5.400000       1.426318       1.163626       2.137339
       5.410000       1.453162       1.188830       2.141915
       5.420000       1.482217       1.219391       2.146688
       5.430000       1.511926       1.254066       2.151614
       5.440000       1.540679       1.291379       2.156662
       5.450000       1.566808       1.329723       2.161807
       5.460000       1.588592       1.367445       2.167026
       5.470000       1.604324       1.402933       2.172293
       5.480000       1.612483       1.434693       2.177571
       5.490000       1.611960       1.461475       2.182809
       5.500000       1.602320       1.482416       2.187949
       5.510000       1.583972       1.497185       2.192926
       5.520000       1.558201       1.506060       2.197674
       5.530000       1.527006       1.509880       2.202129
       5.540000       1.492785       1.509865       2.206240
       5.550000       1.457963       1.507341       2.209974
       5.560000       1.424686       1.503469       2.213323
       5.570000       1.394649       1.499051       2.216311
       5.580000       1.369047       1.494463       2.218991
       5.590000       1.348606       1.489693       2.221433
       5.600000       1.333624       1.484471       2.223709
       5.610000       1.324006       1.478425       2.225873
       5.620000       1.319327       1.471252       2.227948
       5.630000       1.318939       1.462867       2.229922
       5.640000       1.322122       1.453471       2.231753
       5.650000       1.328259       1.443547       2.233380
       5.660000       1.336996       1.433793       2.234741
       5.670000       1.348316       1.425032       2.235786
       5.680000       1.362478       1.418126       2.236492
       5.690000       1.379842       1.413871       2.236864
       5.700000       1.400616       1.412865       2.236937
       5.710000       1.424660       1.415362       2.236765
       5.720000       1.451378       1.421155       2.236418
       5.730000       1.479759       1.429546       2.235977
       5.740000       1.508480       1.439395       2.235528
       5.750000       1.536050       1.449250       2.235170
       5.760000       1.560929       1.457533       2.235006
       5.770000       1.581627       1.462768       2.235144
       5.780000       1.596801       1.463839       2.235682
       5.790000       1.605373       1.460213       2.236701
       5.800000       1.606680       1.452056       2.238245
       5.810000       1.600612       1.440199       2.240325
       5.820000       1.587670       1.425936       2.242914
       5.830000       1.568894       1.410759       2.245960
       5.840000       1.545662       1.396105       2.249396
       5.850000       1.519457       1.383229       2.253152
       5.860000       1.491683       1.373179       2.257160
       5.870000       1.463588       1.366842       2.261351
       5.880000       1.436277       1.364976       2.265656
       5.890000       1.410754       1.368184       2.270001
       5.900000       1.387938       1.376831       2.274311
       5.910000       1.368632       1.390929       2.278524
       5.920000       1.353465       1.410054       2.282601
       5.930000       1.342862       1.433337       2.286538
       5.940000       1.337070       1.459539       2.290364
       5.950000       1.336222       1.487201       2.294134
       5.960000       1.340395       1.514809       2.297918
       5.970000       1.349615       1.540955       2.301781
       5.980000       1.363825       1.564465       2.305770
       5.990000       1.382834       1.584478       2.309898
       6.000000       1.406278       1.600466       2.314137
       6.010000       1.433588       1.612195       2.318416
       6.020000       1.463978       1.619655       2.322629
       6.030000       1.496468       1.623004       2.326644
       6.040000       1.529952       1.622547       2.330321
       6.050000       1.563352       1.618760       2.333525
       6.060000       1.595809       1.612341       2.336147
       6.070000       1.626885       1.604233       2.338121
       6.080000       1.656668       1.595610       2.339443
       6.090000       1.685728       1.587789       2.340181
       6.100000       1.714903       1.582080       2.340465
       6.110000       1.744982       1.579584       2.340470
       6.120000       1.776402       1.580991       2.340372
       6.130000       1.809068       1.586456       2.340316
       6.140000       1.842341       1.595577       2.340388
       6.150000       1.875171       1.607511       2.340610
       6.160000       1.906313       1.621163       2.340956
       6.170000       1.934531       1.635415       2.341372
       6.180000       1.958742       1.649323       2.341816
       6.190000       1.978035       1.662238       2.342271
       6.200000       1.991622       1.673823       2.342759
       6.210000       1.998767       1.683984       2.343333
       6.220000       1.998812       1.692749       2.344060
       6.230000       1.991323       1.700146       2.345009
       6.240000       1.976298       1.706106       2.346238
       6.250000       1.954356       1.710394       2.347798
       6.260000       1.926769       1.712564       2.349729
       6.270000       1.895323       1.711972       2.352066
       6.280000       1.862053       1.707858       2.354835
       6.290000       1.828928       1.699499       2.358050
       6.300000       1.797610       1.686372       2.361715
       6.310000       1.769305       1.668268       2.365824
       6.320000       1.744726       1.645307       2.370360
       6.330000       1.724126       1.617872       2.375295
       6.340000       1.707368       1.586517       2.380588
       6.350000       1.694041       1.551940       2.386177
       6.360000       1.683613       1.515035       2.391987
       6.370000       1.675581       1.476971       2.397933
       6.380000       1.669586       1.439193       2.403922
       6.390000       1.665431       1.403295       2.409864
       6.400000       1.663037       1.370796       2.415666
       6.410000       1.662359       1.342920       2.421239
       6.420000       1.663303       1.320491       2.426491
       6.430000       1.665655       1.303970       2.431334
       6.440000       1.669012       1.293576       2.435693
       6.450000       1.672767       1.289418       2.439506
       6.460000       1.676168       1.291544       2.442743
       6.470000       1.678466       1.299937       2.445407
       6.480000       1.679132       1.314458       2.447548
       6.490000       1.678060       1.334775       2.449264
       6.500000       1.675682       1.360302       2.450692
       6.510000       1.672916       1.390170       2.451997
       6.520000       1.670936       1.423245       2.453341
       6.530000       1.670810       1.458211       2.454860
       6.540000       1.673168       1.493692       2.456648
       6.550000       1.678011       1.528411       2.458747
       6.560000       1.684757       1.561327       2.461155
       6.570000       1.692463       1.591753       2.463842
       6.580000       1.700100       1.619420       2.466764
       6.590000       1.706760       1.644483       2.469884
       6.600000       1.711710       1.667461       2.473182
       6.610000       1.714324       1.689100       2.476663
       6.620000       1.713957       1.710176       2.480352
       6.630000       1.709865       1.731298       2.484286
       6.640000       1.701215       1.752742       2.488495
       6.650000       1.687203       1.774383       2.492991
       6.660000       1.667249       1.795720       2.497755
       6.670000       1.641198       1.815970       2.502740
       6.680000       1.609442       1.834218       2.507878
       6.690000       1.572891       1.849595       2.513083
       6.700000       1.532777       1.861466       2.518280
       6.710000       1.490366       1.869590       2.523407
       6.720000       1.446703       1.874193       2.528433
       6.730000       1.402513       1.875933       2.533352
       6.740000       1.358277       1.875763       2.538178
       6.750000       1.314439       1.874771       2.542944
       6.760000       1.271626       1.874052       2.547690
       6.770000       1.230813       1.874623       2.552461
       6.780000       1.193345       1.877343       2.557304
       6.790000       1.160806       1.882794       2.562258
       6.800000       1.134726       1.891105       2.567360
       6.810000       1.116218       1.901790       2.572641
       6.820000       1.105655       1.913657       2.578140
       6.830000       1.102493       1.924837       2.583906
       6.840000       1.105285       1.932952       2.589992
       6.850000       1.111848       1.935383       2.596457
       6.860000       1.119514       1.929618       2.603342
       6.870000       1.125418       1.913625       2.610664
       6.880000       1.126792       1.886186       2.618409
       6.890000       1.121222       1.847116       2.626534
       6.900000       1.106863       1.797325       2.634974
       6.910000       1.082571       1.738669       2.643655
       6.920000       1.047957       1.673669       2.652509
       6.930000       1.003379       1.605159       2.661480
       6.940000       0.949877       1.535957       2.670527
       6.950000       0.889100       1.468623       2.679619
       6.960000       0.823214       1.405329       2.688723
       6.970000       0.754813       1.347827       2.697798
       6.980000       0.686801       1.297510       2.706788
       6.990000       0.622205       1.255495       2.715629
       7.000000       0.563887       1.222648       2.724261
       7.010000       0.514183       1.199495       2.732657
       7.020000       0.474549       1.186056       2.740837
       7.030000       0.445356       1.181679       2.748875
       7.040000       0.425884       1.184977       2.756901
       7.050000       0.414541       1.193918       2.765067
       7.060000       0.409206       1.206030       2.773527
       7.070000       0.407609       1.218675       2.782401
       7.080000       0.407623       1.229309       2.791761
       7.090000       0.407424       1.235672       2.801627
       7.100000       0.405508       1.235893       2.811976
       7.110000       0.400630       1.228482       2.822750
       7.120000       0.391711       1.212282       2.833868
       7.130000       0.377794       1.186414       2.845236
       7.140000       0.358068       1.150335       2.856753
       7.150000       0.331982       1.104000       2.868320
       7.160000       0.299389       1.048094       2.879844
       7.170000       0.260684       0.984182       2.891234
       7.180000       0.216842       0.914648       2.902399
       7.190000       0.169336       0.842392       2.913253
       7.200000       0.119936       0.770392       2.923729
       7.210000       0.070481       0.701326       2.933796
       7.220000       0.022717       0.637384       2.943474
       7.230000      -0.021781       0.580285       2.952825
       7.240000      -0.061642       0.531366       2.961940
       7.250000      -0.095766       0.491619       2.970904
       7.260000      -0.123459       0.461630       2.979778
       7.270000      -0.144567       0.441484       2.988588
       7.280000      -0.159539       0.430707       2.997332
       7.290000      -0.169380       0.428298       3.005992
       7.300000      -0.175498       0.432825       3.014543
       7.310000      -0.179509       0.442543       3.022952
       7.320000      -0.183026       0.455524       3.031177
       7.330000      -0.187470       0.469811       3.039167
       7.340000      -0.193903       0.483607       3.046864
       7.350000      -0.202914       0.495482       3.054212
       7.360000      -0.214590       0.504535       3.061165
       7.370000      -0.228578       0.510456       3.067691
       7.380000      -0.244225       0.513437       3.073774
       7.390000      -0.260738       0.513999       3.079409
       7.400000      -0.277295       0.512801       3.084592
       7.410000      -0.293083       0.510534       3.089306
       7.420000      -0.307289       0.507888       3.093497
       7.430000      -0.319134       0.505527       3.097073
       7.440000      -0.327974       0.504012       3.099915
       7.450000      -0.333451       0.503655       3.101904
       7.460000      -0.335570       0.504396       3.102956
       7.470000      -0.334689       0.505774       3.103048
       7.480000      -0.331373       0.507039       3.102217
       7.490000      -0.326215       0.507358       3.100549
       7.500000      -0.319656       0.506060       3.098141
       7.510000      -0.311876       0.502807       3.095083
       7.520000      -0.302766       0.497677       3.091445
       7.530000      -0.291987       0.491105       3.087283
       7.540000      -0.279080       0.483748       3.082653
       7.550000      -0.263605       0.476312       3.077609
       7.560000      -0.245269       0.469396       3.072190
       7.570000      -0.224036       0.463401       3.066405
       7.580000      -0.200208       0.458490       3.060223
       7.590000      -0.174454       0.454601       3.053571
       7.600000      -0.147762       0.451474       3.046345
       7.610000      -0.121322       0.448672       3.038418
       7.620000      -0.096357       0.445623       3.029652
       7.630000      -0.073953       0.441695       3.019918
       7.640000      -0.054916       0.436324       3.009095
       7.650000      -0.039690       0.429162       2.997085
       7.660000      -0.028362       0.420199       2.983825
       7.670000      -0.020747       0.409790       2.969308
       7.680000      -0.016532       0.398567       2.953622
       7.690000      -0.015449       0.387287       2.936994
       7.700000      -0.017394       0.376678       2.919810
       7.710000      -0.022461       0.367357       2.902603
       7.720000      -0.030854       0.359836       2.885994
       7.730000      -0.042732       0.354543       2.870618
       7.740000      -0.058034       0.351833       2.857035
       7.750000      -0.076354       0.351934       2.845678
       7.760000      -0.096902       0.354880       2.836817
       7.770000      -0.118568       0.360489       2.830552
       7.780000      -0.140072       0.368412       2.826826
       7.790000      -0.160137       0.378246       2.825479
       7.800000      -0.177650       0.389672       2.826311
       7.810000      -0.191760       0.402564       2.829154
       7.820000      -0.201901       0.417018       2.833899
       7.830000      -0.207788       0.433293       2.840497
       7.840000      -0.209388       0.451679       2.848924
       7.850000      -0.206898       0.472347       2.859149
       7.860000      -0.200727       0.495242       2.871125
       7.870000      -0.191455       0.520050       2.884781
       7.880000      -0.179763       0.546248       2.900028
       7.890000      -0.166329       0.573209       2.916754
       7.900000      -0.151732       0.600330       2.934825
       7.910000      -0.136382       0.627135       2.954100
       7.920000      -0.120510       0.653343       2.974443
       7.930000      -0.104200       0.678866       2.995745
       7.940000      -0.087445       0.703759       3.017919
       7.950000      -0.070196       0.728151       3.040869
       7.960000      -0.052391       0.752173       3.064446
       7.970000      -0.033966       0.775924       3.088385
       7.980000      -0.014885       0.799454       3.112271
       7.990000       0.004828       0.822743       3.135545
       8.000000       0.025034       0.845665       3.157556
       8.010000       0.045441       0.867937       3.177633
       8.020000       0.065594       0.889094       3.195177
       8.030000       0.084918       0.908515       3.209730
       8.040000       0.102799       0.925522       3.221037
       8.050000       0.118713       0.939534       3.229069
       8.060000       0.132364       0.950251       3.234004
       8.070000       0.143799       0.957800       3.236177
       8.080000       0.153453       0.962782       3.236014
       8.090000       0.162082       0.966184       3.233973
       8.100000       0.170597       0.969165       3.230510
       8.110000       0.179863       0.972798       3.226044
       8.120000       0.190532       0.977857       3.220924
       8.130000       0.202959       0.984726       3.215395
       8.140000       0.217211       0.993413       3.209577
       8.150000       0.233125       1.003644       3.203473
       8.160000       0.250374       1.014971       3.197001
       8.170000       0.268530       1.026887       3.190073
       8.180000       0.287120       1.038926       3.182668
       8.190000       0.305666       1.050733       3.174892
       8.200000       0.323721       1.062113       3.166985
       8.210000       0.340874       1.073031       3.159265
       8.220000       0.356762       1.083583       3.152028
       8.230000       0.371080       1.093932       3.145476
       8.240000       0.383591       1.104246       3.139687
       8.250000       0.394145       1.114648       3.134672
       8.260000       0.402703       1.125193       3.130478
       8.270000       0.409359       1.135882       3.127281
       8.280000       0.414355       1.146696       3.125411
       8.290000       0.418086       1.157663       3.125304
       8.300000       0.421068       1.168931       3.127419
       8.310000       0.423874       1.180809       3.132146
       8.320000       0.427019       1.193747       3.139765
       8.330000       0.430848       1.208228       3.150440
       8.340000       0.435464       1.224616       3.164237
       8.350000       0.440712       1.243029       3.181153
       8.360000       0.446250       1.263289       3.201140
       8.370000       0.451653       1.284961       3.224137
       8.380000       0.456529       1.307463       3.250105
       8.390000       0.460615       1.330201       3.279033
       8.400000       0.463841       1.352704       3.310932
       8.410000       0.466349       1.374726       3.345787
       8.420000       0.468492       1.396281       3.383513
       8.430000       0.470789       1.417614       3.423922
       8.440000       0.473836       1.439102       3.466731
       8.450000       0.478201       1.461127       3.511598
       8.460000       0.484308       1.483964       3.558173
       8.470000       0.492378       1.507706       3.606126
       8.480000       0.502407       1.532239       3.655142
       8.490000       0.514198       1.557232       3.704873
       8.500000       0.527405       1.582147       3.754859
       8.510000       0.541577       1.606254       3.804450
       8.520000       0.556206       1.628683       3.852743
       8.530000       0.570791       1.648503       3.898567
       8.540000       0.584900       1.664839       3.940514
       8.550000       0.598238       1.676991       3.977011
       8.560000       0.610684       1.684513       4.006416
       8.570000       0.622281       1.687221       4.027112
       8.580000       0.633204       1.685144       4.037573
       8.590000       0.643703       1.678453       4.036392
       8.600000       0.654045       1.667433       4.022293
       8.610000       0.664482       1.652530       3.994137
       8.620000       0.675219       1.634421       3.950990
       8.630000       0.686395       1.614054       3.892235
       8.640000       0.698066       1.592586       3.817723
       8.650000       0.710194       1.571242       3.727925
       8.660000       0.722660       1.551146       3.624039
       8.670000       0.735292       1.533208       3.508037
       8.680000       0.747924       1.518062       3.382600
       8.690000       0.760459       1.506059       3.250952
       8.700000       0.772928       1.497273       3.116556
       8.710000       0.785522       1.491533       2.982732
       8.720000       0.798587       1.488482       2.852238
       8.730000       0.812578       1.487644       2.726961
       8.740000       0.827983       1.488448       2.607793
       8.750000       0.845239       1.490199       2.494734
       8.760000       0.864652       1.492012       2.387153
       8.770000       0.886366       1.492770       2.284128
       8.780000       0.910368       1.491188       2.184763
       8.790000       0.936531       1.485979       2.088431
       8.800000       0.964669       1.476109       1.994928
       8.810000       0.994576       1.461038       1.904480
       8.820000       1.026057       1.440851       1.817618
       8.830000       1.058922       1.416215       1.734961
       8.840000       1.092992       1.388178       1.657009
       8.850000       1.128083       1.357880       1.584044
       8.860000       1.164000       1.326270       1.516169
       8.870000       1.200520       1.293915       1.453411
       8.880000       1.237385       1.260931       1.395785
       8.890000       1.274291       1.227062       1.343265
       8.900000       1.310894       1.191837       1.295680
       8.910000       1.346823       1.154766       1.252620
       8.920000       1.381711       1.115498       1.213437
       8.930000       1.415227       1.073917       1.177372
       8.940000       1.447109       1.030200       1.143789
       8.950000       1.477182       0.984804       1.112419
       8.960000       1.505354       0.938409       1.083501
       8.970000       1.531573       0.891814       1.057738
       8.980000       1.555763       0.845852       1.036068
       8.990000       1.577740       0.801341       1.019358
       9.000000       1.597143       0.759081       1.008125
       9.010000       1.613386       0.719814       1.002376
       9.020000       1.625633       0.684119       1.001580
       9.030000       1.632813       0.652251       1.004772
       9.040000       1.633669       0.623989       1.010745
       9.050000       1.626857       0.598591       1.018290
       9.060000       1.611093       0.574870       1.026423
       9.070000       1.585336       0.551378       1.034539
       9.080000       1.549003       0.526654       1.042453
       9.090000       1.502175       0.499507       1.050343
       9.100000       1.445747       0.469269       1.058606
       9.110000       1.381441       0.435958       1.067719
       9.120000       1.311592       0.400289       1.078093
       9.130000       1.238731       0.363518       1.089965
       9.140000       1.165042       0.327168       1.103288
       9.150000       1.091930       0.292718       1.117669
       9.160000       1.019849       0.261310       1.132346
       9.170000       0.948456       0.233558       1.146257
       9.180000       0.877039       0.209482       1.158218
       9.190000       0.805043       0.188609       1.167163
       9.200000       0.732528       0.170198       1.172423
       9.210000       0.660416       0.153530       1.173937
       9.220000       0.590445       0.138157       1.172348
       9.230000       0.524867       0.124010       1.168918
       9.240000       0.466020       0.111346       1.165285
       9.250000       0.415905       0.100584       1.163119
       9.260000       0.375910       0.092119       1.163774
       9.270000       0.346696       0.086229       1.168064
       9.280000       0.328210       0.083055       1.176201
       9.290000       0.319779       0.082659       1.187898
       9.300000       0.320231       0.085056       1.202572
       9.310000       0.328031       0.090226       1.219559
       9.320000       0.341431       0.098113       1.238264
       9.330000       0.358615       0.108632       1.258210
       9.340000       0.377834       0.121684       1.279029
       9.350000       0.397486       0.137154       1.300417
       9.360000       0.416169       0.154856       1.322125
       9.370000       0.432684       0.174468       1.343995
       9.380000       0.446051       0.195486       1.366007
       9.390000       0.455538       0.217261       1.388306
       9.400000       0.460721       0.239095       1.411168
       9.410000       0.461567       0.260347       1.434902
       9.420000       0.458484       0.280501       1.459734
       9.430000       0.452313       0.299130       1.485711
       9.440000       0.444223       0.315817       1.512674
       9.450000       0.435519       0.330066       1.540284
       9.460000       0.427396       0.341294       1.568086
       9.470000       0.420690       0.348931       1.595576
       9.480000       0.415698       0.352619       1.622276
       9.490000       0.412120       0.352432       1.647793
       9.500000       0.409165       0.349035       1.671881
       9.510000       0.405788       0.343683       1.694472
       9.520000       0.401003       0.338039       1.715670
       9.530000       0.394182       0.333828       1.735692
       9.540000       0.385231       0.332454       1.754787
       9.550000       0.374611       0.334706       1.773147
       9.560000       0.363204       0.340627       1.790837
       9.570000       0.352076       0.349572       1.807767
       9.580000       0.342252       0.360383       1.823695
       9.590000       0.334541       0.371612       1.838254
       9.600000       0.329461       0.381746       1.851009
       9.610000       0.327240       0.389387       1.861510
       9.620000       0.327873       0.393427       1.869323
       9.630000       0.331208       0.393185       1.874006
       9.640000       0.337018       0.388501       1.875038
       9.650000       0.345037       0.379748       1.871741
       9.660000       0.354976       0.367754       1.863265
       9.670000       0.366528       0.353680       1.848699
       9.680000       0.379385       0.338893       1.827293
       9.690000       0.393256       0.324857       1.798729
       9.700000       0.407880       0.313016       1.763298
       9.710000       0.423025       0.304625       1.721897
       9.720000       0.438477       0.300551       1.675812
       9.730000       0.454035       0.301110       1.626399
       9.740000       0.469512       0.306001       1.574775
       9.750000       0.484746       0.314363       1.521659
       9.760000       0.499625       0.324943       1.467397
       9.770000       0.514097       0.336301       1.412138
       9.780000       0.528182       0.347022       1.356066
       9.790000       0.541954       0.355905       1.299586
       9.800000       0.555507       0.362115       1.243369
       9.810000       0.568888       0.365291       1.188249
       9.820000       0.582061       0.365611       1.135040
       9.830000       0.594895       0.363757       1.084354
       9.840000       0.607198       0.360769       1.036509
       9.850000       0.618774       0.357796       0.991530
       9.860000       0.629466       0.355814       0.949235
       9.870000       0.639195       0.355405       0.909338
       9.880000       0.647953       0.356687       0.871561
       9.890000       0.655791       0.359377       0.835705
       9.900000       0.662785       0.362939       0.801694
       9.910000       0.668998       0.366733       0.769542
       9.920000       0.674437       0.370097       0.739293
       9.930000       0.679017       0.372398       0.710953
       9.940000       0.682531       0.373070       0.684450
       9.950000       0.684636       0.371694       0.659654
       9.960000       0.684857       0.368106       0.636402
       9.970000       0.682616       0.362486       0.614526
       9.980000       0.677291       0.355385       0.593867
       9.990000       0.668321       0.347665       0.574297
      10.000000       0.655367       0.340351       0.555757
      10.010000       0.638478       0.334454       0.538309
      10.020000       0.618231       0.330808       0.522173
      10.030000       0.595743       0.329985       0.507730
      10.040000       0.572530       0.332287       0.495464
      10.050000       0.550241       0.337792       0.485836
      10.060000       0.530348       0.346416       0.479137
      10.070000       0.513895       0.357957       0.475372
      10.080000       0.501365       0.372121       0.474230
      10.090000       0.492692       0.388551       0.475142
      10.100000       0.487376       0.406868       0.477440
      10.110000       0.484647       0.426724       0.480544
      10.120000       0.483631       0.447846       0.484132
      10.130000       0.483495       0.470046       0.488211
      10.140000       0.483573       0.493199       0.493053
      10.150000       0.483474       0.517185       0.499005
      10.160000       0.483145       0.541828       0.506279
      10.170000       0.482857       0.566856       0.514797
      10.180000       0.483115       0.591895       0.524189
      10.190000       0.484491       0.616501       0.533916
      10.200000       0.487450       0.640229       0.543467
      10.210000       0.492207       0.662689       0.552535
      10.220000       0.498640       0.683589       0.561098
      10.230000       0.506277       0.702741       0.569386
      10.240000       0.514330       0.720042       0.577765
      10.250000       0.521778       0.735460       0.586575
      10.260000       0.527476       0.749012       0.596023
      10.270000       0.530311       0.760735       0.606135
      10.280000       0.529359       0.770632       0.616810
      10.290000       0.524042       0.778610       0.627929
      10.300000       0.514248       0.784415       0.639488
      10.310000       0.500386       0.787623       0.651704
      10.320000       0.483343       0.787680       0.665037
      10.330000       0.464359       0.784013       0.680119
      10.340000       0.444825       0.776150       0.697610
      10.350000       0.426080       0.763811       0.718035
      10.360000       0.409231       0.746896       0.741657
      10.370000       0.395041       0.725403       0.768418
      10.380000       0.383893       0.699336       0.797958
      10.390000       0.375849       0.668660       0.829690
      10.400000       0.370749       0.633364       0.862917
      10.410000       0.368334       0.593596       0.896950
      10.420000       0.368301       0.549817       0.931211
      10.430000       0.370316       0.502907       0.965270
      10.440000       0.373987       0.454176       0.998829
      10.450000       0.378842       0.405264       1.031647
      10.460000       0.384344       0.357949       1.063441
      10.470000       0.389921       0.313904       1.093795
      10.480000       0.395017       0.274489       1.122108
      10.490000       0.399142       0.240605       1.147593
      10.500000       0.401916       0.212657       1.169337
      10.510000       0.403099       0.190591       1.186399
      10.520000       0.402596       0.173999       1.197932
      10.530000       0.400429       0.162256       1.203308
      10.540000       0.396677       0.154639       1.202206
      10.550000       0.391417       0.150415       1.194633
      10.560000       0.384674       0.148887       1.180853
      10.570000       0.376411       0.149393       1.161252
      10.580000       0.366552       0.151301       1.136184
      10.590000       0.355036       0.154016       1.105860
      10.600000       0.341885       0.157023       1.070307
      10.610000       0.327266       0.159967       1.029421
      10.620000       0.311516       0.162737       0.983065
      10.630000       0.295112       0.165510       0.931155
      10.640000       0.278585       0.168707       0.873703
      10.650000       0.262428       0.172872       0.810783
      10.660000       0.247050       0.178496       0.742473
      10.670000       0.232803       0.185864       0.668826
      10.680000       0.220043       0.194959       0.589914
      10.690000       0.209170       0.205464       0.505950
      10.700000       0.200604       0.216829       0.417413
      10.710000       0.194711       0.228377       0.325123
      10.720000       0.191715       0.239427       0.230238
      10.730000       0.191644       0.249408       0.134201
      10.740000       0.194324       0.257968       0.038667
      10.750000       0.199414       0.265043      -0.054577
      10.760000       0.206459       0.270868      -0.143717
      10.770000       0.214978       0.275916      -0.227041
      10.780000       0.224546       0.280775      -0.303070
      10.790000       0.234865       0.286025      -0.370665
      10.800000       0.245777       0.292131      -0.429079
      10.810000       0.257221       0.299392      -0.477965
      10.820000       0.269141       0.307909      -0.517342
      10.830000       0.281397       0.317578      -0.547538
      10.840000       0.293726       0.328099      -0.569127
      10.850000       0.305759       0.339003      -0.582866
      10.860000       0.317093       0.349692      -0.589646
      10.870000       0.327388       0.359502      -0.590453
      10.880000       0.336451       0.367770      -0.586340
      10.890000       0.344298       0.373890      -0.578409
      10.900000       0.351160       0.377376      -0.567801
      10.910000       0.357439       0.377899      -0.555673
      10.920000       0.363622       0.375295      -0.543151
      10.930000       0.370173       0.369538      -0.531254
      10.940000       0.377452       0.360661      -0.520794
      10.950000       0.385661       0.348681      -0.512281
      10.960000       0.394842       0.333553      -0.505865
      10.970000       0.404893       0.315200      -0.501346
      10.980000       0.415597       0.293618      -0.498256
      10.990000       0.426667       0.269037      -0.496003
      11.000000       0.437784       0.242049      -0.494025
      11.010000       0.448634       0.213650      -0.491921
      11.020000       0.458929       0.185146      -0.489530
      11.030000       0.468410       0.157940      -0.486951
      11.040000       0.476849       0.133279      -0.484500
      11.050000       0.484043       0.112036      -0.482643
      11.060000       0.489822       0.094615      -0.481911
      11.070000       0.494066       0.080969      -0.482825
      11.080000       0.496736       0.070709      -0.485846
      11.090000       0.497912       0.063249      -0.491323
      11.100000       0.497803       0.057944      -0.499446
      11.110000       0.496715       0.054202      -0.510176
      11.120000       0.494958       0.051569      -0.523194
      11.130000       0.492713       0.049769      -0.537885
      11.140000       0.489924       0.048700      -0.553419
      11.150000       0.486266       0.048401      -0.568886
      11.160000       0.481225       0.048986      -0.583461
      11.170000       0.474267       0.050598      -0.596529
      11.180000       0.465023       0.053375      -0.607753
      11.190000       0.453424       0.057460      -0.617082
      11.200000       0.439726       0.063008      -0.624727
      11.210000       0.424435       0.070186      -0.631121
      11.220000       0.408176       0.079130      -0.636858
      11.230000       0.391560       0.089878      -0.642630
      11.240000       0.375096       0.102300      -0.649130
      11.250000       0.359159       0.116064      -0.656964
      11.260000       0.343986       0.130651      -0.666551
      11.270000       0.329689       0.145400      -0.678057
      11.280000       0.316289       0.159575      -0.691363
      11.290000       0.303749       0.172441      -0.706077
      11.300000       0.292014       0.183351      -0.721587
      11.310000       0.281035       0.191838      -0.737133
      11.320000       0.270787       0.197712      -0.751895
      11.330000       0.261286       0.201108      -0.765086
      11.340000       0.252598       0.202476      -0.776047
      11.350000       0.244834       0.202491      -0.784320
      11.360000       0.238109       0.201919      -0.789699
      11.370000       0.232487       0.201497      -0.792241
      11.380000       0.227931       0.201854      -0.792230
      11.390000       0.224298       0.203496      -0.790104
      11.400000       0.221373       0.206817      -0.786364
      11.410000       0.218918       0.212107      -0.781476
      11.420000       0.216721       0.219532      -0.775804
      11.430000       0.214608       0.229095      -0.769563
      11.440000       0.212441       0.240613      -0.762805
      11.450000       0.210094       0.253711      -0.755429
      11.460000       0.207433       0.267853      -0.747223
      11.470000       0.204305       0.282399      -0.737940
      11.480000       0.200553       0.296645      -0.727391
      11.490000       0.196037       0.309873      -0.715531
      11.500000       0.190660       0.321383      -0.702494
      11.510000       0.184399       0.330550      -0.688573
      11.520000       0.177344       0.336889      -0.674140
      11.530000       0.169735       0.340130      -0.659561
      11.540000       0.161997       0.340291      -0.645129
      11.550000       0.154741       0.337705      -0.631044
      11.560000       0.148712       0.333000      -0.617429
      11.570000       0.144671       0.327013      -0.604358
      11.580000       0.143220       0.320661      -0.591871
      11.590000       0.144638       0.314792      -0.579958
      11.600000       0.148794       0.310047      -0.568544
      11.610000       0.155165       0.306781      -0.557461
      11.620000       0.162963       0.305042      -0.546452
      11.630000       0.171305       0.304613      -0.535203
      11.640000       0.179397       0.305079      -0.523409
      11.650000       0.186656       0.305903      -0.510843
      11.660000       0.192754       0.306483      -0.497410
      11.670000       0.197589       0.306202      -0.483166
      11.680000       0.201206       0.304478      -0.468307
      11.690000       0.203712       0.300821      -0.453133
      11.700000       0.205220       0.294886      -0.438011
      11.710000       0.205825       0.286527      -0.423339
      11.720000       0.205605       0.275829      -0.409500
      11.730000       0.204636       0.263112      -0.396808
      11.740000       0.202981       0.248890      -0.385453
      11.750000       0.200685       0.233781      -0.375463
      11.760000       0.197757       0.218380      -0.366699
      11.770000       0.194166       0.203138      -0.358885
      11.780000       0.189847       0.188285      -0.351679
      11.790000       0.184709       0.173839      -0.344737
      11.800000       0.178644       0.159682      -0.337776
      11.810000       0.171557       0.145688      -0.330607
      11.820000       0.163409       0.131836      -0.323132
      11.830000       0.154276       0.118265      -0.315320
      11.840000       0.144381       0.105263      -0.307167
      11.850000       0.134092       0.093203      -0.298670
      11.860000       0.123870       0.082471      -0.289819
      11.870000       0.114201       0.073422      -0.280619
      11.880000       0.105518       0.066357      -0.271108
      11.890000       0.098151       0.061514      -0.261376
      11.900000       0.092286       0.059050      -0.251550
      11.910000       0.087943       0.059017      -0.241765
      11.920000       0.084985       0.061332      -0.232135
      11.930000       0.083161       0.065758      -0.222726
      11.940000       0.082172       0.071905      -0.213553
      11.950000       0.081747       0.079238      -0.204571
      11.960000       0.081693       0.087095      -0.195668
      11.970000       0.081925       0.094716      -0.186666
      11.980000       0.082463       0.101293      -0.177335
      11.990000       0.083421       0.106042      -0.167429
      12.000000       0.084965       0.108311      -0.156736
      12.010000       0.087264       0.107680      -0.145140
      12.020000       0.090433       0.104057      -0.132660
      12.030000       0.094495       0.097714      -0.119464
      12.040000       0.099383       0.089237      -0.105835
      12.050000       0.104984       0.079391      -0.092123
      12.060000       0.111180       0.068930      -0.078677
      12.070000       0.117903       0.058414      -0.065795
      12.080000       0.125142       0.048105      -0.053692
      12.090000       0.132947       0.037980      -0.042505
      12.100000       0.141410       0.027853      -0.032306
      12.110000       0.150640       0.017540      -0.023129
      12.120000       0.160729       0.007015      -0.014978
      12.130000       0.171716      -0.003516      -0.007830
      12.140000       0.183564      -0.013633      -0.001626
      12.150000       0.196147      -0.022802       0.003732
      12.160000       0.209265      -0.030495       0.008377
      12.170000       0.222668      -0.036291       0.012448
      12.180000       0.236084      -0.039923       0.016055
      12.190000       0.249248      -0.041293       0.019252
      12.200000       0.261924      -0.040441       0.022021
      12.210000       0.273926      -0.037513       0.024290
      12.220000       0.285124      -0.032727       0.025965
      12.230000       0.295448      -0.026342       0.026978
      12.240000       0.304879      -0.018633       0.027316
      12.250000       0.313440      -0.009871       0.027034
      12.260000       0.321170      -0.000310       0.026242
      12.270000       0.328087       0.009835       0.025077
      12.280000       0.334136       0.020387       0.023680
      12.290000       0.339136       0.031204       0.022165
      12.300000       0.342749       0.042160       0.020619
      12.310000       0.344500       0.053117       0.019091
      12.320000       0.343833       0.063915       0.017599
      12.330000       0.340232       0.074372       0.016142
      12.340000       0.333332       0.084302       0.014717
      12.350000       0.323022       0.093530       0.013341
      12.360000       0.309488       0.101902       0.012067
      12.370000       0.293193       0.109287       0.010992
      12.380000       0.274822       0.115584       0.010239
      12.390000       0.255193       0.120739       0.009926
      12.400000       0.235175       0.124766       0.010120
      12.410000       0.215623       0.127765       0.010806
      12.420000       0.197314       0.129911       0.011867
      12.430000       0.180885       0.131433       0.013101
      12.440000       0.166778       0.132588       0.014267
      12.450000       0.155195       0.133639       0.015141
      12.460000       0.146095       0.134840       0.015569
      12.470000       0.139222       0.136416       0.015513
      12.480000       0.134167       0.138533       0.015068
      12.490000       0.130429       0.141273       0.014448
      12.500000       0.127491       0.144616       0.013956
      12.510000       0.124880       0.148449       0.013923
      12.520000       0.122226       0.152584       0.014658
      12.530000       0.119299       0.156786       0.016402
      12.540000       0.116042       0.160811       0.019296
      12.550000       0.112567       0.164432       0.023380
      12.560000       0.109129       0.167475       0.028595
      12.570000       0.106070       0.169834       0.034798
      12.580000       0.103734       0.171475       0.041785
      12.590000       0.102393       0.172428       0.049306
      12.600000       0.102191       0.172762       0.057096
      12.610000       0.103128       0.172566       0.064891
      12.620000       0.105086       0.171927       0.072455
      12.630000       0.107868       0.170905       0.079591
      12.640000       0.111255       0.169517       0.086154
      12.650000       0.115053       0.167721       0.092055
      12.660000       0.119118       0.165406       0.097266
      12.670000       0.123363       0.162415       0.101814
      12.680000       0.127743       0.158591       0.105783
      12.690000       0.132229       0.153848       0.109304
      12.700000       0.136787       0.148237       0.112538
      12.710000       0.141369       0.141979       0.115653
      12.720000       0.145915       0.135439       0.118795
      12.730000       0.150364       0.129046       0.122069
      12.740000       0.154674       0.123188       0.125529
      12.750000       0.158836       0.118146       0.129183
      12.760000       0.162881       0.114069       0.132998
      12.770000       0.166869       0.110983       0.136905
      12.780000       0.170863       0.108815       0.140803
      12.790000       0.174910       0.107406       0.144567
      12.800000       0.179029       0.106526       0.148059
      12.810000       0.183221       0.105910       0.151146
      12.820000       0.187483       0.105316       0.153730
      12.830000       0.191814       0.104608       0.155770
      12.840000       0.196210       0.103809       0.157303
      12.850000       0.200656       0.103131       0.158450
      12.860000       0.205129       0.102945       0.159402
      12.870000       0.209609       0.103701       0.160380
      12.880000       0.214099       0.105827       0.161596
      12.890000       0.218641       0.109633       0.163203
      12.900000       0.223341       0.115247       0.165265
      12.910000       0.228363       0.122615       0.167750
      12.920000       0.233916       0.131538       0.170545
      12.930000       0.240209       0.141729       0.173503
      12.940000       0.247403       0.152875       0.176479
      12.950000       0.255570       0.164681       0.179370
      12.960000       0.264677       0.176878       0.182137
      12.970000       0.274592       0.189228       0.184803
      12.980000       0.285110       0.201511       0.187441
      12.990000       0.295975       0.213517       0.190155
      13.000000       0.306910       0.225050       0.193061
      13.010000       0.317625       0.235939       0.196262
      13.020000       0.327826       0.246056       0.199841
      13.030000       0.337213       0.255325       0.203846
      13.040000       0.345488       0.263727       0.208287
      13.050000       0.352354       0.271297       0.213130
      13.060000       0.357535       0.278106       0.218304
      13.070000       0.360783       0.284258       0.223714
      13.080000       0.361914       0.289879       0.229251
      13.090000       0.360848       0.295126       0.234811
      13.100000       0.357656       0.300170       0.240303
      13.110000       0.352585       0.305188       0.245657
      13.120000       0.346028       0.310338       0.250821
      13.130000       0.338455       0.315736       0.255774
      13.140000       0.330308       0.321440       0.260518
      13.150000       0.321905       0.327446       0.265080
      13.160000       0.313398       0.333679       0.269505
      13.170000       0.304776       0.339999       0.273849
      13.180000       0.295914       0.346199       0.278175
      13.190000       0.286638       0.352025       0.282555
      13.200000       0.276791       0.357199       0.287063
      13.210000       0.266289       0.361467       0.291782
      13.220000       0.255169       0.364642       0.296788
      13.230000       0.243608       0.366641       0.302146
      13.240000       0.231921       0.367484       0.307895
      13.250000       0.220517       0.367281       0.314043
      13.260000       0.209828       0.366180       0.320570
      13.270000       0.200244       0.364332       0.327436
      13.280000       0.192060       0.361873       0.334583
      13.290000       0.185465       0.358930       0.341952
      13.300000       0.180540       0.355652       0.349485
      13.310000       0.177280       0.352233       0.357125
      13.320000       0.175607       0.348920       0.364815
      13.330000       0.175391       0.346001       0.372496
      13.340000       0.176478       0.343779       0.380103
      13.350000       0.178718       0.342530       0.387561
      13.360000       0.181976       0.342473       0.394791
      13.370000       0.186134       0.343742       0.401715
      13.380000       0.191068       0.346369       0.408270
      13.390000       0.196636       0.350290       0.414416
      13.400000       0.202668       0.355343       0.420155
      13.410000       0.208986       0.361288       0.425527
      13.420000       0.215427       0.367835       0.430605
      13.430000       0.221881       0.374670       0.435477
      13.440000       0.228316       0.381499       0.440230
      13.450000       0.234771       0.388074       0.444929
      13.460000       0.241336       0.394226       0.449622
      13.470000       0.248115       0.399870       0.454339
      13.480000       0.255182       0.405003       0.459105
      13.490000       0.262570       0.409680       0.463952
      13.500000       0.270262       0.413990       0.468921
      13.510000       0.278205       0.418023       0.474058
      13.520000       0.286328       0.421863       0.479405
      13.530000       0.294551       0.425572       0.484979
      13.540000       0.302790       0.429186       0.490768
      13.550000       0.310948       0.432704       0.496720
      13.560000       0.318905       0.436086       0.502753
      13.570000       0.326519       0.439259       0.508770
      13.580000       0.333628       0.442143       0.514678
      13.590000       0.340065       0.444683       0.520404
      13.600000       0.345682       0.446880       0.525904
      13.610000       0.350379       0.448802       0.531166
      13.620000       0.354127       0.450567       0.536205
      13.630000       0.356978       0.452316       0.541053
      13.640000       0.359070       0.454169       0.545748
      13.650000       0.360614       0.456197       0.550317
      13.660000       0.361868       0.458412       0.554775
      13.670000       0.363111       0.460770       0.559118
      13.680000       0.364609       0.463186       0.563334
      13.690000       0.366575       0.465553       0.567416
      13.700000       0.369137       0.467760       0.571374
      13.710000       0.372307       0.469704       0.575228
      13.720000       0.375978       0.471311       0.578997
      13.730000       0.379942       0.472546       0.582680
      13.740000       0.383926       0.473435       0.586237
      13.750000       0.387638       0.474063       0.589589
      13.760000       0.390810       0.474568       0.592628
      13.770000       0.393233       0.475113       0.595242
      13.780000       0.394784       0.475849       0.597340
      13.790000       0.395440       0.476873       0.598875
      13.800000       0.395287       0.478194       0.599851
      13.810000       0.394511       0.479718       0.600310
      13.820000       0.393387       0.481255       0.600318
      13.830000       0.392248       0.482558       0.599934
      13.840000       0.391449       0.483379       0.599199
      13.850000       0.391314       0.483546       0.598132
      13.860000       0.392095       0.483008       0.596744
      13.870000       0.393925       0.481853       0.595054
      13.880000       0.396810       0.480266       0.593106
      13.890000       0.400639       0.478469       0.590965
      13.900000       0.405215       0.476647       0.588705
      13.910000       0.410299       0.474906       0.586391
      13.920000       0.415632       0.473265       0.584077
      13.930000       0.420957       0.471684       0.581810
      13.940000       0.426029       0.470106       0.579642
      13.950000       0.430617       0.468504       0.577631
      13.960000       0.434520       0.466910       0.575840
      13.970000       0.437586       0.465415       0.574305
      13.980000       0.439737       0.464139       0.573015
      13.990000       0.440985       0.463189       0.571884
      14.000000       0.441430       0.462621       0.570759
      14.010000       0.441236       0.462416       0.569439
      14.020000       0.440576       0.462478       0.567711
      14.030000       0.439584       0.462647       0.565394
      14.040000       0.438322       0.462724       0.562371
      14.050000       0.436778       0.462509       0.558603
      14.060000       0.434899       0.461851       0.554117
      14.070000       0.432623       0.460684       0.548986
      14.080000       0.429914       0.459046       0.543310
      14.090000       0.426789       0.457069       0.537219
      14.100000       0.423322       0.454938       0.530884
      14.110000       0.419647       0.452850       0.524537
      14.120000       0.415941       0.450974       0.518466
      14.130000       0.412387       0.449420       0.512988
      14.140000       0.409139       0.448224       0.508401
      14.150000       0.406284       0.447349       0.504930
      14.160000       0.403832       0.446698       0.502697
      14.170000       0.401715       0.446149       0.501714
      14.180000       0.399810       0.445603       0.501897
      14.190000       0.397961       0.445010       0.503097
      14.200000       0.396005       0.444386       0.505124
      14.210000       0.393806       0.443795       0.507768
      14.220000       0.391292       0.443325       0.510810
      14.230000       0.388476       0.443057       0.514035
      14.240000       0.385469       0.443044       0.517241
      14.250000       0.382461       0.443306       0.520249
      14.260000       0.379690       0.443825       0.522910
      14.270000       0.377409       0.444557       0.525122
      14.280000       0.375846       0.445440       0.526836
      14.290000       0.375172       0.446413       0.528062
      14.300000       0.375474       0.447435       0.528875
      14.310000       0.376739       0.448492       0.529405
      14.320000       0.378861       0.449596       0.529823
      14.330000       0.381649       0.450781       0.530325
      14.340000       0.384853       0.452077       0.531099
      14.350000       0.388186       0.453496       0.532306
      14.360000       0.391353       0.455015       0.534049
      14.370000       0.394068       0.456566       0.536358
      14.380000       0.396082       0.458054       0.539195
      14.390000       0.397195       0.459376       0.542465
      14.400000       0.397275       0.460455       0.546048
      14.410000       0.396266       0.461267       0.549825
      14.420000       0.394195       0.461847       0.553708
      14.430000       0.391178       0.462270       0.557645
      14.440000       0.387424       0.462624       0.561625
      14.450000       0.383226       0.462972       0.565672
      14.460000       0.378936       0.463321       0.569821
      14.470000       0.374920       0.463610       0.574109
      14.480000       0.371500       0.463692       0.578553
      14.490000       0.368903       0.463337       0.583140
      14.500000       0.367229       0.462241       0.587822
      14.510000       0.366442       0.460054       0.592524
      14.520000       0.366394       0.456422       0.597143
      14.530000       0.366857       0.451049       0.601569
      14.540000       0.367575       0.443756       0.605696
      14.550000       0.368309       0.434527       0.609434
      14.560000       0.368884       0.423548       0.612724
      14.570000       0.369211       0.411202       0.615544
      14.580000       0.369296       0.398043       0.617916
      14.590000       0.369222       0.384710       0.619912
      14.600000       0.369113       0.371829       0.621657
      14.610000       0.369095       0.359907       0.623316
      14.620000       0.369256       0.349271       0.625072
      14.630000       0.369636       0.340066       0.627101
      14.640000       0.370236       0.332291       0.629546
      14.650000       0.371048       0.325869       0.632502
      14.660000       0.372084       0.320697       0.636017
      14.670000       0.373393       0.316684       0.640098
      14.680000       0.375049       0.313757       0.644716
      14.690000       0.377132       0.311851       0.649817
      14.700000       0.379689       0.310902       0.655327
      14.710000       0.382707       0.310825       0.661163
      14.720000       0.386108       0.311513       0.667238
      14.730000       0.389765       0.312837       0.673474
      14.740000       0.393535       0.314649       0.679803
      14.750000       0.397293       0.316796       0.686171
      14.760000       0.400973       0.319132       0.692527
      14.770000       0.404581       0.321524       0.698816
      14.780000       0.408200       0.323854       0.704978
      14.790000       0.411968       0.326015       0.710942
      14.800000       0.416037       0.327904       0.716636
      14.810000       0.420534       0.329420       0.721993
      14.820000       0.425525       0.330469       0.726964
      14.830000       0.430998       0.330967       0.731516
      14.840000       0.436871       0.330863       0.735647
      14.850000       0.443006       0.330141       0.739377
      14.860000       0.449234       0.328836       0.742757
      14.870000       0.455367       0.327027       0.745869
      14.880000       0.461229       0.324837       0.748825
      14.890000       0.466665       0.322424       0.751759
      14.900000       0.471564       0.319975       0.754815
      14.910000       0.475865       0.317689       0.758121
      14.920000       0.479566       0.315770       0.761763
      14.930000       0.482721       0.314399       0.765767
      14.940000       0.485424       0.313722       0.770093
      14.950000       0.487797       0.313832       0.774643
      14.960000       0.489946       0.314764       0.779277
      14.970000       0.491940       0.316490       0.783830
      14.980000       0.493793       0.318930       0.788137
      14.990000       0.495466       0.321958       0.792040
      15.000000       0.496889       0.325414       0.795402
      15.010000       0.497984       0.329117       0.798114
      15.020000       0.498685       0.332881       0.800106
      15.030000       0.498938       0.336525       0.801357
      15.040000       0.498702       0.339887       0.801886
      15.050000       0.497935       0.342834       0.801741
      15.060000       0.496589       0.345266       0.800968
      15.070000       0.494616       0.347124       0.799579
      15.080000       0.491981       0.348385       0.797530
      15.090000       0.488683       0.349065       0.794720
      15.100000       0.484755       0.349191       0.790997
      15.110000       0.480259       0.348791       0.786180
      15.120000       0.475270       0.347864       0.780083
      15.130000       0.469844       0.346385       0.772538
      15.140000       0.464012       0.344325       0.763420
      15.150000       0.457773       0.341675       0.752663
      15.160000       0.451120       0.338483       0.740272
      15.170000       0.444068       0.334865       0.726331
      15.180000       0.436695       0.331004       0.711006
      15.190000       0.429158       0.327132       0.694545
      15.200000       0.421680       0.323506       0.677269
      15.210000       0.414509       0.320378       0.659557
      15.220000       0.407867       0.317963       0.641817
      15.230000       0.401920       0.316417       0.624454
      15.240000       0.396772       0.315810       0.607828
      15.250000       0.392489       0.316122       0.592216
      15.260000       0.389111       0.317249       0.577784
      15.270000       0.386670       0.319031       0.564584
      15.280000       0.385180       0.321280       0.552569
      15.290000       0.384630       0.323810       0.541624
      15.300000       0.384974       0.326456       0.531606
      15.310000       0.386135       0.329079       0.522376
      15.320000       0.388003       0.331564       0.513814
      15.330000       0.390449       0.333819       0.505824
      15.340000       0.393340       0.335785       0.498322
      15.350000       0.396548       0.337436       0.491231
      15.360000       0.399967       0.338784       0.484471
      15.370000       0.403516       0.339860       0.477962
      15.380000       0.407141       0.340696       0.471622
      15.390000       0.410810       0.341313       0.465371
      15.400000       0.414509       0.341712       0.459138
      15.410000       0.418234       0.341879       0.452863
      15.420000       0.421976       0.341783       0.446504
      15.430000       0.425711       0.341375       0.440037
      15.440000       0.429385       0.340588       0.433455
      15.450000       0.432910       0.339335       0.426770
      15.460000       0.436184       0.337528       0.420021
      15.470000       0.439108       0.335100       0.413272
      15.480000       0.441618       0.332046       0.406625
      15.490000       0.443711       0.328444       0.400207
      15.500000       0.445447       0.324465       0.394161
      15.510000       0.446947       0.320352       0.388625
      15.520000       0.448367       0.316381       0.383703
      15.530000       0.449871       0.312808       0.379447
      15.540000       0.451594       0.309827       0.375837
      15.550000       0.453619       0.307543       0.372783
      15.560000       0.455957       0.305967       0.370131
      15.570000       0.458565       0.305025       0.367696
      15.580000       0.461364       0.304598       0.365289
      15.590000       0.464277       0.304548       0.362756
      15.600000       0.467251       0.304746       0.360015
      15.610000       0.470270       0.305088       0.357066
      15.620000       0.473346       0.305490       0.354006
      15.630000       0.476502       0.305888       0.351000
      15.640000       0.479762       0.306234       0.348252
      15.650000       0.483137       0.306498       0.345956
      15.660000       0.486622       0.306671       0.344267
      15.670000       0.490198       0.306766       0.343284
      15.680000       0.493826       0.306823       0.343062
      15.690000       0.497448       0.306905       0.343630
      15.700000       0.500985       0.307100       0.345012
      15.710000       0.504339       0.307512       0.347226
      15.720000       0.507405       0.308251       0.350285
      15.730000       0.510075       0.309417       0.354178
      15.740000       0.512253       0.311081       0.358867
      15.750000       0.513858       0.313266       0.364279
      15.760000       0.514834       0.315948       0.370313
      15.770000       0.515150       0.319052       0.376843
      15.780000       0.514805       0.322471       0.383732
      15.790000       0.513832       0.326079       0.390846
      15.800000       0.512298       0.329752       0.398061
      15.810000       0.510313       0.333383       0.405271
      15.820000       0.508016       0.336904       0.412390
      15.830000       0.505566       0.340293       0.419356
      15.840000       0.503115       0.343574       0.426127
      15.850000       0.500791       0.346805       0.432674
      15.860000       0.498677       0.350054       0.438988
      15.870000       0.496816       0.353377       0.445069
      15.880000       0.495215       0.356799       0.450929
      15.890000       0.493858       0.360310       0.456591
      15.900000       0.492711       0.363868       0.462086
      15.910000       0.491735       0.367420       0.467444
      15.920000       0.490891       0.370913       0.472684
      15.930000       0.490147       0.374306       0.477810
      15.940000       0.489479       0.377573       0.482811
      15.950000       0.488870       0.380704       0.487661
      15.960000       0.488306       0.383699       0.492332
      15.970000       0.487762       0.386553       0.496798
      15.980000       0.487199       0.389253       0.501042
      15.990000       0.486561       0.391770       0.505055
      16.000000       0.485781       0.394063       0.508833
      16.010000       0.484799       0.396087       0.512370
      16.020000       0.483576       0.397803       0.515658
      16.030000       0.482108       0.399188       0.518694
      16.040000       0.480432       0.400238       0.521478
      16.050000       0.478620       0.400968       0.524022
      16.060000       0.476766       0.401409       0.526345
      16.070000       0.474963       0.401599       0.528470
      16.080000       0.473278       0.401579       0.530409
      16.090000       0.471736       0.401384       0.532155
      16.100000       0.470311       0.401049       0.533683
      16.110000       0.468934       0.400604       0.534954
      16.120000       0.467510       0.400080       0.535922
      16.130000       0.465947       0.399515       0.536556
      16.140000       0.464175       0.398963       0.536852
      16.150000       0.462176       0.398490       0.536842
      16.160000       0.459988       0.398171       0.536596
      16.170000       0.457703       0.398087       0.536215
      16.180000       0.455445       0.398304       0.535818
      16.190000       0.453346       0.398879       0.535521
      16.200000       0.451526       0.399848       0.535418
      16.210000       0.450081       0.401231       0.535576
      16.220000       0.449073       0.403031       0.536023
      16.230000       0.448540       0.405238       0.536756
      16.240000       0.448496       0.407820       0.537745
      16.250000       0.448938       0.410723       0.538947
      16.260000       0.449845       0.413873       0.540313
      16.270000       0.451177       0.417179       0.541799
      16.280000       0.452872       0.420537       0.543368
      16.290000       0.454859       0.423844       0.544991
      16.300000       0.457070       0.427006       0.546643
      16.310000       0.459454       0.429943       0.548300
      16.320000       0.461982       0.432596       0.549943
      16.330000       0.464651       0.434930       0.551555
      16.340000       0.467468       0.436934       0.553122
      16.350000       0.470445       0.438620       0.554629
      16.360000       0.473582       0.440024       0.556062
      16.370000       0.476864       0.441198       0.557405
      16.380000       0.480253       0.442203       0.558647
      16.390000       0.483694       0.443105       0.559788
      16.400000       0.487121       0.443969       0.560843
      16.410000       0.490475       0.444860       0.561848
      16.420000       0.493720       0.445841       0.562852
      16.430000       0.496849       0.446974       0.563912
      16.440000       0.499886       0.448312       0.565079
      16.450000       0.502863       0.449889       0.566399
      16.460000       0.505811       0.451717       0.567903
      16.470000       0.508732       0.453778       0.569613
      16.480000       0.511598       0.456030       0.571545
      16.490000       0.514349       0.458412       0.573709
      16.500000       0.516895       0.460851       0.576104
      16.510000       0.519129       0.463274       0.578716
      16.520000       0.520940       0.465609       0.581516
      16.530000       0.522222       0.467792       0.584457
      16.540000       0.522886       0.469772       0.587481
      16.550000       0.522871       0.471513       0.590527
      16.560000       0.522150       0.473000       0.593542
      16.570000       0.520734       0.474242       0.596484
      16.580000       0.518669       0.475268       0.599326
      16.590000       0.516032       0.476122       0.602051
      16.600000       0.512922       0.476855       0.604651
      16.610000       0.509450       0.477508       0.607118
      16.620000       0.505727       0.478113       0.609439
      16.630000       0.501855       0.478689       0.611601
      16.640000       0.497923       0.479245       0.613587
      16.650000       0.494014       0.479796       0.615390
      16.660000       0.490203       0.480358       0.617012
      16.670000       0.486565       0.480959       0.618476
      16.680000       0.483166       0.481629       0.619827
      16.690000       0.480062       0.482396       0.621131
      16.700000       0.477298       0.483277       0.622467
      16.710000       0.474911       0.484278       0.623916
      16.720000       0.472929       0.485392       0.625544
      16.730000       0.471377       0.486609       0.627395
      16.740000       0.470265       0.487920       0.629476
      16.750000       0.469580       0.489324       0.631762
      16.760000       0.469286       0.490824       0.634199
      16.770000       0.469325       0.492425       0.636719
      16.780000       0.469625       0.494123       0.639246
      16.790000       0.470111       0.495898       0.641707
      16.800000       0.470709       0.497713       0.644042
      16.810000       0.471355       0.499515       0.646201
      16.820000       0.471995       0.501241       0.648149
      16.830000       0.472597       0.502835       0.649865
      16.840000       0.473149       0.504249       0.651340
      16.850000       0.473667       0.505459       0.652578
      16.860000       0.474186       0.506460       0.653591
      16.870000       0.474762       0.507265       0.654399
      16.880000       0.475464       0.507900       0.655027
      16.890000       0.476366       0.508397       0.655502
      16.900000       0.477539       0.508793       0.655855
      16.910000       0.479039       0.509133       0.656116
      16.920000       0.480902       0.509466       0.656319
      16.930000       0.483142       0.509848       0.656500
      16.940000       0.485749       0.510332       0.656699
      16.950000       0.488695       0.510964       0.656954
      16.960000       0.491937       0.511770       0.657301
      16.970000       0.495418       0.512747       0.657774
      16.980000       0.499076       0.513868       0.658400
      16.990000       0.502838       0.515079       0.659204
      17.000000       0.506635       0.516312       0.660207
      17.010000       0.510396       0.517495       0.661419
      17.020000       0.514053       0.518566       0.662837
      17.030000       0.517544       0.519480       0.664440
      17.040000       0.520812       0.520218       0.666191
      17.050000       0.523800       0.520792       0.668041
      17.060000       0.526451       0.521239       0.669942
      17.070000       0.528709       0.521612       0.671852
      17.080000       0.530517       0.521970       0.673747
      17.090000       0.531820       0.522363       0.675621
      17.100000       0.532566       0.522829       0.677490
      17.110000       0.532708       0.523392       0.679383
      17.120000       0.532207       0.524061       0.681334
      17.130000       0.531034       0.524843       0.683374
      17.140000       0.529176       0.525739       0.685517
      17.150000       0.526645       0.526753       0.687760
      17.160000       0.523486       0.527891       0.690080
      17.170000       0.519785       0.529162       0.692436
      17.180000       0.515669       0.530570       0.694776
      17.190000       0.511308       0.532113       0.697045
      17.200000       0.506904       0.533780       0.699189
      17.210000       0.502677       0.535546       0.701166
      17.220000       0.498843       0.537375       0.702949
      17.230000       0.495591       0.539225       0.704531
      17.240000       0.493053       0.541053       0.705925
      17.250000       0.491294       0.542825       0.707160
      17.260000       0.490310       0.544515       0.708270
      17.270000       0.490037       0.546116       0.709293
      17.280000       0.490375       0.547629       0.710255
      17.290000       0.491203       0.549062       0.711177
      17.300000       0.492391       0.550422       0.712070
      17.310000       0.493805       0.551709       0.712946
      17.320000       0.495311       0.552914       0.713821
      17.330000       0.496769       0.554023       0.714714
      17.340000       0.498039       0.555023       0.715654
      17.350000       0.498990       0.555901       0.716671
      17.360000       0.499511       0.556654       0.717799
      17.370000       0.499533       0.557284       0.719069
      17.380000       0.499046       0.557801       0.720505
      17.390000       0.498107       0.558218       0.722125
      17.400000       0.496842       0.558553       0.723932
      17.410000       0.495428       0.558827       0.725915
      17.420000       0.494066       0.559066       0.728050
      17.430000       0.492952       0.559300       0.730301
      17.440000       0.492251       0.559559       0.732628
      17.450000       0.492076       0.559875       0.734987
      17.460000       0.492484       0.560272       0.737340
      17.470000       0.493481       0.560766       0.739658
      17.480000       0.495029       0.561368       0.741924
      17.490000       0.497062       0.562078       0.744135
      17.500000       0.499495       0.562892       0.746304
      17.510000       0.502236       0.563801       0.748447
      17.520000       0.505189       0.564789       0.750580
      17.530000       0.508260       0.565838       0.752710
      17.540000       0.511366       0.566922       0.754832
      17.550000       0.514438       0.568009       0.756932
      17.560000       0.517425       0.569068       0.758994
      17.570000       0.520298       0.570068       0.761009
      17.580000       0.523046       0.570991       0.762978
      17.590000       0.525668       0.571829       0.764913
      17.600000       0.528166       0.572586       0.766833
      17.610000       0.530532       0.573273       0.768754
      17.620000       0.532751       0.573900       0.770689
      17.630000       0.534798       0.574474       0.772643
      17.640000       0.536645       0.575002       0.774621
      17.650000       0.538262       0.575491       0.776625
      17.660000       0.539631       0.575954       0.778663
      17.670000       0.540746       0.576416       0.780748
      17.680000       0.541616       0.576908       0.782897
      17.690000       0.542265       0.577465       0.785123
      17.700000       0.542734       0.578113       0.787435
      17.710000       0.543074       0.578867       0.789833
      17.720000       0.543345       0.579718       0.792302
      17.730000       0.543615       0.580643       0.794817
      17.740000       0.543953       0.581605       0.797342
      17.750000       0.544429       0.582566       0.799839
      17.760000       0.545101       0.583489       0.802264
      17.770000       0.546016       0.584347       0.804582
      17.780000       0.547199       0.585120       0.806758
      17.790000       0.548660       0.585795       0.808771
      17.800000       0.550390       0.586363       0.810614
      17.810000       0.552371       0.586819       0.812296
      17.820000       0.554579       0.587159       0.813844
      17.830000       0.556981       0.587381       0.815300
      17.840000       0.559546       0.587484       0.816716
      17.850000       0.562236       0.587470       0.818152
      17.860000       0.565016       0.587351       0.819661
      17.870000       0.567854       0.587150       0.821297
      17.880000       0.570722       0.586901       0.823100
      17.890000       0.573595       0.586643       0.825104
      17.900000       0.576455       0.586412       0.827332
      17.910000       0.579279       0.586229       0.829794
      17.920000       0.582050       0.586092       0.832493
      17.930000       0.584746       0.585978       0.835420
      17.940000       0.587345       0.585845       0.838556
      17.950000       0.589821       0.585635       0.841876
      17.960000       0.592140       0.585297       0.845348
      17.970000       0.594257       0.584789       0.848941
      17.980000       0.596115       0.584099       0.852620
      17.990000       0.597645       0.583245       0.856352
      18.000000       0.598772       0.582277       0.860105
      18.010000       0.599422       0.581270       0.863844
      18.020000       0.599526       0.580306       0.867533
      18.030000       0.599036       0.579465       0.871140
      18.040000       0.597929       0.578807       0.874637
      18.050000       0.596212       0.578362       0.878005
      18.060000       0.593923       0.578134       0.881237
      18.070000       0.591121       0.578099       0.884336
      18.080000       0.587876       0.578218       0.887309
      18.090000       0.584262       0.578443       0.890163
      18.100000       0.580354       0.578727       0.892902
      18.110000       0.576237       0.579035       0.895522
      18.120000       0.572010       0.579349       0.898021
      18.130000       0.567795       0.579671       0.900391
      18.140000       0.563726       0.580022       0.902629
      18.150000       0.559936       0.580431       0.904730
      18.160000       0.556543       0.580924       0.906692
      18.170000       0.553638       0.581522       0.908510
      18.180000       0.551277       0.582227       0.910180
      18.190000       0.549488       0.583031       0.911695
      18.200000       0.548272       0.583912       0.913047
      18.210000       0.547611       0.584841       0.914225
      18.220000       0.547471       0.585781       0.915215
      18.230000       0.547810       0.586691       0.916001
      18.240000       0.548576       0.587534       0.916572
      18.250000       0.549717       0.588274       0.916928
      18.260000       0.551175       0.588888       0.917093
      18.270000       0.552895       0.589360       0.917121
      18.280000       0.554818       0.589690       0.917094
      18.290000       0.556891       0.589889       0.917115
      18.300000       0.559065       0.589976       0.917285
      18.310000       0.561296       0.589974       0.917689
      18.320000       0.563553       0.589909       0.918383
      18.330000       0.565815       0.589805       0.919382
      18.340000       0.568071       0.589684       0.920666
      18.350000       0.570313       0.589561       0.922177
      18.360000       0.572531       0.589442       0.923830
      18.370000       0.574710       0.589319       0.925521
      18.380000       0.576831       0.589175       0.927142
      18.390000       0.578872       0.588992       0.928594
      18.400000       0.580813       0.588759       0.929793
      18.410000       0.582643       0.588480       0.930668
      18.420000       0.584358       0.588178       0.931153
      18.430000       0.585966       0.587897       0.931176
      18.440000       0.587482       0.587686       0.930658
      18.450000       0.588929       0.587591       0.929527
      18.460000       0.590329       0.587640       0.927736
      18.470000       0.591702       0.587839       0.925282
      18.480000       0.593067       0.588168       0.922214
      18.490000       0.594435       0.588593       0.918621
      18.500000       0.595818       0.589068       0.914621
      18.510000       0.597227       0.589541       0.910342
      18.520000       0.598672       0.589965       0.905922
      18.530000       0.600169       0.590297       0.901506
      18.540000       0.601733       0.590509       0.897246
      18.550000       0.603378       0.590590       0.893289
      18.560000       0.605109       0.590548       0.889759
      18.570000       0.606921       0.590409       0.886734
      18.580000       0.608796       0.590216       0.884252
      18.590000       0.610703       0.590014       0.882316
      18.600000       0.612596       0.589848       0.880910
      18.610000       0.614423       0.589751       0.880019
      18.620000       0.616123       0.589744       0.879629
      18.630000       0.617632       0.589835       0.879719
      18.640000       0.618891       0.590027       0.880254
      18.650000       0.619848       0.590319       0.881172
      18.660000       0.620468       0.590708       0.882382
      18.670000       0.620735       0.591190       0.883767
      18.680000       0.620659       0.591757       0.885194
      18.690000       0.620277       0.592399       0.886523
      18.700000       0.619648       0.593102       0.887619
      18.710000       0.618854       0.593855       0.888364
      18.720000       0.617983       0.594648       0.888669
      18.730000       0.617128       0.595478       0.888489
      18.740000       0.616369       0.596342       0.887821
      18.750000       0.615766       0.597244       0.886703
      18.760000       0.615354       0.598184       0.885204
      18.770000       0.615140       0.599162       0.883415
      18.780000       0.615107       0.600169       0.881442
      18.790000       0.615218       0.601188       0.879404
      18.800000       0.615425       0.602193       0.877431
      18.810000       0.615678       0.603156       0.875653
      18.820000       0.615933       0.604044       0.874189
      18.830000       0.616158       0.604829       0.873129
      18.840000       0.616332       0.605490       0.872513
      18.850000       0.616448       0.606018       0.872324
      18.860000       0.616506       0.606419       0.872486
      18.870000       0.616508       0.606714       0.872875
      18.880000       0.616456       0.606937       0.873344
      18.890000       0.616349       0.607134       0.873741
      18.900000       0.616187       0.607354       0.873946
      18.910000       0.615966       0.607643       0.873882
      18.920000       0.615679       0.608041       0.873529
      18.930000       0.615318       0.608574       0.872919
      18.940000       0.614867       0.609256       0.872114
      18.950000       0.614310       0.610084       0.871187
      18.960000       0.613633       0.611046       0.870187
      18.970000       0.612833       0.612117       0.869128
      18.980000       0.611923       0.613266       0.867977
      18.990000       0.610937       0.614460       0.866660
      19.000000       0.609927       0.615671       0.865071
      19.010000       0.608950       0.616877       0.863090
      19.020000       0.608063       0.618066       0.860609
      19.030000       0.607316       0.619237       0.857554
      19.040000       0.606747       0.620398       0.853912
      19.050000       0.606383       0.621557       0.849733
      19.060000       0.606242       0.622724       0.845137
      19.070000       0.606330       0.623898       0.840290
      19.080000       0.606645       0.625073       0.835377
      19.090000       0.607172       0.626237       0.830573
      19.100000       0.607885       0.627370       0.826021
      19.110000       0.608751       0.628448       0.821817
      19.120000       0.609730       0.629446       0.818011
      19.130000       0.610779       0.630337       0.814603
      19.140000       0.611862       0.631099       0.811552
      19.150000       0.612946       0.631725       0.808786
      19.160000       0.614010       0.632230       0.806213
      19.170000       0.615042       0.632645       0.803746
      19.180000       0.616038       0.633018       0.801331
      19.190000       0.617004       0.633404       0.798956
      19.200000       0.617948       0.633847       0.796667
      19.210000       0.618880       0.634375       0.794552
      19.220000       0.619812       0.634997       0.792727
      19.230000       0.620752       0.635703       0.791311
      19.240000       0.621712       0.636473       0.790407
      19.250000       0.622703       0.637285       0.790082
      19.260000       0.623735       0.638120       0.790362
      19.270000       0.624818       0.638968       0.791226
      19.280000       0.625952       0.639820       0.792618
      19.290000       0.627129       0.640673       0.794459
      19.300000       0.628330       0.641520       0.796659
      19.310000       0.629528       0.642352       0.799127
      19.320000       0.630694       0.643155       0.801777
      19.330000       0.631803       0.643908       0.804526
      19.340000       0.632833       0.644587       0.807296
      19.350000       0.633771       0.645162       0.810017
      19.360000       0.634610       0.645602       0.812630
      19.370000       0.635346       0.645876       0.815086
      19.380000       0.635978       0.645960       0.817343
      19.390000       0.636510       0.645846       0.819358
      19.400000       0.636947       0.645540       0.821089
      19.410000       0.637303       0.645071       0.822492
      19.420000       0.637597       0.644487       0.823531
      19.430000       0.637851       0.643850       0.824181
      19.440000       0.638088       0.643228       0.824443
      19.450000       0.638330       0.642688       0.824345
      19.460000       0.638593       0.642286       0.823946
      19.470000       0.638886       0.642064       0.823338
      19.480000       0.639213       0.642047       0.822632
      19.490000       0.639573       0.642242       0.821940
      19.500000       0.639963       0.642645       0.821359
      19.510000       0.640384       0.643239       0.820950
      19.520000       0.640837       0.644001       0.820721
      19.530000       0.641329       0.644907       0.820625
      19.540000       0.641863       0.645929       0.820571
      19.550000       0.642443       0.647039       0.820437
      19.560000       0.643065       0.648212       0.820093
      19.570000       0.643719       0.649419       0.819427
      19.580000       0.644392       0.650633       0.818367
      19.590000       0.645062       0.651831       0.816899
      19.600000       0.645712       0.652990       0.815074
      19.610000       0.646324       0.654096       0.812999
      19.620000       0.646891       0.655137       0.810818
      19.630000       0.647415       0.656113       0.808673
      19.640000       0.647905       0.657025       0.806672
      19.650000       0.648379       0.657883       0.804864
      19.660000       0.648850       0.658695       0.803228
      19.670000       0.649328       0.659470       0.801690
      19.680000       0.649813       0.660217       0.800149
      19.690000       0.650295       0.660940       0.798509
      19.700000       0.650760       0.661646       0.796707
      19.710000       0.651188       0.662338       0.794721
      19.720000       0.651566       0.663019       0.792569
      19.730000       0.651884       0.663689       0.790286
      19.740000       0.652143       0.664345       0.787912
      19.750000       0.652351       0.664980       0.785473
      19.760000       0.652524       0.665585       0.782991
      19.770000       0.652681       0.666151       0.780493
      19.780000       0.652837       0.666669       0.778031
      19.790000       0.653004       0.667130       0.775683
      19.800000       0.653184       0.667533       0.773542
      19.810000       0.653379       0.667877       0.771704
      19.820000       0.653588       0.668171       0.770239
      19.830000       0.653814       0.668426       0.769183
      19.840000       0.654066       0.668661       0.768527
      19.850000       0.654359       0.668896       0.768224
      19.860000       0.654710       0.669154       0.768200
      19.870000       0.655140       0.669455       0.768374
      19.880000       0.655665       0.669815       0.768674
      19.890000       0.656296       0.670241       0.769049
      19.900000       0.657031       0.670732       0.769466
      19.910000       0.657859       0.671277       0.769906
      19.920000       0.658758       0.671858       0.770363
      19.930000       0.659699       0.672455       0.770834
      19.940000       0.660650       0.673047       0.771317
      19.950000       0.661580       0.673618       0.771811
      19.960000       0.662461       0.674155       0.772312
      19.970000       0.663268       0.674653       0.772815
      19.980000       0.663983       0.675114       0.773318
      19.990000       0.664592       0.675548       0.773825
      20.000000       0.665088       0.675966       0.774353
