  # energy grid [eV]     epsi_x  epsi_y  epsi_z
       0.000000            NaN            NaN            NaN
       0.010000       0.000181       0.000043       0.000141
       0.020000       0.000362       0.000086       0.000282
       0.030000       0.000543       0.000129       0.000424
       0.040000       0.000724       0.000172       0.000566
       0.050000       0.000905       0.000216       0.000708
       0.060000       0.001087       0.000259       0.000851
       0.070000       0.001268       0.000302       0.000996
       0.080000       0.001450       0.000345       0.001141
       0.090000       0.001631       0.000388       0.001288
       0.100000       0.001813       0.000431       0.001436
       0.110000       0.001995       0.000474       0.001586
       0.120000       0.002178       0.000518       0.001738
       0.130000       0.002361       0.000561       0.001893
       0.140000       0.002544       0.000604       0.002049
       0.150000       0.002727       0.000647       0.002208
       0.160000       0.002910       0.000691       0.002370
       0.170000       0.003094       0.000734       0.002535
       0.180000       0.003279       0.000778       0.002704
       0.190000       0.003464       0.000821       0.002876
       0.200000       0.003649       0.000864       0.003053
       0.210000       0.003834       0.000908       0.003234
       0.220000       0.004020       0.000951       0.003420
       0.230000       0.004207       0.000995       0.003611
       0.240000       0.004394       0.001039       0.003809
       0.250000       0.004582       0.001082       0.004013
       0.260000       0.004770       0.001126       0.004223
       0.270000       0.004959       0.001170       0.004442
       0.280000       0.005148       0.001214       0.004669
       0.290000       0.005339       0.001258       0.004905
       0.300000       0.005529       0.001302       0.005152
       0.310000       0.005721       0.001346       0.005409
       0.320000       0.005913       0.001390       0.005679
       0.330000       0.006106       0.001434       0.005962
       0.340000       0.006300       0.001478       0.006261
       0.350000       0.006495       0.001522       0.006575
       0.360000       0.006690       0.001567       0.006908
       0.370000       0.006886       0.001611       0.007262
       0.380000       0.007084       0.001655       0.007637
       0.390000       0.007282       0.001700       0.008038
       0.400000       0.007481       0.001745       0.008467
       0.410000       0.007681       0.001789       0.008928
       0.420000       0.007882       0.001834       0.009423
       0.430000       0.008084       0.001879       0.009959
       0.440000       0.008287       0.001924       0.010539
       0.450000       0.008492       0.001969       0.011169
       0.460000       0.008697       0.002014       0.011857
       0.470000       0.008904       0.002060       0.012609
       0.480000       0.009112       0.002105       0.013435
       0.490000       0.009321       0.002150       0.014345
       0.500000       0.009532       0.002196       0.015350
       0.510000       0.009744       0.002242       0.016464
       0.520000       0.009957       0.002288       0.017702
       0.530000       0.010171       0.002333       0.019080
       0.540000       0.010387       0.002379       0.020618
       0.550000       0.010605       0.002426       0.022334
       0.560000       0.010824       0.002472       0.024250
       0.570000       0.011045       0.002518       0.026384
       0.580000       0.011267       0.002565       0.028753
       0.590000       0.011491       0.002611       0.031365
       0.600000       0.011717       0.002658       0.034216
       0.610000       0.011944       0.002705       0.037279
       0.620000       0.012173       0.002752       0.040501
       0.630000       0.012404       0.002799       0.043784
       0.640000       0.012637       0.002847       0.046988
       0.650000       0.012872       0.002894       0.049926
       0.660000       0.013109       0.002942       0.052381
       0.670000       0.013348       0.002990       0.054140
       0.680000       0.013589       0.003038       0.055031
       0.690000       0.013832       0.003086       0.054970
       0.700000       0.014077       0.003134       0.053981
       0.710000       0.014325       0.003183       0.052190
       0.720000       0.014575       0.003231       0.049793
       0.730000       0.014828       0.003280       0.047010
       0.740000       0.015083       0.003329       0.044048
       0.750000       0.015340       0.003378       0.041076
       0.760000       0.015600       0.003428       0.038214
       0.770000       0.015863       0.003477       0.035541
       0.780000       0.016128       0.003527       0.033098
       0.790000       0.016397       0.003577       0.030901
       0.800000       0.016668       0.003627       0.028949
       0.810000       0.016942       0.003678       0.027228
       0.820000       0.017219       0.003728       0.025723
       0.830000       0.017499       0.003779       0.024414
       0.840000       0.017783       0.003830       0.023281
       0.850000       0.018070       0.003881       0.022305
       0.860000       0.018360       0.003933       0.021468
       0.870000       0.018654       0.003985       0.020757
       0.880000       0.018952       0.004037       0.020156
       0.890000       0.019253       0.004089       0.019654
       0.900000       0.019558       0.004141       0.019241
       0.910000       0.019866       0.004194       0.018909
       0.920000       0.020179       0.004247       0.018649
       0.930000       0.020496       0.004300       0.018457
       0.940000       0.020817       0.004354       0.018326
       0.950000       0.021143       0.004408       0.018252
       0.960000       0.021473       0.004462       0.018233
       0.970000       0.021808       0.004517       0.018265
       0.980000       0.022148       0.004571       0.018347
       0.990000       0.022492       0.004627       0.018478
       1.000000       0.022842       0.004682       0.018656
       1.010000       0.023196       0.004738       0.018883
       1.020000       0.023556       0.004794       0.019157
       1.030000       0.023922       0.004850       0.019482
       1.040000       0.024294       0.004907       0.019858
       1.050000       0.024671       0.004964       0.020287
       1.060000       0.025054       0.005022       0.020773
       1.070000       0.025444       0.005080       0.021320
       1.080000       0.025840       0.005138       0.021932
       1.090000       0.026243       0.005197       0.022614
       1.100000       0.026652       0.005256       0.023373
       1.110000       0.027069       0.005315       0.024217
       1.120000       0.027493       0.005375       0.025155
       1.130000       0.027925       0.005435       0.026197
       1.140000       0.028365       0.005496       0.027354
       1.150000       0.028812       0.005557       0.028643
       1.160000       0.029268       0.005619       0.030078
       1.170000       0.029733       0.005681       0.031679
       1.180000       0.030207       0.005744       0.033467
       1.190000       0.030690       0.005807       0.035468
       1.200000       0.031182       0.005871       0.037710
       1.210000       0.031685       0.005935       0.040224
       1.220000       0.032198       0.006000       0.043047
       1.230000       0.032722       0.006066       0.046215
       1.240000       0.033256       0.006132       0.049768
       1.250000       0.033803       0.006198       0.053744
       1.260000       0.034361       0.006266       0.058175
       1.270000       0.034931       0.006333       0.063079
       1.280000       0.035515       0.006402       0.068453
       1.290000       0.036112       0.006471       0.074257
       1.300000       0.036723       0.006541       0.080400
       1.310000       0.037348       0.006612       0.086718
       1.320000       0.037988       0.006683       0.092971
       1.330000       0.038645       0.006755       0.098838
       1.340000       0.039317       0.006828       0.103938
       1.350000       0.040006       0.006902       0.107882
       1.360000       0.040714       0.006976       0.110333
       1.370000       0.041439       0.007051       0.111072
       1.380000       0.042185       0.007128       0.110049
       1.390000       0.042950       0.007205       0.107386
       1.400000       0.043736       0.007283       0.103355
       1.410000       0.044545       0.007362       0.098317
       1.420000       0.045376       0.007442       0.092659
       1.430000       0.046232       0.007523       0.086736
       1.440000       0.047113       0.007606       0.080839
       1.450000       0.048020       0.007689       0.075179
       1.460000       0.048956       0.007774       0.069893
       1.470000       0.049920       0.007859       0.065056
       1.480000       0.050915       0.007946       0.060693
       1.490000       0.051943       0.008035       0.056803
       1.500000       0.053004       0.008124       0.053361
       1.510000       0.054101       0.008216       0.050335
       1.520000       0.055236       0.008308       0.047688
       1.530000       0.056410       0.008402       0.045381
       1.540000       0.057626       0.008498       0.043380
       1.550000       0.058887       0.008595       0.041649
       1.560000       0.060194       0.008694       0.040161
       1.570000       0.061551       0.008795       0.038888
       1.580000       0.062960       0.008898       0.037807
       1.590000       0.064424       0.009003       0.036900
       1.600000       0.065948       0.009109       0.036150
       1.610000       0.067534       0.009218       0.035542
       1.620000       0.069186       0.009329       0.035064
       1.630000       0.070910       0.009443       0.034707
       1.640000       0.072710       0.009559       0.034464
       1.650000       0.074590       0.009678       0.034326
       1.660000       0.076556       0.009799       0.034291
       1.670000       0.078615       0.009923       0.034354
       1.680000       0.080772       0.010050       0.034513
       1.690000       0.083036       0.010180       0.034768
       1.700000       0.085414       0.010314       0.035120
       1.710000       0.087914       0.010451       0.035569
       1.720000       0.090547       0.010592       0.036118
       1.730000       0.093323       0.010737       0.036773
       1.740000       0.096252       0.010886       0.037539
       1.750000       0.099349       0.011039       0.038422
       1.760000       0.102628       0.011197       0.039432
       1.770000       0.106103       0.011360       0.040579
       1.780000       0.109794       0.011528       0.041877
       1.790000       0.113718       0.011702       0.043340
       1.800000       0.117899       0.011882       0.044986
       1.810000       0.122360       0.012068       0.046835
       1.820000       0.127129       0.012261       0.048913
       1.830000       0.132237       0.012461       0.051248
       1.840000       0.137719       0.012669       0.053871
       1.850000       0.143614       0.012885       0.056819
       1.860000       0.149967       0.013110       0.060134
       1.870000       0.156829       0.013344       0.063863
       1.880000       0.164257       0.013589       0.068056
       1.890000       0.172317       0.013845       0.072766
       1.900000       0.181085       0.014113       0.078044
       1.910000       0.190646       0.014394       0.083939
       1.920000       0.201099       0.014689       0.090485
       1.930000       0.212558       0.014999       0.097690
       1.940000       0.225152       0.015325       0.105526
       1.950000       0.239031       0.015670       0.113904
       1.960000       0.254364       0.016034       0.122661
       1.970000       0.271345       0.016419       0.131545
       1.980000       0.290193       0.016828       0.140212
       1.990000       0.311155       0.017263       0.148249
       2.000000       0.334499       0.017726       0.155217
       2.010000       0.360516       0.018221       0.160706
       2.020000       0.389507       0.018749       0.164395
       2.030000       0.421763       0.019316       0.166093
       2.040000       0.457532       0.019926       0.165758
       2.050000       0.496967       0.020582       0.163486
       2.060000       0.540055       0.021291       0.159483
       2.070000       0.586507       0.022059       0.154031
       2.080000       0.635640       0.022892       0.147456
       2.090000       0.686246       0.023799       0.140102
       2.100000       0.736508       0.024789       0.132301
       2.110000       0.784025       0.025873       0.124359
       2.120000       0.826021       0.027063       0.116539
       2.130000       0.859769       0.028373       0.109045
       2.140000       0.883182       0.029820       0.102025
       2.150000       0.895360       0.031421       0.095569
       2.160000       0.896891       0.033200       0.089720
       2.170000       0.889746       0.035179       0.084483
       2.180000       0.876825       0.037387       0.079838
       2.190000       0.861369       0.039856       0.075751
       2.200000       0.846442       0.042619       0.072178
       2.210000       0.834619       0.045713       0.069072
       2.220000       0.827877       0.049177       0.066390
       2.230000       0.827627       0.053047       0.064089
       2.240000       0.834803       0.057355       0.062131
       2.250000       0.849951       0.062120       0.060481
       2.260000       0.873278       0.067338       0.059112
       2.270000       0.904641       0.072971       0.057997
       2.280000       0.943476       0.078926       0.057115
       2.290000       0.988672       0.085043       0.056450
       2.300000       1.038417       0.091079       0.055986
       2.310000       1.090069       0.096711       0.055714
       2.320000       1.140124       0.101558       0.055624
       2.330000       1.184379       0.105229       0.055712
       2.340000       1.218344       0.107396       0.055974
       2.350000       1.237913       0.107858       0.056410
       2.360000       1.240140       0.106594       0.057021
       2.370000       1.223902       0.103756       0.057813
       2.380000       1.190180       0.099641       0.058791
       2.390000       1.141812       0.094618       0.059967
       2.400000       1.082825       0.089068       0.061351
       2.410000       1.017595       0.083328       0.062961
       2.420000       0.950130       0.077667       0.064815
       2.430000       0.883646       0.072270       0.066936
       2.440000       0.820424       0.067256       0.069351
       2.450000       0.761886       0.062683       0.072094
       2.460000       0.708764       0.058568       0.075201
       2.470000       0.661297       0.054902       0.078715
       2.480000       0.619405       0.051661       0.082685
       2.490000       0.582819       0.048810       0.087166
       2.500000       0.551175       0.046313       0.092216
       2.510000       0.524081       0.044133       0.097899
       2.520000       0.501154       0.042236       0.104278
       2.530000       0.482040       0.040591       0.111407
       2.540000       0.466428       0.039171       0.119331
       2.550000       0.454056       0.037950       0.128062
       2.560000       0.444714       0.036907       0.137572
       2.570000       0.438237       0.036025       0.147768
       2.580000       0.434512       0.035288       0.158474
       2.590000       0.433473       0.034683       0.169419
       2.600000       0.435097       0.034200       0.180241
       2.610000       0.439406       0.033828       0.190508
       2.620000       0.446466       0.033562       0.199768
       2.630000       0.456380       0.033396       0.207601
       2.640000       0.469289       0.033326       0.213680
       2.650000       0.485361       0.033349       0.217805
       2.660000       0.504782       0.033465       0.219909
       2.670000       0.527731       0.033673       0.220047
       2.680000       0.554353       0.033976       0.218370
       2.690000       0.584703       0.034375       0.215085
       2.700000       0.618682       0.034876       0.210433
       2.710000       0.655945       0.035484       0.204662
       2.720000       0.695796       0.036206       0.198011
       2.730000       0.737102       0.037052       0.190703
       2.740000       0.778255       0.038033       0.182940
       2.750000       0.817250       0.039162       0.174903
       2.760000       0.851933       0.040455       0.166751
       2.770000       0.880402       0.041929       0.158629
       2.780000       0.901485       0.043603       0.150665
       2.790000       0.915097       0.045500       0.142978
       2.800000       0.922334       0.047641       0.135672
       2.810000       0.925237       0.050049       0.128833
       2.820000       0.926337       0.052741       0.122531
       2.830000       0.928167       0.055730       0.116810
       2.840000       0.932874       0.059017       0.111691
       2.850000       0.941993       0.062584       0.107174
       2.860000       0.956361       0.066386       0.103242
       2.870000       0.976114       0.070347       0.099869
       2.880000       1.000757       0.074359       0.097021
       2.890000       1.029282       0.078285       0.094662
       2.900000       1.060341       0.081979       0.092758
       2.910000       1.092459       0.085313       0.091278
       2.920000       1.124206       0.088202       0.090194
       2.930000       1.154245       0.090623       0.089483
       2.940000       1.181210       0.092602       0.089128
       2.950000       1.203485       0.094191       0.089115
       2.960000       1.219035       0.095425       0.089438
       2.970000       1.225496       0.096303       0.090092
       2.980000       1.220580       0.096771       0.091081
       2.990000       1.202707       0.096745       0.092412
       3.000000       1.171574       0.096140       0.094098
       3.010000       1.128388       0.094906       0.096156
       3.020000       1.075654       0.093052       0.098612
       3.030000       1.016621       0.090646       0.101496
       3.040000       0.954632       0.087797       0.104845
       3.050000       0.892628       0.084627       0.108703
       3.060000       0.832872       0.081253       0.113122
       3.070000       0.776897       0.077776       0.118161
       3.080000       0.725590       0.074282       0.123886
       3.090000       0.679339       0.070844       0.130366
       3.100000       0.638188       0.067530       0.137673
       3.110000       0.601959       0.064394       0.145875
       3.120000       0.570357       0.061482       0.155026
       3.130000       0.543030       0.058820       0.165153
       3.140000       0.519621       0.056422       0.176242
       3.150000       0.499785       0.054289       0.188211
       3.160000       0.483213       0.052414       0.200896
       3.170000       0.469634       0.050783       0.214030
       3.180000       0.458819       0.049378       0.227246
       3.190000       0.450580       0.048181       0.240100
       3.200000       0.444773       0.047174       0.252113
       3.210000       0.441291       0.046341       0.262832
       3.220000       0.440066       0.045666       0.271889
       3.230000       0.441067       0.045136       0.279036
       3.240000       0.444301       0.044740       0.284165
       3.250000       0.449806       0.044469       0.287290
       3.260000       0.457660       0.044315       0.288528
       3.270000       0.467972       0.044272       0.288061
       3.280000       0.480885       0.044337       0.286108
       3.290000       0.496571       0.044506       0.282907
       3.300000       0.515225       0.044778       0.278690
       3.310000       0.537056       0.045155       0.273682
       3.320000       0.562263       0.045636       0.268087
       3.330000       0.591005       0.046227       0.262088
       3.340000       0.623360       0.046930       0.255847
       3.350000       0.659254       0.047752       0.249503
       3.360000       0.698388       0.048700       0.243172
       3.370000       0.740148       0.049781       0.236949
       3.380000       0.783546       0.051005       0.230912
       3.390000       0.827211       0.052381       0.225121
       3.400000       0.869504       0.053921       0.219628
       3.410000       0.908769       0.055633       0.214485
       3.420000       0.943692       0.057532       0.209752
       3.430000       0.973675       0.059628       0.205502
       3.440000       0.999041       0.061935       0.201816
       3.450000       1.020984       0.064463       0.198769
       3.460000       1.041248       0.067221       0.196416
       3.470000       1.061675       0.070208       0.194772
       3.480000       1.083781       0.073408       0.193810
       3.490000       1.108471       0.076791       0.193466
       3.500000       1.135962       0.080309       0.193654
       3.510000       1.165893       0.083902       0.194296
       3.520000       1.197588       0.087510       0.195343
       3.530000       1.230371       0.091084       0.196791
       3.540000       1.263817       0.094601       0.198687
       3.550000       1.297787       0.098056       0.201117
       3.560000       1.332218       0.101457       0.204186
       3.570000       1.366709       0.104795       0.207992
       3.580000       1.400097       0.108027       0.212614
       3.590000       1.430193       0.111065       0.218098
       3.600000       1.453858       0.113779       0.224459
       3.610000       1.467461       0.116023       0.231696
       3.620000       1.467671       0.117668       0.239816
       3.630000       1.452334       0.118639       0.248850
       3.640000       1.421122       0.118934       0.258865
       3.650000       1.375677       0.118629       0.269956
       3.660000       1.319214       0.117869       0.282210
       3.670000       1.255768       0.116833       0.295675
       3.680000       1.189413       0.115713       0.310316
       3.690000       1.123678       0.114691       0.325987
       3.700000       1.061267       0.113916       0.342415
       3.710000       1.004021       0.113499       0.359199
       3.720000       0.953030       0.113503       0.375833
       3.730000       0.908808       0.113935       0.391742
       3.740000       0.871468       0.114749       0.406342
       3.750000       0.840864       0.115847       0.419098
       3.760000       0.816711       0.117090       0.429585
       3.770000       0.798657       0.118319       0.437532
       3.780000       0.786348       0.119391       0.442831
       3.790000       0.779461       0.120209       0.445532
       3.800000       0.777706       0.120747       0.445808
       3.810000       0.780819       0.121057       0.443921
       3.820000       0.788506       0.121251       0.440176
       3.830000       0.800397       0.121462       0.434895
       3.840000       0.815981       0.121820       0.428389
       3.850000       0.834587       0.122421       0.420939
       3.860000       0.855398       0.123318       0.412788
       3.870000       0.877538       0.124529       0.404137
       3.880000       0.900191       0.126040       0.395160
       3.890000       0.922722       0.127827       0.386012
       3.900000       0.944737       0.129858       0.376841
       3.910000       0.966048       0.132102       0.367784
       3.920000       0.986580       0.134524       0.358963
       3.930000       1.006295       0.137095       0.350471
       3.940000       1.025182       0.139797       0.342372
       3.950000       1.043332       0.142637       0.334703
       3.960000       1.061009       0.145661       0.327480
       3.970000       1.078670       0.148947       0.320716
       3.980000       1.096889       0.152591       0.314426
       3.990000       1.116212       0.156673       0.308633
       4.000000       1.137011       0.161230       0.303359
       4.010000       1.159357       0.166226       0.298627
       4.020000       1.182949       0.171534       0.294455
       4.030000       1.207136       0.176944       0.290863
       4.040000       1.231056       0.182181       0.287880
       4.050000       1.253915       0.186956       0.285556
       4.060000       1.275316       0.191034       0.283966
       4.070000       1.295516       0.194296       0.283213
       4.080000       1.315471       0.196780       0.283427
       4.090000       1.336629       0.198677       0.284758
       4.100000       1.360556       0.200282       0.287359
       4.110000       1.388542       0.201941       0.291379
       4.120000       1.421297       0.203977       0.296938
       4.130000       1.458845       0.206660       0.304124
       4.140000       1.500587       0.210176       0.312976
       4.150000       1.545527       0.214627       0.323485
       4.160000       1.592555       0.220037       0.335585
       4.170000       1.640653       0.226363       0.349151
       4.180000       1.688924       0.233496       0.363985
       4.190000       1.736412       0.241273       0.379805
       4.200000       1.781795       0.249472       0.396236
       4.210000       1.823116       0.257818       0.412811
       4.220000       1.857694       0.265987       0.429001
       4.230000       1.882329       0.273609       0.444272
       4.240000       1.893804       0.280296       0.458138
       4.250000       1.889592       0.285685       0.470218
       4.260000       1.868529       0.289515       0.480266
       4.270000       1.831168       0.291708       0.488170
       4.280000       1.779670       0.292424       0.493943
       4.290000       1.717320       0.292049       0.497705
       4.300000       1.647908       0.291123       0.499646
       4.310000       1.575202       0.290234       0.500003
       4.320000       1.502607       0.289912       0.499025
       4.330000       1.432978       0.290547       0.496948
       4.340000       1.368533       0.292340       0.493978
       4.350000       1.310828       0.295276       0.490286
       4.360000       1.260765       0.299115       0.486011
       4.370000       1.218630       0.303399       0.481270
       4.380000       1.184146       0.307498       0.476167
       4.390000       1.156539       0.310694       0.470799
       4.400000       1.134623       0.312306       0.465246
       4.410000       1.116920       0.311828       0.459579
       4.420000       1.101828       0.309028       0.453849
       4.430000       1.087829       0.303969       0.448098
       4.440000       1.073705       0.296944       0.442368
       4.450000       1.058708       0.288374       0.436711
       4.460000       1.042654       0.278708       0.431206
       4.470000       1.025910       0.268367       0.425965
       4.480000       1.009291       0.257725       0.421133
       4.490000       0.993888       0.247116       0.416891
       4.500000       0.980874       0.236841       0.413447
       4.510000       0.971334       0.227160       0.411020
       4.520000       0.966138       0.218288       0.409837
       4.530000       0.965885       0.210381       0.410122
       4.540000       0.970881       0.203537       0.412092
       4.550000       0.981155       0.197796       0.415958
       4.560000       0.996477       0.193151       0.421908
       4.570000       1.016394       0.189554       0.430103
       4.580000       1.040251       0.186923       0.440649
       4.590000       1.067201       0.185147       0.453576
       4.600000       1.096197       0.184091       0.468808
       4.610000       1.125979       0.183607       0.486130
       4.620000       1.155097       0.183548       0.505168
       4.630000       1.182022       0.183793       0.525392
       4.640000       1.205384       0.184269       0.546141
       4.650000       1.224277       0.184966       0.566680
       4.660000       1.238545       0.185933       0.586288
       4.670000       1.248917       0.187265       0.604340
       4.680000       1.256916       0.189072       0.620368
       4.690000       1.264563       0.191455       0.634097
       4.700000       1.273966       0.194476       0.645439
       4.710000       1.286937       0.198146       0.654475
       4.720000       1.304709       0.202408       0.661406
       4.730000       1.327784       0.207137       0.666513
       4.740000       1.355915       0.212141       0.670110
       4.750000       1.388201       0.217181       0.672507
       4.760000       1.423291       0.222014       0.673982
       4.770000       1.459667       0.226439       0.674771
       4.780000       1.495916       0.230351       0.675062
       4.790000       1.530880       0.233769       0.675003
       4.800000       1.563616       0.236831       0.674719
       4.810000       1.593181       0.239754       0.674329
       4.820000       1.618417       0.242777       0.673962
       4.830000       1.637890       0.246104       0.673766
       4.840000       1.650099       0.249866       0.673907
       4.850000       1.653863       0.254104       0.674562
       4.860000       1.648709       0.258778       0.675902
       4.870000       1.635085       0.263799       0.678092
       4.880000       1.614334       0.269075       0.681282
       4.890000       1.588505       0.274558       0.685622
       4.900000       1.560069       0.280275       0.691263
       4.910000       1.531615       0.286327       0.698367
       4.920000       1.505547       0.292848       0.707100
       4.930000       1.483803       0.299952       0.717620
       4.940000       1.467652       0.307670       0.730069
       4.950000       1.457574       0.315912       0.744554
       4.960000       1.453262       0.324460       0.761127
       4.970000       1.453725       0.333006       0.779766
       4.980000       1.457519       0.341219       0.800348
       4.990000       1.463080       0.348845       0.822629
       5.000000       1.469102       0.355800       0.846241
       5.010000       1.474850       0.362210       0.870721
       5.020000       1.480282       0.368402       0.895566
       5.030000       1.485938       0.374826       0.920312
       5.040000       1.492632       0.381957       0.944607
       5.050000       1.501121       0.390194       0.968256
       5.060000       1.511857       0.399791       0.991236
       5.070000       1.524926       0.410816       1.013682
       5.080000       1.540162       0.423147       1.035850
       5.090000       1.557342       0.436487       1.058081
       5.100000       1.576391       0.450409       1.080770
       5.110000       1.597505       0.464425       1.104347
       5.120000       1.621154       0.478059       1.129256
       5.130000       1.647993       0.490942       1.155958
       5.140000       1.678719       0.502889       1.184922
       5.150000       1.713921       0.513944       1.216633
       5.160000       1.753955       0.524360       1.251598
       5.170000       1.798836       0.534497       1.290362
       5.180000       1.848183       0.544685       1.333520
       5.190000       1.901262       0.555080       1.381731
       5.200000       1.957171       0.565579       1.435703
       5.210000       2.015139       0.575815       1.496149
       5.220000       2.074855       0.585229       1.563710
       5.230000       2.136680       0.593183       1.638850
       5.240000       2.201623       0.599077       1.721720
       5.250000       2.271103       0.602418       1.812020
       5.260000       2.346594       0.602865       1.908847
       5.270000       2.429317       0.600260       2.010564
       5.280000       2.520076       0.594670       2.114739
       5.290000       2.619230       0.586433       2.218205
       5.300000       2.726726       0.576164       2.317310
       5.310000       2.842076       0.564697       2.408353
       5.320000       2.964242       0.552971       2.488113
       5.330000       3.091451       0.541909       2.554302
       5.340000       3.221048       0.532309       2.605802
       5.350000       3.349483       0.524790       2.642642
       5.360000       3.472532       0.519780       2.665830
       5.370000       3.585725       0.517541       2.677122
       5.380000       3.684920       0.518205       2.678748
       5.390000       3.766876       0.521813       2.673081
       5.400000       3.829673       0.528360       2.662233
       5.410000       3.872898       0.537826       2.647722
       5.420000       3.897544       0.550219       2.630353
       5.430000       3.905662       0.565599       2.610399
       5.440000       3.899904       0.584092       2.588001
       5.450000       3.883133       0.605874       2.563589
       5.460000       3.858214       0.631131       2.538109
       5.470000       3.827947       0.660001       2.512946
       5.480000       3.794979       0.692501       2.489596
       5.490000       3.761589       0.728465       2.469262
       5.500000       3.729320       0.767495       2.452529
       5.510000       3.698637       0.808946       2.439204
       5.520000       3.668774       0.851960       2.428357
       5.530000       3.637878       0.895554       2.418531
       5.540000       3.603459       0.938742       2.408103
       5.550000       3.563060       0.980665       2.395690
       5.560000       3.515024       1.020684       2.380512
       5.570000       3.459179       1.058436       2.362576
       5.580000       3.397212       1.093843       2.342629
       5.590000       3.332578       1.127114       2.321938
       5.600000       3.269929       1.158690       2.301992
       5.610000       3.214253       1.189122       2.284251
       5.620000       3.169990       1.218878       2.269972
       5.630000       3.140350       1.248127       2.260102
       5.640000       3.126925       1.276609       2.255218
       5.650000       3.129566       1.303688       2.255469
       5.660000       3.146453       1.328573       2.260543
       5.670000       3.174289       1.350635       2.269647
       5.680000       3.208585       1.369649       2.281537
       5.690000       3.244067       1.385830       2.294613
       5.700000       3.275215       1.399637       2.307107
       5.710000       3.296947       1.411495       2.317341
       5.720000       3.305355       1.421574       2.324012
       5.730000       3.298355       1.429754       2.326389
       5.740000       3.276040       1.435748       2.324331
       5.750000       3.240635       1.439288       2.318099
       5.760000       3.196024       1.440264       2.308039
       5.770000       3.147008       1.438806       2.294286
       5.780000       3.098520       1.435303       2.276604
       5.790000       3.055014       1.430404       2.254384
       5.800000       3.020128       1.424981       2.226795
       5.810000       2.996573       1.420048       2.193008
       5.820000       2.986132       1.416656       2.152441
       5.830000       2.989660       1.415802       2.104952
       5.840000       3.007025       1.418391       2.050929
       5.850000       3.037005       1.425222       1.991266
       5.860000       3.077203       1.436969       1.927276
       5.870000       3.124112       1.454095       1.860593
       5.880000       3.173417       1.476750       1.793101
       5.890000       3.220572       1.504699       1.726848
       5.900000       3.261516       1.537334       1.663932
       5.910000       3.293265       1.573796       1.606332
       5.920000       3.314133       1.613136       1.555760
       5.930000       3.323521       1.654451       1.513556
       5.940000       3.321432       1.696916       1.480663
       5.950000       3.307964       1.739695       1.457667
       5.960000       3.283019       1.781800       1.444853
       5.970000       3.246300       1.822007       1.442278
       5.980000       3.197576       1.858890       1.449815
       5.990000       3.137112       1.890965       1.467183
       6.000000       3.066098       1.916881       1.493966
       6.010000       2.986871       1.935559       1.529623
       6.020000       2.902798       1.946248       1.573510
       6.030000       2.817785       1.948534       1.624892
       6.040000       2.735579       1.942315       1.682930
       6.050000       2.659114       1.927753       1.746625
       6.060000       2.590077       1.905169       1.814735
       6.070000       2.528821       1.874932       1.885699
       6.080000       2.474593       1.837412       1.957653
       6.090000       2.425998       1.793098       2.028563
       6.100000       2.381538       1.742829       2.096462
       6.110000       2.340067       1.687996       2.159759
       6.120000       2.301024       1.630604       2.217521
       6.130000       2.264432       1.573107       2.269643
       6.140000       2.230752       1.518123       2.316855
       6.150000       2.200738       1.468117       2.360515
       6.160000       2.175385       1.425164       2.402277
       6.170000       2.155958       1.390833       2.443731
       6.180000       2.144014       1.366175       2.486134
       6.190000       2.141330       1.351764       2.530273
       6.200000       2.149742       1.347755       2.576445
       6.210000       2.170924       1.353916       2.624515
       6.220000       2.206183       1.369638       2.674013
       6.230000       2.256289       1.393909       2.724230
       6.240000       2.321322       1.425305       2.774293
       6.250000       2.400541       1.462019       2.823189
       6.260000       2.492247       1.501975       2.869782
       6.270000       2.593672       1.543034       2.912868
       6.280000       2.700924       1.583251       2.951317
       6.290000       2.809012       1.621111       2.984283
       6.300000       2.912027       1.655658       3.011413
       6.310000       3.003493       1.686460       3.032937
       6.320000       3.076949       1.713416       3.049554
       6.330000       3.126733       1.736501       3.062150
       6.340000       3.148834       1.755538       3.071472
       6.350000       3.141569       1.770095       3.077892
       6.360000       3.105845       1.779547       3.081340
       6.370000       3.044888       1.783274       3.081352
       6.380000       2.963577       1.780933       3.077175
       6.390000       2.867630       1.772677       3.067881
       6.400000       2.762911       1.759238       3.052508
       6.410000       2.654935       1.741853       3.030219
       6.420000       2.548565       1.722045       3.000507
       6.430000       2.447832       1.701330       2.963374
       6.440000       2.355842       1.680917       2.919412
       6.450000       2.274786       1.661499       2.869726
       6.460000       2.206027       1.643209       2.815707
       6.470000       2.150243       1.625762       2.758764
       6.480000       2.107581       1.608742       2.700139
       6.490000       2.077773       1.591918       2.640865
       6.500000       2.060222       1.575491       2.581837
       6.510000       2.054043       1.560182       2.523917
       6.520000       2.058111       1.547140       2.467968
       6.530000       2.071117       1.537707       2.414782
       6.540000       2.091687       1.533115       2.364944
       6.550000       2.118528       1.534201       2.318712
       6.560000       2.150593       1.541225       2.275996
       6.570000       2.187191       1.553807       2.236437
       6.580000       2.228000       1.571010       2.199550
       6.590000       2.272994       1.591535       2.164857
       6.600000       2.322314       1.613992       2.131968
       6.610000       2.376132       1.637171       2.100604
       6.620000       2.434540       1.660252       2.070590
       6.630000       2.497477       1.682872       2.041878
       6.640000       2.564739       1.705049       2.014588
       6.650000       2.636018       1.727002       1.989070
       6.660000       2.710924       1.748953       1.965906
       6.670000       2.788919       1.770989       1.945842
       6.680000       2.869161       1.792994       1.929621
       6.690000       2.950346       1.814645       1.917774
       6.700000       3.030663       1.835434       1.910425
       6.710000       3.107927       1.854728       1.907172
       6.720000       3.179876       1.871878       1.907098
       6.730000       3.244527       1.886365       1.908891
       6.740000       3.300440       1.897931       1.911011
       6.750000       3.346807       1.906656       1.911854
       6.760000       3.383372       1.912872       1.909883
       6.770000       3.410323       1.916972       1.903768
       6.780000       3.428211       1.919146       1.892567
       6.790000       3.437938       1.919210       1.875939
       6.800000       3.440706       1.916603       1.854278
       6.810000       3.437876       1.910603       1.828688
       6.820000       3.430741       1.900652       1.800720
       6.830000       3.420294       1.886674       1.771980
       6.840000       3.407065       1.869241       1.743708
       6.850000       3.391041       1.849547       1.716496
       6.860000       3.371673       1.829247       1.690211
       6.870000       3.348020       1.810227       1.664139
       6.880000       3.319042       1.794365       1.637280
       6.890000       3.284030       1.783298       1.608723
       6.900000       3.243014       1.778185       1.577976
       6.910000       3.196990       1.779488       1.545155
       6.920000       3.147821       1.786808       1.510967
       6.930000       3.097886       1.798839       1.476531
       6.940000       3.049639       1.813481       1.443115
       6.950000       3.005285       1.828121       1.411887
       6.960000       2.966656       1.840056       1.383757
       6.970000       2.935244       1.846938       1.359329
       6.980000       2.912268       1.847156       1.338924
       6.990000       2.898646       1.840061       1.322637
       7.000000       2.894825       1.826002       1.310385
       7.010000       2.900519       1.806175       1.301904
       7.020000       2.914472       1.782300       1.296711
       7.030000       2.934402       1.756229       1.294034
       7.040000       2.957244       1.729576       1.292778
       7.050000       2.979712       1.703507       1.291590
       7.060000       2.999044       1.678728       1.289057
       7.070000       3.013655       1.655638       1.284023
       7.080000       3.023417       1.634553       1.275899
       7.090000       3.029459       1.615893       1.264854
       7.100000       3.033589       1.600264       1.251798
       7.110000       3.037648       1.588447       1.238161
       7.120000       3.043042       1.581310       1.225548
       7.130000       3.050585       1.579692       1.215398
       7.140000       3.060571       1.584293       1.208722
       7.150000       3.072951       1.595604       1.205987
       7.160000       3.087471       1.613877       1.207119
       7.170000       3.103727       1.639134       1.211611
       7.180000       3.121190       1.671166       1.218680
       7.190000       3.139269       1.709498       1.227406
       7.200000       3.157469       1.753296       1.236831
       7.210000       3.175582       1.801293       1.246011
       7.220000       3.193812       1.851784       1.254038
       7.230000       3.212716       1.902783       1.260077
       7.240000       3.232959       1.952300       1.263400
       7.250000       3.254956       1.998666       1.263401
       7.260000       3.278571       2.040743       1.259592
       7.270000       3.302949       2.077941       1.251616
       7.280000       3.326563       2.110038       1.239284
       7.290000       3.347422       2.136919       1.222653
       7.300000       3.363361       2.158372       1.202074
       7.310000       3.372297       2.174043       1.178181
       7.320000       3.372380       2.183533       1.151813
       7.330000       3.362058       2.186554       1.123911
       7.340000       3.340157       2.183039       1.095433
       7.350000       3.306075       2.173202       1.067274
       7.360000       3.260086       2.157595       1.040211
       7.370000       3.203608       2.137172       1.014861
       7.380000       3.139236       2.113327       0.991679
       7.390000       3.070454       2.087849       0.970974
       7.400000       3.001068       2.062755       0.952946
       7.410000       2.934575       2.040055       0.937701
       7.420000       2.873692       2.021518       0.925258
       7.430000       2.820178       2.008487       0.915561
       7.440000       2.774947       2.001771       0.908500
       7.450000       2.738347       2.001619       0.903946
       7.460000       2.710465       2.007767       0.901786
       7.470000       2.691308       2.019499       0.901944
       7.480000       2.680813       2.035706       0.904366
       7.490000       2.678724       2.054913       0.908975
       7.500000       2.684425       2.075281       0.915600
       7.510000       2.696799       2.094673       0.923882
       7.520000       2.714185       2.110821       0.933238
       7.530000       2.734466       2.121641       0.942885
       7.540000       2.755277       2.125600       0.951957
       7.550000       2.774303       2.122038       0.959680
       7.560000       2.789568       2.111316       0.965526
       7.570000       2.799647       2.094750       0.969296
       7.580000       2.803764       2.074371       0.971106
       7.590000       2.801802       2.052617       0.971275
       7.600000       2.794259       2.031988       0.970189
       7.610000       2.782167       2.014738       0.968180
       7.620000       2.766967       2.002592       0.965478
       7.630000       2.750311       1.996542       0.962235
       7.640000       2.733821       1.996750       0.958573
       7.650000       2.718911       2.002563       0.954633
       7.660000       2.706709       2.012632       0.950575
       7.670000       2.698114       2.025108       0.946546
       7.680000       2.693883       2.037894       0.942639
       7.690000       2.694699       2.048937       0.938835
       7.700000       2.701187       2.056542       0.934972
       7.710000       2.713901       2.059652       0.930742
       7.720000       2.733322       2.058029       0.925748
       7.730000       2.759860       2.052305       0.919639
       7.740000       2.793852       2.043906       0.912265
       7.750000       2.835529       2.034862       0.903804
       7.760000       2.884894       2.027507       0.894773
       7.770000       2.941503       2.024108       0.885934
       7.780000       3.004177       2.026465       0.878117
       7.790000       3.070769       2.035580       0.872048
       7.800000       3.138112       2.051459       0.868227
       7.810000       3.202291       2.073110       0.866898
       7.820000       3.259218       2.098748       0.868062
       7.830000       3.305383       2.126179       0.871504
       7.840000       3.338523       2.153298       0.876807
       7.850000       3.357966       2.178532       0.883348
       7.860000       3.364604       2.201080       0.890325
       7.870000       3.360580       2.220856       0.896827
       7.880000       3.348860       2.238178       0.901957
       7.890000       3.332797       2.253375       0.904966
       7.900000       3.315705       2.266493       0.905364
       7.910000       3.300452       2.277218       0.902974
       7.920000       3.289112       2.285002       0.897924
       7.930000       3.282752       2.289286       0.890578
       7.940000       3.281400       2.289735       0.881431
       7.950000       3.284170       2.286390       0.870985
       7.960000       3.289496       2.279742       0.859641
       7.970000       3.295434       2.270737       0.847650
       7.980000       3.300039       2.260742       0.835141
       7.990000       3.301799       2.251488       0.822213
       8.000000       3.300068       2.244959       0.809034
       8.010000       3.295296       2.243216       0.795910
       8.020000       3.288929       2.248147       0.783281
       8.030000       3.282958       2.261206       0.771656
       8.040000       3.279307       2.283202       0.761527
       8.050000       3.279317       2.314185       0.753295
       8.060000       3.283509       2.353421       0.747214
       8.070000       3.291670       2.399436       0.743372
       8.080000       3.303141       2.450125       0.741691
       8.090000       3.317137       2.502931       0.741951
       8.100000       3.332985       2.555115       0.743832
       8.110000       3.350213       2.604067       0.746980
       8.120000       3.368529       2.647594       0.751073
       8.130000       3.387778       2.684084       0.755877
       8.140000       3.407929       2.712543       0.761278
       8.150000       3.429129       2.732537       0.767296
       8.160000       3.451772       2.744087       0.774060
       8.170000       3.476511       2.747560       0.781785
       8.180000       3.504174       2.743563       0.790722
       8.190000       3.535598       2.732886       0.801112
       8.200000       3.571434       2.716505       0.813137
       8.210000       3.611900       2.695671       0.826857
       8.220000       3.656527       2.672014       0.842154
       8.230000       3.703921       2.647580       0.858674
       8.240000       3.751693       2.624717       0.875797
       8.250000       3.796689       2.605829       0.892651
       8.260000       3.835569       2.593064       0.908193
       8.270000       3.865606       2.588071       0.921352
       8.280000       3.885414       2.591885       0.931194
       8.290000       3.895329       2.604934       0.937092
       8.300000       3.897281       2.627091       0.938831
       8.310000       3.894241       2.657727       0.936642
       8.320000       3.889474       2.695713       0.931148
       8.330000       3.885871       2.739422       0.923240
       8.340000       3.885558       2.786752       0.913920
       8.350000       3.889816       2.835213       0.904143
       8.360000       3.899206       2.882138       0.894689
       8.370000       3.913716       2.925022       0.886096
       8.380000       3.932816       2.961948       0.878625
       8.390000       3.955398       2.991945       0.872288
       8.400000       3.979705       3.015151       0.866906
       8.410000       4.003352       3.032697       0.862199
       8.420000       4.023485       3.046373       0.857881
       8.430000       4.037086       3.058219       0.853731
       8.440000       4.041400       3.070181       0.849627
       8.450000       4.034421       3.083884       0.845545
       8.460000       4.015313       3.100523       0.841532
       8.470000       3.984563       3.120795       0.837682
       8.480000       3.943776       3.144867       0.834105
       8.490000       3.895202       3.172382       0.830887
       8.500000       3.841236       3.202559       0.828056
       8.510000       3.784103       3.234422       0.825566
       8.520000       3.725776       3.267090       0.823319
       8.530000       3.668006       3.300049       0.821226
       8.540000       3.612333       3.333244       0.819273
       8.550000       3.560019       3.366932       0.817572
       8.560000       3.511939       3.401358       0.816370
       8.570000       3.468521       3.436410       0.816015
       8.580000       3.429785       3.471395       0.816893
       8.590000       3.395514       3.505034       0.819364
       8.600000       3.365502       3.535624       0.823701
       8.610000       3.339770       3.561321       0.830037
       8.620000       3.318674       3.580456       0.838333
       8.630000       3.302850       3.591838       0.848356
       8.640000       3.293049       3.595005       0.859696
       8.650000       3.289900       3.590348       0.871826
       8.660000       3.293670       3.579018       0.884202
       8.670000       3.304057       3.562599       0.896367
       8.680000       3.320098       3.542632       0.908030
       8.690000       3.340252       3.520175       0.919078
       8.700000       3.362667       3.495555       0.929547
       8.710000       3.385558       3.468392       0.939545
       8.720000       3.407549       3.437872       0.949186
       8.730000       3.427815       3.403185       0.958538
       8.740000       3.446002       3.363986       0.967605
       8.750000       3.461967       3.320725       0.976347
       8.760000       3.475468       3.274686       0.984736
       8.770000       3.485969       3.227712       0.992805
       8.780000       3.492620       3.181727       1.000674
       8.790000       3.494420       3.138295       1.008528
       8.800000       3.490457       3.098407       1.016563
       8.810000       3.480081       3.062577       1.024931
       8.820000       3.462945       3.031130       1.033711
       8.830000       3.438931       3.004487       1.042913
       8.840000       3.408067       2.983252       1.052523
       8.850000       3.370474       2.968063       1.062539
       8.860000       3.326371       2.959258       1.072969
       8.870000       3.276100       2.956540       1.083795
       8.880000       3.220174       2.958785       1.094892
       8.890000       3.159344       2.964073       1.105969
       8.900000       3.094665       2.969961       1.116569
       8.910000       3.027508       2.973918       1.126135
       8.920000       2.959445       2.973829       1.134147
       8.930000       2.892053       2.968420       1.140264
       8.940000       2.826692       2.957487       1.144432
       8.950000       2.764348       2.941872       1.146910
       8.960000       2.705603       2.923228       1.148212
       8.970000       2.650723       2.903633       1.148980
       8.980000       2.599826       2.885144       1.149841
       8.990000       2.553061       2.869381       1.151301
       9.000000       2.510722       2.857210       1.153692
       9.010000       2.473252       2.848619       1.157186
       9.020000       2.441140       2.842797       1.161851
       9.030000       2.414768       2.838416       1.167706
       9.040000       2.394302       2.834014       1.174758
       9.050000       2.379658       2.828396       1.182989
       9.060000       2.370576       2.820931       1.192315
       9.070000       2.366732       2.811689       1.202534
       9.080000       2.367820       2.801405       1.213323
       9.090000       2.373564       2.791259       1.224311
       9.100000       2.383613       2.782541       1.235208
       9.110000       2.397342       2.776258       1.245934
       9.120000       2.413629       2.772806       1.256682
       9.130000       2.430716       2.771825       1.267897
       9.140000       2.446249       2.772267       1.280150
       9.150000       2.457540       2.772656       1.293989
       9.160000       2.462026       2.771439       1.309780
       9.170000       2.457812       2.767304       1.327606
       9.180000       2.444129       2.759409       1.347220
       9.190000       2.421546       2.747459       1.368088
       9.200000       2.391865       2.731630       1.389495
       9.210000       2.357724       2.712390       1.410712
       9.220000       2.322036       2.690293       1.431162
       9.230000       2.287454       2.665806       1.450565
       9.240000       2.255997       2.639241       1.468995
       9.250000       2.228883       2.610781       1.486852
       9.260000       2.206558       2.580569       1.504763
       9.270000       2.188844       2.548787       1.523444
       9.280000       2.175158       2.515687       1.543567
       9.290000       2.164752       2.481551       1.565674
       9.300000       2.156938       2.446637       1.590118
       9.310000       2.151260       2.411165       1.617053
       9.320000       2.147574       2.375354       1.646433
       9.330000       2.146025       2.339511       1.678033
       9.340000       2.146929       2.304081       1.711486
       9.350000       2.150592       2.269608       1.746343
       9.360000       2.157097       2.236606       1.782155
       9.370000       2.166133       2.205399       1.818552
       9.380000       2.176935       2.176017       1.855310
       9.390000       2.188391       2.148198       1.892373
       9.400000       2.199262       2.121488       1.929839
       9.410000       2.208423       2.095412       1.967913
       9.420000       2.214995       2.069647       2.006856
       9.430000       2.218330       2.044152       2.046937
       9.440000       2.217923       2.019204       2.088421
       9.450000       2.213371       1.995326       2.131581
       9.460000       2.204456       1.973164       2.176722
       9.470000       2.191294       1.953323       2.224221
       9.480000       2.174456       1.936241       2.274553
       9.490000       2.154942       1.922093       2.328287
       9.500000       2.133960       1.910738       2.386033
       9.510000       2.112591       1.901689       2.448340
       9.520000       2.091464       1.894155       2.515613
       9.530000       2.070571       1.887155       2.588064
       9.540000       2.049319       1.879732       2.665760
       9.550000       2.026754       1.871213       2.748729
       9.560000       2.001878       1.861396       2.837080
       9.570000       1.973965       1.850593       2.931080
       9.580000       1.942796       1.839523       3.031150
       9.590000       1.908778       1.829117       3.137796
       9.600000       1.872926       1.820345       3.251542
       9.610000       1.836702       1.814107       3.372900
       9.620000       1.801748       1.811174       3.502413
       9.630000       1.769602       1.812179       3.640727
       9.640000       1.741453       1.817618       3.788602
       9.650000       1.718001       1.827826       3.946830
       9.660000       1.699420       1.842923       4.116022
       9.670000       1.685429       1.862682       4.296352
       9.680000       1.675424       1.886367       4.487332
       9.690000       1.668633       1.912607       4.687710
       9.700000       1.664255       1.939394       4.895512
       9.710000       1.661561       1.964304       5.108211
       9.720000       1.659980       1.984897       5.322933
       9.730000       1.659166       1.999214       5.536623
       9.740000       1.659051       2.006159       5.746093
       9.750000       1.659857       2.005655       5.947910
       9.760000       1.662030       1.998509       6.138183
       9.770000       1.666114       1.986093       6.312395
       9.780000       1.672602       1.969975       6.465457
       9.790000       1.681815       1.951641       6.592151
       9.800000       1.693844       1.932350       6.687905
       9.810000       1.708549       1.913132       6.749681
       9.820000       1.725570       1.894827       6.776662
       9.830000       1.744308       1.878122       6.770455
       9.840000       1.763864       1.863547       6.734735
       9.850000       1.782974       1.851451       6.674398
       9.860000       1.800028       1.842005       6.594517
       9.870000       1.813227       1.835253       6.499473
       9.880000       1.820902       1.831158       6.392609
       9.890000       1.821893       1.829605       6.276450
       9.900000       1.815831       1.830351       6.153259
       9.910000       1.803191       1.832961       6.025473
       9.920000       1.785109       1.836780       5.895722
       9.930000       1.763057       1.840975       5.766402
       9.940000       1.738552       1.844681       5.639072
       9.950000       1.712981       1.847187       5.514039
       9.960000       1.687541       1.848115       5.390373
       9.970000       1.663221       1.847507       5.266381
       9.980000       1.640757       1.845753       5.140357
       9.990000       1.620561       1.843392       5.011296
      10.000000       1.602657       1.840829       4.879285
      10.010000       1.586658       1.838083       4.745423
      10.020000       1.571830       1.834646       4.611371
      10.030000       1.557226       1.829512       4.478791
      10.040000       1.541882       1.821376       4.348927
      10.050000       1.525012       1.808932       4.222482
      10.060000       1.506154       1.791197       4.099729
      10.070000       1.485235       1.767760       3.980692
      10.080000       1.462536       1.738928       3.865235
      10.090000       1.438622       1.705742       3.753037
      10.100000       1.414235       1.669870       3.643526
      10.110000       1.390198       1.633394       3.535890
      10.120000       1.367313       1.598520       3.429233
      10.130000       1.346260       1.567258       3.322857
      10.140000       1.327536       1.541131       3.216574
      10.150000       1.311416       1.520977       3.110917
      10.160000       1.297991       1.506857       3.007160
      10.170000       1.287251       1.498079       2.907126
      10.180000       1.279196       1.493322       2.812855
      10.190000       1.273937       1.490833       2.726249
      10.200000       1.271718       1.488689       2.648793
      10.210000       1.272845       1.485069       2.581398
      10.220000       1.277560       1.478514       2.524359
      10.230000       1.285903       1.468142       2.477386
      10.240000       1.297619       1.453773       2.439673
      10.250000       1.312138       1.435931       2.409969
      10.260000       1.328638       1.415721       2.386671
      10.270000       1.346162       1.394590       2.367917
      10.280000       1.363798       1.374044       2.351713
      10.290000       1.380869       1.355404       2.336080
      10.300000       1.397074       1.339665       2.319230
      10.310000       1.412512       1.327444       2.299749
      10.320000       1.427567       1.319006       2.276784
      10.330000       1.442682       1.314323       2.250166
      10.340000       1.458135       1.313134       2.220458
      10.350000       1.473895       1.315019       2.188865
      10.360000       1.489603       1.319459       2.157038
      10.370000       1.504651       1.325912       2.126791
      10.380000       1.518306       1.333899       2.099835
      10.390000       1.529807       1.343090       2.077554
      10.400000       1.538437       1.353397       2.060898
      10.410000       1.543573       1.365002       2.050346
      10.420000       1.544715       1.378286       2.045945
      10.430000       1.541519       1.393655       2.047377
      10.440000       1.533808       1.411305       2.054040
      10.450000       1.521589       1.431029       2.065120
      10.460000       1.505088       1.452132       2.079659
      10.470000       1.484793       1.473489       2.096577
      10.480000       1.461477       1.493720       2.114671
      10.490000       1.436159       1.511412       2.132616
      10.500000       1.410009       1.525326       2.149026
      10.510000       1.384214       1.534560       2.162597
      10.520000       1.359859       1.538636       2.172321
      10.530000       1.337827       1.537512       2.177699
      10.540000       1.318712       1.531509       2.178892
      10.550000       1.302748       1.521166       2.176746
      10.560000       1.289757       1.507073       2.172668
      10.570000       1.279144       1.489729       2.168367
      10.580000       1.269951       1.469478       2.165538
      10.590000       1.260980       1.446508       2.165556
      10.600000       1.250949       1.420930       2.169267
      10.610000       1.238683       1.392895       2.176879
      10.620000       1.223317       1.362733       2.187967
      10.630000       1.204462       1.331070       2.201534
      10.640000       1.182293       1.298866       2.216124
      10.650000       1.157503       1.267362       2.229968
      10.660000       1.131130       1.237932       2.241187
      10.670000       1.104322       1.211886       2.248028
      10.680000       1.078140       1.190267       2.249128
      10.690000       1.053438       1.173695       2.243732
      10.700000       1.030847       1.162274       2.231815
      10.710000       1.010808       1.155601       2.214034
      10.720000       0.993619       1.152849       2.191543
      10.730000       0.979452       1.152939       2.165705
      10.740000       0.968349       1.154735       2.137802
      10.750000       0.960205       1.157238       2.108800
      10.760000       0.954754       1.159701       2.079223
      10.770000       0.951578       1.161667       2.049156
      10.780000       0.950136       1.162932       2.018373
      10.790000       0.949810       1.163479       1.986543
      10.800000       0.949965       1.163405       1.953433
      10.810000       0.950017       1.162855       1.919030
      10.820000       0.949501       1.161945       1.883538
      10.830000       0.948139       1.160688       1.847293
      10.840000       0.945896       1.158956       1.810657
      10.850000       0.943006       1.156492       1.773962
      10.860000       0.939927       1.152993       1.737507
      10.870000       0.937243       1.148218       1.701610
      10.880000       0.935519       1.142061       1.666640
      10.890000       0.935168       1.134564       1.633018
      10.900000       0.936356       1.125876       1.601168
      10.910000       0.938978       1.116215       1.571448
      10.920000       0.942694       1.105851       1.544090
      10.930000       0.947008       1.095114       1.519159
      10.940000       0.951363       1.084372       1.496568
      10.950000       0.955215       1.073996       1.476107
      10.960000       0.958097       1.064303       1.457500
      10.970000       0.959649       1.055533       1.440455
      10.980000       0.959650       1.047857       1.424702
      10.990000       0.958044       1.041411       1.410010
      11.000000       0.954956       1.036340       1.396189
      11.010000       0.950702       1.032836       1.383095
      11.020000       0.945770       1.031148       1.370635
      11.030000       0.940754       1.031574       1.358780
      11.040000       0.936245       1.034417       1.347544
      11.050000       0.932717       1.039931       1.336960
      11.060000       0.930427       1.048268       1.327038
      11.070000       0.929393       1.059448       1.317741
      11.080000       0.929428       1.073333       1.308978
      11.090000       0.930239       1.089612       1.300599
      11.100000       0.931542       1.107762       1.292378
      11.110000       0.933140       1.127015       1.283965
      11.120000       0.934949       1.146329       1.274833
      11.130000       0.936975       1.164417       1.264249
      11.140000       0.939261       1.179847       1.251293
      11.150000       0.941869       1.191222       1.234961
      11.160000       0.944886       1.197418       1.214333
      11.170000       0.948468       1.197810       1.188788
      11.180000       0.952870       1.192415       1.158201
      11.190000       0.958444       1.181876       1.123032
      11.200000       0.965580       1.167292       1.084265
      11.210000       0.974622       1.149960       1.043213
      11.220000       0.985772       1.131104       1.001250
      11.230000       0.999023       1.111704       0.959582
      11.240000       1.014136       1.092432       0.919118
      11.250000       1.030679       1.073699       0.880441
      11.260000       1.048116       1.055764       0.843872
      11.270000       1.065906       1.038851       0.809554
      11.280000       1.083577       1.023233       0.777540
      11.290000       1.100726       1.009236       0.747853
      11.300000       1.116960       0.997169       0.720507
      11.310000       1.131808       0.987193       0.695508
      11.320000       1.144686       0.979183       0.672836
      11.330000       1.154937       0.972663       0.652445
      11.340000       1.161957       0.966847       0.634259
      11.350000       1.165338       0.960802       0.618196
      11.360000       1.164972       0.953681       0.604184
      11.370000       1.161039       0.944962       0.592175
      11.380000       1.153897       0.934569       0.582137
      11.390000       1.143930       0.922858       0.574047
      11.400000       1.131436       0.910457       0.567870
      11.410000       1.116605       0.898059       0.563551
      11.420000       1.099583       0.886249       0.561004
      11.430000       1.080580       0.875428       0.560115
      11.440000       1.059946       0.865816       0.560738
      11.450000       1.038208       0.857526       0.562707
      11.460000       1.016025       0.850617       0.565845
      11.470000       0.994104       0.845136       0.569966
      11.480000       0.973085       0.841128       0.574885
      11.490000       0.953462       0.838632       0.580406
      11.500000       0.935527       0.837677       0.586314
      11.510000       0.919371       0.838266       0.592363
      11.520000       0.904895       0.840354       0.598279
      11.530000       0.891846       0.843821       0.603788
      11.540000       0.879859       0.848445       0.608646
      11.550000       0.868525       0.853900       0.612688
      11.560000       0.857463       0.859777       0.615849
      11.570000       0.846402       0.865625       0.618164
      11.580000       0.835228       0.871023       0.619741
      11.590000       0.823988       0.875671       0.620734
      11.600000       0.812848       0.879497       0.621304
      11.610000       0.802026       0.882713       0.621609
      11.620000       0.791717       0.885803       0.621793
      11.630000       0.782047       0.889416       0.621983
      11.640000       0.773064       0.894191       0.622288
      11.650000       0.764766       0.900584       0.622793
      11.660000       0.757144       0.908742       0.623563
      11.670000       0.750227       0.918453       0.624651
      11.680000       0.744093       0.929173       0.626118
      11.690000       0.738838       0.940085       0.628041
      11.700000       0.734537       0.950194       0.630510
      11.710000       0.731198       0.958416       0.633614
      11.720000       0.728761       0.963689       0.637422
      11.730000       0.727119       0.965103       0.641984
      11.740000       0.726177       0.962028       0.647330
      11.750000       0.725890       0.954223       0.653479
      11.760000       0.726278       0.941873       0.660447
      11.770000       0.727400       0.925529       0.668240
      11.780000       0.729291       0.905973       0.676855
      11.790000       0.731906       0.884049       0.686285
      11.800000       0.735084       0.860514       0.696516
      11.810000       0.738555       0.835953       0.707537
      11.820000       0.741982       0.810772       0.719329
      11.830000       0.745015       0.785259       0.731847
      11.840000       0.747346       0.759676       0.745007
      11.850000       0.748730       0.734346       0.758690
      11.860000       0.748987       0.709702       0.772771
      11.870000       0.747988       0.686270       0.787154
      11.880000       0.745652       0.664612       0.801807
      11.890000       0.741952       0.645240       0.816767
      11.900000       0.736931       0.628560       0.832128
      11.910000       0.730709       0.614839       0.848014
      11.920000       0.723468       0.604203       0.864555
      11.930000       0.715423       0.596657       0.881892
      11.940000       0.706794       0.592113       0.900173
      11.950000       0.697801       0.590404       0.919557
      11.960000       0.688657       0.591304       0.940200
      11.970000       0.679582       0.594542       0.962236
      11.980000       0.670777       0.599825       0.985769
      11.990000       0.662406       0.606869       1.010882
      12.000000       0.654559       0.615427       1.037655
      12.010000       0.647251       0.625309       1.066185
      12.020000       0.640442       0.636374       1.096579
      12.030000       0.634081       0.648510       1.128926
      12.040000       0.628151       0.661594       1.163241
      12.050000       0.622681       0.675448       1.199400
      12.060000       0.617740       0.689796       1.237102
      12.070000       0.613402       0.704246       1.275854
      12.080000       0.609714       0.718315       1.314983
      12.090000       0.606695       0.731499       1.353674
      12.100000       0.604341       0.743365       1.391029
      12.110000       0.602651       0.753641       1.426163
      12.120000       0.601642       0.762269       1.458341
      12.130000       0.601358       0.769424       1.487136
      12.140000       0.601872       0.775484       1.512573
      12.150000       0.603281       0.780965       1.535182
      12.160000       0.605706       0.786442       1.555943
      12.170000       0.609285       0.792445       1.576133
      12.180000       0.614162       0.799385       1.597119
      12.190000       0.620445       0.807484       1.620179
      12.200000       0.628154       0.816743       1.646381
      12.210000       0.637166       0.826925       1.676532
      12.220000       0.647166       0.837556       1.711165
      12.230000       0.657629       0.847949       1.750552
      12.240000       0.667858       0.857261       1.794722
      12.250000       0.677068       0.864594       1.843482
      12.260000       0.684524       0.869136       1.896441
      12.270000       0.689694       0.870299       1.953034
      12.280000       0.692354       0.867832       2.012527
      12.290000       0.692628       0.861854       2.074020
      12.300000       0.690940       0.852823       2.136430
      12.310000       0.687905       0.841437       2.198509
      12.320000       0.684210       0.828501       2.258872
      12.330000       0.680496       0.814782       2.316077
      12.340000       0.677278       0.800891       2.368709
      12.350000       0.674919       0.787212       2.415479
      12.360000       0.673631       0.773898       2.455293
      12.370000       0.673515       0.760895       2.487272
      12.380000       0.674599       0.748004       2.510742
      12.390000       0.676861       0.734954       2.525197
      12.400000       0.680226       0.721481       2.530311
      12.410000       0.684565       0.707402       2.526012
      12.420000       0.689689       0.692666       2.512604
      12.430000       0.695372       0.677364       2.490872
      12.440000       0.701380       0.661692       2.462085
      12.450000       0.707513       0.645899       2.427871
      12.460000       0.713634       0.630226       2.390006
      12.470000       0.719683       0.614870       2.350188
      12.480000       0.725663       0.599975       2.309882
      12.490000       0.731613       0.585646       2.270247
      12.500000       0.737556       0.571996       2.232139
      12.510000       0.743465       0.559172       2.196155
      12.520000       0.749238       0.547383       2.162693
      12.530000       0.754694       0.536877       2.131980
      12.540000       0.759586       0.527898       2.104071
      12.550000       0.763608       0.520635       2.078822
      12.560000       0.766419       0.515169       2.055850
      12.570000       0.767664       0.511455       2.034527
      12.580000       0.767003       0.509332       2.014021
      12.590000       0.764130       0.508555       1.993388
      12.600000       0.758786       0.508858       1.971707
      12.610000       0.750788       0.510017       1.948238
      12.620000       0.740073       0.511905       1.922539
      12.630000       0.726754       0.514520       1.894538
      12.640000       0.711169       0.517976       1.864483
      12.650000       0.693887       0.522450       1.832826
      12.660000       0.675653       0.528114       1.800052
      12.670000       0.657282       0.535062       1.766533
      12.680000       0.639541       0.543271       1.732462
      12.690000       0.623034       0.552597       1.697874
      12.700000       0.608149       0.562815       1.662738
      12.710000       0.595039       0.573657       1.627083
      12.720000       0.583652       0.584854       1.591105
      12.730000       0.573784       0.596147       1.555203
      12.740000       0.565156       0.607294       1.519944
      12.750000       0.557489       0.618080       1.485948
      12.760000       0.550565       0.628349       1.453765
      12.770000       0.544266       0.638048       1.423770
      12.780000       0.538563       0.647250       1.396105
      12.790000       0.533472       0.656134       1.370674
      12.800000       0.528991       0.664913       1.347167
      12.810000       0.525034       0.673724       1.325126
      12.820000       0.521403       0.682534       1.304020
      12.830000       0.517792       0.691092       1.283326
      12.840000       0.513839       0.698956       1.262591
      12.850000       0.509205       0.705596       1.241467
      12.860000       0.503654       0.710537       1.219725
      12.870000       0.497112       0.713500       1.197260
      12.880000       0.489690       0.714493       1.174102
      12.890000       0.481653       0.713830       1.150440
      12.900000       0.473356       0.712079       1.126629
      12.910000       0.465146       0.709953       1.103179
      12.920000       0.457286       0.708186       1.080703
      12.930000       0.449903       0.707418       1.059831
      12.940000       0.442987       0.708118       1.041117
      12.950000       0.436443       0.710554       1.024962
      12.960000       0.430164       0.714798       1.011579
      12.970000       0.424100       0.720755       1.000986
      12.980000       0.418309       0.728197       0.993054
      12.990000       0.412945       0.736788       0.987558
      13.000000       0.408224       0.746084       0.984242
      13.010000       0.404360       0.755538       0.982876
      13.020000       0.401525       0.764519       0.983299
      13.030000       0.399818       0.772366       0.985443
      13.040000       0.399264       0.778497       0.989323
      13.050000       0.399831       0.782529       0.995007
      13.060000       0.401446       0.784379       1.002564
      13.070000       0.404003       0.784299       1.012015
      13.080000       0.407372       0.782809       1.023304
      13.090000       0.411397       0.780579       1.036288
      13.100000       0.415884       0.778265       1.050741
      13.110000       0.420606       0.776366       1.066356
      13.120000       0.425299       0.775132       1.082747
      13.130000       0.429681       0.774546       1.099437
      13.140000       0.433468       0.774364       1.115857
      13.150000       0.436410       0.774205       1.131347
      13.160000       0.438321       0.773658       1.145177
      13.170000       0.439108       0.772360       1.156587
      13.180000       0.438792       0.770049       1.164850
      13.190000       0.437495       0.766567       1.169344
      13.200000       0.435422       0.761826       1.169628
      13.210000       0.432821       0.755759       1.165502
      13.220000       0.429943       0.748295       1.157056
      13.230000       0.427011       0.739364       1.144677
      13.240000       0.424201       0.728944       1.129027
      13.250000       0.421638       0.717119       1.110965
      13.260000       0.419394       0.704104       1.091435
      13.270000       0.417503       0.690238       1.071347
      13.280000       0.415969       0.675936       1.051486
      13.290000       0.414786       0.661631       1.032451
      13.300000       0.413949       0.647723       1.014655
      13.310000       0.413463       0.634550       0.998335
      13.320000       0.413348       0.622362       0.983582
      13.330000       0.413630       0.611313       0.970365
      13.340000       0.414329       0.601451       0.958554
      13.350000       0.415441       0.592712       0.947937
      13.360000       0.416920       0.584932       0.938251
      13.370000       0.418675       0.577887       0.929216
      13.380000       0.420575       0.571362       0.920576
      13.390000       0.422469       0.565215       0.912140
      13.400000       0.424205       0.559420       0.903816
      13.410000       0.425641       0.554072       0.895622
      13.420000       0.426657       0.549354       0.887688
      13.430000       0.427170       0.545475       0.880215
      13.440000       0.427158       0.542612       0.873440
      13.450000       0.426676       0.540856       0.867588
      13.460000       0.425860       0.540201       0.862838
      13.470000       0.424915       0.540551       0.859302
      13.480000       0.424083       0.541759       0.857009
      13.490000       0.423590       0.543662       0.855900
      13.500000       0.423602       0.546097       0.855837
      13.510000       0.424182       0.548900       0.856615
      13.520000       0.425272       0.551896       0.857978
      13.530000       0.426705       0.554894       0.859649
      13.540000       0.428252       0.557695       0.861340
      13.550000       0.429691       0.560122       0.862780
      13.560000       0.430879       0.562055       0.863728
      13.570000       0.431808       0.563478       0.863975
      13.580000       0.432606       0.564502       0.863349
      13.590000       0.433503       0.565364       0.861696
      13.600000       0.434750       0.566395       0.858875
      13.610000       0.436542       0.567952       0.854744
      13.620000       0.438972       0.570326       0.849163
      13.630000       0.442005       0.573660       0.842000
      13.640000       0.445497       0.577878       0.833154
      13.650000       0.449235       0.582662       0.822585
      13.660000       0.452982       0.587485       0.810362
      13.670000       0.456517       0.591701       0.796703
      13.680000       0.459662       0.594675       0.782000
      13.690000       0.462299       0.595916       0.766794
      13.700000       0.464385       0.595192       0.751711
      13.710000       0.465966       0.592585       0.737366
      13.720000       0.467184       0.588475       0.724273
      13.730000       0.468251       0.583465       0.712778
      13.740000       0.469406       0.578256       0.703038
      13.750000       0.470853       0.573532       0.695029
      13.760000       0.472696       0.569868       0.688587
      13.770000       0.474905       0.567683       0.683447
      13.780000       0.477318       0.567245       0.679285
      13.790000       0.479667       0.568697       0.675744
      13.800000       0.481612       0.572096       0.672463
      13.810000       0.482786       0.577442       0.669102
      13.820000       0.482834       0.584693       0.665382
      13.830000       0.481460       0.593762       0.661122
      13.840000       0.478477       0.604496       0.656274
      13.850000       0.473840       0.616654       0.650933
      13.860000       0.467663       0.629873       0.645319
      13.870000       0.460196       0.643640       0.639730
      13.880000       0.451770       0.657290       0.634489
      13.890000       0.442731       0.670030       0.629894
      13.900000       0.433376       0.681003       0.626187
      13.910000       0.423918       0.689385       0.623549
      13.920000       0.414469       0.694497       0.622110
      13.930000       0.405070       0.695898       0.621962
      13.940000       0.395732       0.693466       0.623173
      13.950000       0.386486       0.687419       0.625786
      13.960000       0.377422       0.678299       0.629826
      13.970000       0.368702       0.666890       0.635282
      13.980000       0.360536       0.654114       0.642091
      13.990000       0.353143       0.640901       0.650117
      14.000000       0.346699       0.628091       0.659127
      14.010000       0.341296       0.616359       0.668781
      14.020000       0.336928       0.606174       0.678653
      14.030000       0.333491       0.597782       0.688276
      14.040000       0.330804       0.591206       0.697223
      14.050000       0.328638       0.586258       0.705194
      14.060000       0.326736       0.582580       0.712103
      14.070000       0.324835       0.579709       0.718107
      14.080000       0.322689       0.577154       0.723591
      14.090000       0.320101       0.574478       0.729091
      14.100000       0.316948       0.571348       0.735189
      14.110000       0.313205       0.567562       0.742410
      14.120000       0.308941       0.563046       0.751137
      14.130000       0.304297       0.557843       0.761555
      14.140000       0.299460       0.552078       0.773617
      14.150000       0.294625       0.545921       0.787049
      14.160000       0.289972       0.539541       0.801376
      14.170000       0.285654       0.533079       0.815977
      14.180000       0.281783       0.526625       0.830166
      14.190000       0.278431       0.520225       0.843284
      14.200000       0.275627       0.513909       0.854778
      14.210000       0.273362       0.507715       0.864251
      14.220000       0.271603       0.501706       0.871468
      14.230000       0.270297       0.495960       0.876319
      14.240000       0.269375       0.490542       0.878775
      14.250000       0.268757       0.485469       0.878865
      14.260000       0.268346       0.480693       0.876683
      14.270000       0.268034       0.476106       0.872431
      14.280000       0.267715       0.471566       0.866450
      14.290000       0.267299       0.466929       0.859232
      14.300000       0.266738       0.462084       0.851370
      14.310000       0.266036       0.456983       0.843476
      14.320000       0.265251       0.451664       0.836097
      14.330000       0.264488       0.446273       0.829657
      14.340000       0.263867       0.441055       0.824424
      14.350000       0.263502       0.436319       0.820527
      14.360000       0.263470       0.432395       0.817966
      14.370000       0.263799       0.429575       0.816636
      14.380000       0.264474       0.428093       0.816343
      14.390000       0.265447       0.428115       0.816829
      14.400000       0.266662       0.429748       0.817798
      14.410000       0.268073       0.433042       0.818937
      14.420000       0.269647       0.437982       0.819943
      14.430000       0.271360       0.444455       0.820537
      14.440000       0.273181       0.452234       0.820485
      14.450000       0.275059       0.460956       0.819613
      14.460000       0.276920       0.470149       0.817812
      14.470000       0.278682       0.479276       0.815019
      14.480000       0.280276       0.487822       0.811194
      14.490000       0.281670       0.495378       0.806299
      14.500000       0.282873       0.501710       0.800294
      14.510000       0.283923       0.506776       0.793159
      14.520000       0.284864       0.510689       0.784927
      14.530000       0.285722       0.513639       0.775705
      14.540000       0.286503       0.515812       0.765683
      14.550000       0.287200       0.517337       0.755115
      14.560000       0.287827       0.518273       0.744297
      14.570000       0.288436       0.518634       0.733534
      14.580000       0.289133       0.518429       0.723101
      14.590000       0.290059       0.517704       0.713213
      14.600000       0.291361       0.516566       0.703999
      14.610000       0.293155       0.515184       0.695505
      14.620000       0.295494       0.513768       0.687728
      14.630000       0.298353       0.512539       0.680641
      14.640000       0.301630       0.511698       0.674222
      14.650000       0.305147       0.511396       0.668437
      14.660000       0.308669       0.511697       0.663221
      14.670000       0.311919       0.512546       0.658449
      14.680000       0.314610       0.513739       0.653928
      14.690000       0.316479       0.514911       0.649408
      14.700000       0.317336       0.515570       0.644617
      14.710000       0.317096       0.515168       0.639299
      14.720000       0.315804       0.513212       0.633243
      14.730000       0.313618       0.509359       0.626307
      14.740000       0.310775       0.503492       0.618428
      14.750000       0.307528       0.495727       0.609628
      14.760000       0.304099       0.486371       0.600015
      14.770000       0.300640       0.475841       0.589778
      14.780000       0.297228       0.464596       0.579179
      14.790000       0.293884       0.453079       0.568528
      14.800000       0.290608       0.441693       0.558150
      14.810000       0.287419       0.430788       0.548347
      14.820000       0.284375       0.420653       0.539356
      14.830000       0.281583       0.411510       0.531318
      14.840000       0.279183       0.403506       0.524263
      14.850000       0.277319       0.396720       0.518119
      14.860000       0.276112       0.391170       0.512737
      14.870000       0.275634       0.386831       0.507933
      14.880000       0.275899       0.383643       0.503532
      14.890000       0.276869       0.381520       0.499400
      14.900000       0.278471       0.380354       0.495468
      14.910000       0.280614       0.380006       0.491744
      14.920000       0.283204       0.380315       0.488300
      14.930000       0.286147       0.381102       0.485259
      14.940000       0.289336       0.382196       0.482769
      14.950000       0.292645       0.383446       0.480970
      14.960000       0.295929       0.384737       0.479970
      14.970000       0.299034       0.385974       0.479817
      14.980000       0.301825       0.387073       0.480483
      14.990000       0.304213       0.387948       0.481862
      15.000000       0.306168       0.388524       0.483780
      15.010000       0.307716       0.388763       0.486013
      15.020000       0.308920       0.388688       0.488314
      15.030000       0.309846       0.388388       0.490446
      15.040000       0.310530       0.388007       0.492207
      15.050000       0.310958       0.387709       0.493463
      15.060000       0.311056       0.387643       0.494158
      15.070000       0.310690       0.387908       0.494323
      15.080000       0.309681       0.388533       0.494059
      15.090000       0.307839       0.389463       0.493511
      15.100000       0.305004       0.390568       0.492837
      15.110000       0.301089       0.391659       0.492179
      15.120000       0.296107       0.392525       0.491649
      15.130000       0.290181       0.392980       0.491323
      15.140000       0.283523       0.392920       0.491246
      15.150000       0.276399       0.392360       0.491437
      15.160000       0.269092       0.391439       0.491891
      15.170000       0.261861       0.390388       0.492573
      15.180000       0.254923       0.389459       0.493400
      15.190000       0.248434       0.388863       0.494225
      15.200000       0.242494       0.388726       0.494843
      15.210000       0.237146       0.389073       0.495014
      15.220000       0.232388       0.389836       0.494516
      15.230000       0.228183       0.390881       0.493202
      15.240000       0.224474       0.392030       0.491043
      15.250000       0.221202       0.393088       0.488134
      15.260000       0.218324       0.393866       0.484656
      15.270000       0.215815       0.394208       0.480819
      15.280000       0.213673       0.394012       0.476810
      15.290000       0.211912       0.393236       0.472757
      15.300000       0.210550       0.391896       0.468713
      15.310000       0.209600       0.390044       0.464668
      15.320000       0.209067       0.387744       0.460560
      15.330000       0.208937       0.385067       0.456290
      15.340000       0.209185       0.382083       0.451744
      15.350000       0.209764       0.378872       0.446813
      15.360000       0.210610       0.375513       0.441414
      15.370000       0.211630       0.372089       0.435508
      15.380000       0.212703       0.368675       0.429105
      15.390000       0.213680       0.365350       0.422269
      15.400000       0.214394       0.362197       0.415105
      15.410000       0.214689       0.359310       0.407749
      15.420000       0.214447       0.356791       0.400353
      15.430000       0.213622       0.354731       0.393058
      15.440000       0.212252       0.353188       0.385975
      15.450000       0.210449       0.352177       0.379176
      15.460000       0.208378       0.351655       0.372688
      15.470000       0.206216       0.351528       0.366491
      15.480000       0.204123       0.351667       0.360535
      15.490000       0.202222       0.351920       0.354742
      15.500000       0.200592       0.352139       0.349023
      15.510000       0.199277       0.352204       0.343294
      15.520000       0.198304       0.352043       0.337492
      15.530000       0.197687       0.351644       0.331597
      15.540000       0.197433       0.351043       0.325634
      15.550000       0.197529       0.350307       0.319672
      15.560000       0.197932       0.349506       0.313803
      15.570000       0.198555       0.348690       0.308128
      15.580000       0.199269       0.347891       0.302734
      15.590000       0.199923       0.347124       0.297690
      15.600000       0.200364       0.346399       0.293042
      15.610000       0.200468       0.345720       0.288824
      15.620000       0.200159       0.345078       0.285064
      15.630000       0.199418       0.344428       0.281791
      15.640000       0.198287       0.343691       0.279036
      15.650000       0.196853       0.342763       0.276829
      15.660000       0.195240       0.341545       0.275192
      15.670000       0.193593       0.339986       0.274136
      15.680000       0.192065       0.338105       0.273654
      15.690000       0.190805       0.336002       0.273719
      15.700000       0.189947       0.333854       0.274282
      15.710000       0.189600       0.331877       0.275270
      15.720000       0.189834       0.330287       0.276593
      15.730000       0.190676       0.329244       0.278150
      15.740000       0.192101       0.328814       0.279849
      15.750000       0.194024       0.328939       0.281616
      15.760000       0.196304       0.329439       0.283411
      15.770000       0.198757       0.330040       0.285232
      15.780000       0.201176       0.330427       0.287107
      15.790000       0.203359       0.330305       0.289091
      15.800000       0.205140       0.329451       0.291250
      15.810000       0.206409       0.327755       0.293651
      15.820000       0.207126       0.325230       0.296356
      15.830000       0.207309       0.321994       0.299408
      15.840000       0.207018       0.318232       0.302817
      15.850000       0.206341       0.314158       0.306549
      15.860000       0.205374       0.309984       0.310520
      15.870000       0.204227       0.305899       0.314603
      15.880000       0.203013       0.302073       0.318643
      15.890000       0.201856       0.298656       0.322471
      15.900000       0.200869       0.295775       0.325923
      15.910000       0.200148       0.293520       0.328845
      15.920000       0.199742       0.291925       0.331111
      15.930000       0.199650       0.290956       0.332636
      15.940000       0.199814       0.290519       0.333392
      15.950000       0.200142       0.290481       0.333414
      15.960000       0.200533       0.290698       0.332794
      15.970000       0.200913       0.291058       0.331646
      15.980000       0.201254       0.291506       0.330070
      15.990000       0.201587       0.292067       0.328119
      16.000000       0.201994       0.292839       0.325792
      16.010000       0.202581       0.293983       0.323041
      16.020000       0.203455       0.295670       0.319806
      16.030000       0.204692       0.298037       0.316045
      16.040000       0.206316       0.301134       0.311756
      16.050000       0.208291       0.304897       0.306975
      16.060000       0.210515       0.309141       0.301772
      16.070000       0.212845       0.313582       0.296237
      16.080000       0.215122       0.317885       0.290473
      16.090000       0.217202       0.321713       0.284583
      16.100000       0.218990       0.324778       0.278669
      16.110000       0.220450       0.326878       0.272825
      16.120000       0.221605       0.327900       0.267142
      16.130000       0.222518       0.327818       0.261700
      16.140000       0.223273       0.326680       0.256576
      16.150000       0.223949       0.324599       0.251840
      16.160000       0.224602       0.321751       0.247557
      16.170000       0.225259       0.318354       0.243780
      16.180000       0.225907       0.314645       0.240553
      16.190000       0.226505       0.310852       0.237906
      16.200000       0.227005       0.307167       0.235855
      16.210000       0.227365       0.303738       0.234395
      16.220000       0.227576       0.300681       0.233496
      16.230000       0.227666       0.298084       0.233110
      16.240000       0.227695       0.296011       0.233174
      16.250000       0.227748       0.294485       0.233627
      16.260000       0.227905       0.293469       0.234414
      16.270000       0.228226       0.292849       0.235490
      16.280000       0.228734       0.292441       0.236810
      16.290000       0.229402       0.292009       0.238324
      16.300000       0.230151       0.291304       0.239970
      16.310000       0.230855       0.290099       0.241680
      16.320000       0.231352       0.288235       0.243390
      16.330000       0.231475       0.285645       0.245050
      16.340000       0.231084       0.282360       0.246632
      16.350000       0.230085       0.278507       0.248132
      16.360000       0.228441       0.274277       0.249567
      16.370000       0.226155       0.269899       0.250963
      16.380000       0.223256       0.265599       0.252343
      16.390000       0.219790       0.261577       0.253723
      16.400000       0.215819       0.257982       0.255100
      16.410000       0.211435       0.254911       0.256458
      16.420000       0.206761       0.252405       0.257768
      16.430000       0.201950       0.250458       0.259002
      16.440000       0.197164       0.249022       0.260137
      16.450000       0.192554       0.248021       0.261155
      16.460000       0.188237       0.247370       0.262044
      16.470000       0.184291       0.246983       0.262785
      16.480000       0.180758       0.246790       0.263353
      16.490000       0.177655       0.246731       0.263715
      16.500000       0.174977       0.246755       0.263836
      16.510000       0.172711       0.246808       0.263685
      16.520000       0.170836       0.246840       0.263242
      16.530000       0.169326       0.246809       0.262500
      16.540000       0.168147       0.246684       0.261464
      16.550000       0.167246       0.246449       0.260153
      16.560000       0.166543       0.246093       0.258595
      16.570000       0.165930       0.245610       0.256824
      16.580000       0.165276       0.244995       0.254883
      16.590000       0.164442       0.244256       0.252819
      16.600000       0.163307       0.243415       0.250678
      16.610000       0.161788       0.242514       0.248496
      16.620000       0.159861       0.241614       0.246296
      16.630000       0.157559       0.240783       0.244087
      16.640000       0.154965       0.240087       0.241861
      16.650000       0.152192       0.239563       0.239603
      16.660000       0.149362       0.239212       0.237298
      16.670000       0.146584       0.238993       0.234940
      16.680000       0.143943       0.238835       0.232539
      16.690000       0.141498       0.238659       0.230130
      16.700000       0.139288       0.238401       0.227779
      16.710000       0.137337       0.238024       0.225581
      16.720000       0.135669       0.237526       0.223655
      16.730000       0.134311       0.236926       0.222127
      16.740000       0.133290       0.236243       0.221116
      16.750000       0.132631       0.235471       0.220718
      16.760000       0.132347       0.234564       0.220987
      16.770000       0.132431       0.233435       0.221932
      16.780000       0.132859       0.231977       0.223513
      16.790000       0.133590       0.230100       0.225643
      16.800000       0.134572       0.227764       0.228196
      16.810000       0.135754       0.225014       0.231025
      16.820000       0.137093       0.221981       0.233970
      16.830000       0.138555       0.218857       0.236876
      16.840000       0.140122       0.215861       0.239615
      16.850000       0.141782       0.213186       0.242089
      16.860000       0.143521       0.210967       0.244247
      16.870000       0.145311       0.209256       0.246082
      16.880000       0.147097       0.208031       0.247626
      16.890000       0.148797       0.207203       0.248944
      16.900000       0.150307       0.206648       0.250118
      16.910000       0.151517       0.206236       0.251232
      16.920000       0.152326       0.205851       0.252354
      16.930000       0.152661       0.205405       0.253521
      16.940000       0.152482       0.204839       0.254725
      16.950000       0.151787       0.204123       0.255907
      16.960000       0.150615       0.203254       0.256960
      16.970000       0.149043       0.202262       0.257752
      16.980000       0.147180       0.201216       0.258157
      16.990000       0.145151       0.200217       0.258092
      17.000000       0.143077       0.199389       0.257535
      17.010000       0.141057       0.198856       0.256531
      17.020000       0.139155       0.198726       0.255173
      17.030000       0.137400       0.199067       0.253569
      17.040000       0.135789       0.199904       0.251805
      17.050000       0.134315       0.201221       0.249924
      17.060000       0.132972       0.202967       0.247930
      17.070000       0.131777       0.205071       0.245795
      17.080000       0.130764       0.207448       0.243486
      17.090000       0.129978       0.210001       0.240984
      17.100000       0.129460       0.212612       0.238285
      17.110000       0.129234       0.215133       0.235401
      17.120000       0.129304       0.217388       0.232351
      17.130000       0.129649       0.219181       0.229150
      17.140000       0.130235       0.220328       0.225820
      17.150000       0.131019       0.220692       0.222386
      17.160000       0.131952       0.220222       0.218888
      17.170000       0.132982       0.218968       0.215378
      17.180000       0.134043       0.217065       0.211919
      17.190000       0.135055       0.214695       0.208580
      17.200000       0.135924       0.212042       0.205434
      17.210000       0.136558       0.209256       0.202553
      17.220000       0.136885       0.206441       0.200010
      17.230000       0.136881       0.203660       0.197865
      17.240000       0.136569       0.200955       0.196165
      17.250000       0.136026       0.198366       0.194926
      17.260000       0.135359       0.195944       0.194128
      17.270000       0.134690       0.193755       0.193717
      17.280000       0.134126       0.191870       0.193609
      17.290000       0.133747       0.190350       0.193712
      17.300000       0.133588       0.189225       0.193942
      17.310000       0.133640       0.188489       0.194238
      17.320000       0.133857       0.188092       0.194573
      17.330000       0.134170       0.187956       0.194946
      17.340000       0.134505       0.187988       0.195384
      17.350000       0.134798       0.188096       0.195924
      17.360000       0.135015       0.188210       0.196609
      17.370000       0.135151       0.188283       0.197472
      17.380000       0.135236       0.188306       0.198528
      17.390000       0.135323       0.188300       0.199766
      17.400000       0.135472       0.188311       0.201150
      17.410000       0.135737       0.188393       0.202622
      17.420000       0.136142       0.188595       0.204115
      17.430000       0.136685       0.188948       0.205566
      17.440000       0.137334       0.189468       0.206929
      17.450000       0.138043       0.190161       0.208179
      17.460000       0.138767       0.191028       0.209318
      17.470000       0.139483       0.192075       0.210367
      17.480000       0.140202       0.193304       0.211364
      17.490000       0.140971       0.194711       0.212355
      17.500000       0.141861       0.196266       0.213400
      17.510000       0.142952       0.197905       0.214569
      17.520000       0.144303       0.199519       0.215945
      17.530000       0.145942       0.200962       0.217619
      17.540000       0.147855       0.202064       0.219690
      17.550000       0.150003       0.202666       0.222252
      17.560000       0.152339       0.202654       0.225395
      17.570000       0.154823       0.201981       0.229179
      17.580000       0.157432       0.200685       0.233628
      17.590000       0.160143       0.198879       0.238711
      17.600000       0.162920       0.196728       0.244342
      17.610000       0.165692       0.194419       0.250377
      17.620000       0.168352       0.192126       0.256637
      17.630000       0.170761       0.189991       0.262912
      17.640000       0.172766       0.188102       0.268994
      17.650000       0.174224       0.186490       0.274685
      17.660000       0.175010       0.185131       0.279827
      17.670000       0.175029       0.183958       0.284307
      17.680000       0.174215       0.182873       0.288069
      17.690000       0.172545       0.181775       0.291105
      17.700000       0.170038       0.180585       0.293450
      17.710000       0.166765       0.179267       0.295166
      17.720000       0.162844       0.177836       0.296338
      17.730000       0.158424       0.176349       0.297067
      17.740000       0.153664       0.174888       0.297464
      17.750000       0.148714       0.173534       0.297638
      17.760000       0.143702       0.172345       0.297694
      17.770000       0.138738       0.171348       0.297720
      17.780000       0.133915       0.170529       0.297782
      17.790000       0.129312       0.169841       0.297923
      17.800000       0.124993       0.169213       0.298167
      17.810000       0.121004       0.168574       0.298514
      17.820000       0.117375       0.167865       0.298947
      17.830000       0.114125       0.167052       0.299436
      17.840000       0.111264       0.166131       0.299940
      17.850000       0.108800       0.165117       0.300419
      17.860000       0.106738       0.164041       0.300839
      17.870000       0.105078       0.162937       0.301179
      17.880000       0.103814       0.161837       0.301426
      17.890000       0.102933       0.160771       0.301580
      17.900000       0.102411       0.159763       0.301641
      17.910000       0.102212       0.158827       0.301610
      17.920000       0.102289       0.157971       0.301492
      17.930000       0.102577       0.157185       0.301299
      17.940000       0.102992       0.156449       0.301053
      17.950000       0.103435       0.155731       0.300789
      17.960000       0.103797       0.155005       0.300538
      17.970000       0.103971       0.154267       0.300316
      17.980000       0.103873       0.153546       0.300113
      17.990000       0.103462       0.152907       0.299887
      18.000000       0.102746       0.152440       0.299566
      18.010000       0.101784       0.152240       0.299064
      18.020000       0.100671       0.152386       0.298299
      18.030000       0.099517       0.152928       0.297217
      18.040000       0.098426       0.153875       0.295799
      18.050000       0.097482       0.155197       0.294069
      18.060000       0.096741       0.156824       0.292077
      18.070000       0.096226       0.158645       0.289889
      18.080000       0.095929       0.160516       0.287562
      18.090000       0.095810       0.162268       0.285132
      18.100000       0.095813       0.163733       0.282616
      18.110000       0.095874       0.164776       0.280022
      18.120000       0.095942       0.165323       0.277357
      18.130000       0.095984       0.165375       0.274646
      18.140000       0.096000       0.164999       0.271930
      18.150000       0.096009       0.164297       0.269258
      18.160000       0.096043       0.163377       0.266682
      18.170000       0.096128       0.162321       0.264236
      18.180000       0.096280       0.161172       0.261932
      18.190000       0.096491       0.159933       0.259757
      18.200000       0.096741       0.158583       0.257674
      18.210000       0.096996       0.157088       0.255640
      18.220000       0.097229       0.155418       0.253621
      18.230000       0.097422       0.153552       0.251611
      18.240000       0.097567       0.151493       0.249635
      18.250000       0.097672       0.149259       0.247746
      18.260000       0.097746       0.146893       0.246014
      18.270000       0.097806       0.144452       0.244504
      18.280000       0.097865       0.142004       0.243264
      18.290000       0.097943       0.139621       0.242322
      18.300000       0.098060       0.137373       0.241681
      18.310000       0.098233       0.135314       0.241322
      18.320000       0.098476       0.133480       0.241209
      18.330000       0.098792       0.131882       0.241294
      18.340000       0.099179       0.130515       0.241520
      18.350000       0.099630       0.129364       0.241828
      18.360000       0.100140       0.128419       0.242161
      18.370000       0.100711       0.127685       0.242473
      18.380000       0.101347       0.127178       0.242719
      18.390000       0.102060       0.126930       0.242862
      18.400000       0.102864       0.126971       0.242864
      18.410000       0.103771       0.127325       0.242690
      18.420000       0.104788       0.127993       0.242325
      18.430000       0.105901       0.128947       0.241778
      18.440000       0.107074       0.130134       0.241094
      18.450000       0.108248       0.131476       0.240347
      18.460000       0.109345       0.132886       0.239633
      18.470000       0.110287       0.134273       0.239046
      18.480000       0.111015       0.135551       0.238670
      18.490000       0.111499       0.136652       0.238560
      18.500000       0.111750       0.137526       0.238742
      18.510000       0.111805       0.138153       0.239212
      18.520000       0.111714       0.138540       0.239938
      18.530000       0.111521       0.138718       0.240873
      18.540000       0.111245       0.138725       0.241963
      18.550000       0.110888       0.138588       0.243155
      18.560000       0.110436       0.138319       0.244408
      18.570000       0.109873       0.137906       0.245694
      18.580000       0.109193       0.137327       0.247010
      18.590000       0.108408       0.136559       0.248373
      18.600000       0.107540       0.135587       0.249822
      18.610000       0.106622       0.134408       0.251405
      18.620000       0.105693       0.133041       0.253161
      18.630000       0.104795       0.131528       0.255102
      18.640000       0.103973       0.129937       0.257195
      18.650000       0.103267       0.128359       0.259363
      18.660000       0.102710       0.126890       0.261492
      18.670000       0.102332       0.125614       0.263454
      18.680000       0.102152       0.124586       0.265125
      18.690000       0.102187       0.123829       0.266407
      18.700000       0.102449       0.123329       0.267245
      18.710000       0.102944       0.123050       0.267628
      18.720000       0.103665       0.122936       0.267585
      18.730000       0.104587       0.122923       0.267178
      18.740000       0.105667       0.122942       0.266484
      18.750000       0.106844       0.122921       0.265582
      18.760000       0.108047       0.122795       0.264538
      18.770000       0.109211       0.122503       0.263394
      18.780000       0.110282       0.122010       0.262166
      18.790000       0.111228       0.121310       0.260846
      18.800000       0.112034       0.120436       0.259421
      18.810000       0.112702       0.119450       0.257881
      18.820000       0.113237       0.118433       0.256232
      18.830000       0.113644       0.117467       0.254489
      18.840000       0.113931       0.116628       0.252678
      18.850000       0.114104       0.115974       0.250825
      18.860000       0.114170       0.115548       0.248954
      18.870000       0.114131       0.115374       0.247077
      18.880000       0.113981       0.115456       0.245198
      18.890000       0.113704       0.115768       0.243302
      18.900000       0.113275       0.116254       0.241367
      18.910000       0.112665       0.116829       0.239358
      18.920000       0.111851       0.117384       0.237236
      18.930000       0.110823       0.117809       0.234966
      18.940000       0.109585       0.118003       0.232524
      18.950000       0.108161       0.117895       0.229902
      18.960000       0.106589       0.117447       0.227111
      18.970000       0.104926       0.116659       0.224179
      18.980000       0.103239       0.115564       0.221147
      18.990000       0.101601       0.114220       0.218070
      19.000000       0.100085       0.112703       0.215015
      19.010000       0.098748       0.111090       0.212051
      19.020000       0.097631       0.109450       0.209247
      19.030000       0.096751       0.107839       0.206666
      19.040000       0.096106       0.106296       0.204362
      19.050000       0.095671       0.104847       0.202376
      19.060000       0.095405       0.103511       0.200737
      19.070000       0.095259       0.102303       0.199458
      19.080000       0.095178       0.101237       0.198532
      19.090000       0.095111       0.100320       0.197937
      19.100000       0.095012       0.099549       0.197628
      19.110000       0.094847       0.098903       0.197552
      19.120000       0.094590       0.098343       0.197649
      19.130000       0.094229       0.097814       0.197862
      19.140000       0.093760       0.097260       0.198142
      19.150000       0.093187       0.096625       0.198452
      19.160000       0.092518       0.095872       0.198761
      19.170000       0.091766       0.094982       0.199043
      19.180000       0.090949       0.093961       0.199265
      19.190000       0.090096       0.092833       0.199388
      19.200000       0.089240       0.091641       0.199373
      19.210000       0.088421       0.090443       0.199193
      19.220000       0.087674       0.089299       0.198840
      19.230000       0.087028       0.088275       0.198336
      19.240000       0.086498       0.087423       0.197728
      19.250000       0.086085       0.086784       0.197076
      19.260000       0.085777       0.086375       0.196447
      19.270000       0.085547       0.086196       0.195900
      19.280000       0.085361       0.086222       0.195491
      19.290000       0.085181       0.086412       0.195270
      19.300000       0.084967       0.086712       0.195278
      19.310000       0.084687       0.087060       0.195551
      19.320000       0.084315       0.087394       0.196107
      19.330000       0.083838       0.087659       0.196951
      19.340000       0.083254       0.087810       0.198064
      19.350000       0.082584       0.087815       0.199404
      19.360000       0.081858       0.087658       0.200908
      19.370000       0.081122       0.087333       0.202487
      19.380000       0.080423       0.086853       0.204035
      19.390000       0.079809       0.086249       0.205441
      19.400000       0.079314       0.085567       0.206608
      19.410000       0.078961       0.084866       0.207478
      19.420000       0.078759       0.084206       0.208038
      19.430000       0.078704       0.083642       0.208332
      19.440000       0.078786       0.083213       0.208448
      19.450000       0.078989       0.082939       0.208503
      19.460000       0.079298       0.082823       0.208626
      19.470000       0.079692       0.082843       0.208936
      19.480000       0.080150       0.082964       0.209525
      19.490000       0.080645       0.083139       0.210445
      19.500000       0.081143       0.083317       0.211702
      19.510000       0.081602       0.083452       0.213256
      19.520000       0.081981       0.083510       0.215028
      19.530000       0.082241       0.083473       0.216901
      19.540000       0.082354       0.083340       0.218736
      19.550000       0.082305       0.083124       0.220382
      19.560000       0.082100       0.082849       0.221698
      19.570000       0.081763       0.082549       0.222573
      19.580000       0.081328       0.082263       0.222948
      19.590000       0.080830       0.082026       0.222821
      19.600000       0.080298       0.081869       0.222246
      19.610000       0.079748       0.081810       0.221309
      19.620000       0.079180       0.081849       0.220100
      19.630000       0.078584       0.081975       0.218685
      19.640000       0.077946       0.082167       0.217086
      19.650000       0.077256       0.082404       0.215272
      19.660000       0.076510       0.082668       0.213175
      19.670000       0.075718       0.082952       0.210715
      19.680000       0.074902       0.083258       0.207833
      19.690000       0.074095       0.083589       0.204522
      19.700000       0.073334       0.083941       0.200838
      19.710000       0.072658       0.084297       0.196901
      19.720000       0.072095       0.084623       0.192867
      19.730000       0.071661       0.084868       0.188902
      19.740000       0.071358       0.084972       0.185143
      19.750000       0.071169       0.084868       0.181680
      19.760000       0.071067       0.084495       0.178539
      19.770000       0.071017       0.083812       0.175691
      19.780000       0.070984       0.082805       0.173067
      19.790000       0.070939       0.081499       0.170584
      19.800000       0.070866       0.079951       0.168173
      19.810000       0.070763       0.078242       0.165794
      19.820000       0.070639       0.076459       0.163450
      19.830000       0.070512       0.074686       0.161182
      19.840000       0.070405       0.072995       0.159053
      19.850000       0.070337       0.071439       0.157140
      19.860000       0.070322       0.070056       0.155513
      19.870000       0.070367       0.068869       0.154222
      19.880000       0.070476       0.067890       0.153292
      19.890000       0.070644       0.067118       0.152720
      19.900000       0.070868       0.066545       0.152478
      19.910000       0.071144       0.066158       0.152521
      19.920000       0.071465       0.065940       0.152799
      19.930000       0.071827       0.065872       0.153263
      19.940000       0.072227       0.065936       0.153872
      19.950000       0.072663       0.066116       0.154590
      19.960000       0.073136       0.066402       0.155383
      19.970000       0.073655       0.066791       0.156207
      19.980000       0.074229       0.067286       0.157006
      19.990000       0.074868       0.067894       0.157706
      20.000000       0.075584       0.068628       0.158228
