  # energy grid [eV]     epsi_x  epsi_y  epsi_z
       0.000000            NaN            NaN            NaN
       0.010000       0.003998       0.006800       0.133156
       0.020000       0.008013       0.013670       0.234073
       0.030000       0.012063       0.020682       0.297550
       0.040000       0.016165       0.027910       0.335874
       0.050000       0.020336       0.035433       0.361995
       0.060000       0.024595       0.043336       0.384068
       0.070000       0.028959       0.051709       0.406141
       0.080000       0.033445       0.060652       0.429707
       0.090000       0.038067       0.070273       0.454753
       0.100000       0.042837       0.080688       0.480348
       0.110000       0.047763       0.092020       0.505039
       0.120000       0.052844       0.104395       0.527208
       0.130000       0.058076       0.117933       0.545444
       0.140000       0.063446       0.132739       0.558881
       0.150000       0.068940       0.148878       0.567383
       0.160000       0.074546       0.166348       0.571485
       0.170000       0.080258       0.185034       0.572121
       0.180000       0.086082       0.204662       0.570236
       0.190000       0.092032       0.224739       0.566460
       0.200000       0.098127       0.244515       0.560940
       0.210000       0.104378       0.262977       0.553382
       0.220000       0.110796       0.278928       0.543247
       0.230000       0.117386       0.291149       0.530030
       0.240000       0.124168       0.298638       0.513495
       0.250000       0.131187       0.300856       0.493794
       0.260000       0.138524       0.297874       0.471447
       0.270000       0.146297       0.290359       0.447216
       0.280000       0.154650       0.279402       0.421949
       0.290000       0.163742       0.266265       0.396444
       0.300000       0.173727       0.252153       0.371382
       0.310000       0.184739       0.238065       0.347314
       0.320000       0.196880       0.224731       0.324673
       0.330000       0.210199       0.212626       0.303795
       0.340000       0.224673       0.202003       0.284929
       0.350000       0.240176       0.192952       0.268239
       0.360000       0.256442       0.185441       0.253796
       0.370000       0.273039       0.179351       0.241591
       0.380000       0.289352       0.174504       0.231535
       0.390000       0.304617       0.170686       0.223472
       0.400000       0.318010       0.167671       0.217189
       0.410000       0.328794       0.165256       0.212436
       0.420000       0.336494       0.163284       0.208942
       0.430000       0.341030       0.161672       0.206443
       0.440000       0.342746       0.160414       0.204712
       0.450000       0.342333       0.159563       0.203569
       0.460000       0.340662       0.159208       0.202883
       0.470000       0.338617       0.159441       0.202549
       0.480000       0.336965       0.160336       0.202448
       0.490000       0.336292       0.161931       0.202420
       0.500000       0.336994       0.164227       0.202245
       0.510000       0.339301       0.167189       0.201667
       0.520000       0.343315       0.170753       0.200449
       0.530000       0.349054       0.174843       0.198437
       0.540000       0.356482       0.179385       0.195616
       0.550000       0.365523       0.184318       0.192116
       0.560000       0.376048       0.189602       0.188175
       0.570000       0.387849       0.195223       0.184062
       0.580000       0.400597       0.201194       0.180000
       0.590000       0.413814       0.207554       0.176104
       0.600000       0.426888       0.214367       0.172354
       0.610000       0.439135       0.221717       0.168600
       0.620000       0.449918       0.229711       0.164608
       0.630000       0.458802       0.238464       0.160124
       0.640000       0.465669       0.248101       0.154949
       0.650000       0.470764       0.258741       0.148997
       0.660000       0.474629       0.270470       0.142321
       0.670000       0.477973       0.283307       0.135095
       0.680000       0.481517       0.297175       0.127571
       0.690000       0.485886       0.311879       0.120019
       0.700000       0.491554       0.327108       0.112683
       0.710000       0.498843       0.342477       0.105753
       0.720000       0.507965       0.357590       0.099358
       0.730000       0.519065       0.372128       0.093571
       0.740000       0.532260       0.385927       0.088423
       0.750000       0.547644       0.399011       0.083913
       0.760000       0.565269       0.411590       0.080024
       0.770000       0.585096       0.424007       0.076728
       0.780000       0.606934       0.436660       0.073994
       0.790000       0.630396       0.449906       0.071792
       0.800000       0.654866       0.463975       0.070092
       0.810000       0.679524       0.478924       0.068867
       0.820000       0.703440       0.494634       0.068089
       0.830000       0.725732       0.510857       0.067731
       0.840000       0.745774       0.527282       0.067763
       0.850000       0.763356       0.543565       0.068148
       0.860000       0.778758       0.559320       0.068845
       0.870000       0.792683       0.574045       0.069808
       0.880000       0.806094       0.587074       0.070992
       0.890000       0.820032       0.597593       0.072359
       0.900000       0.835483       0.604771       0.073882
       0.910000       0.853313       0.607971       0.075542
       0.920000       0.874262       0.606960       0.077324
       0.930000       0.898975       0.602038       0.079197
       0.940000       0.928028       0.594017       0.081104
       0.950000       0.961962       0.584073       0.082956
       0.960000       1.001300       0.573522       0.084634
       0.970000       1.046566       0.563599       0.086018
       0.980000       1.098308       0.555279       0.087016
       0.990000       1.157111       0.549174       0.087593
       1.000000       1.223611       0.545495       0.087790
       1.010000       1.298495       0.544056       0.087714
       1.020000       1.382503       0.544317       0.087506
       1.030000       1.476415       0.545478       0.087310
       1.040000       1.581032       0.546626       0.087233
       1.050000       1.697166       0.546930       0.087330
       1.060000       1.825637       0.545841       0.087596
       1.070000       1.967305       0.543238       0.087974
       1.080000       2.123127       0.539454       0.088372
       1.090000       2.294243       0.535182       0.088684
       1.100000       2.482018       0.531299       0.088813
       1.110000       2.687976       0.528693       0.088683
       1.120000       2.913546       0.528127       0.088258
       1.130000       3.159610       0.530172       0.087541
       1.140000       3.425879       0.535185       0.086585
       1.150000       3.710214       0.543310       0.085483
       1.160000       4.008042       0.554499       0.084360
       1.170000       4.312085       0.568528       0.083352
       1.180000       4.612646       0.585033       0.082585
       1.190000       4.898606       0.603558       0.082156
       1.200000       5.159015       0.623627       0.082121
       1.210000       5.384878       0.644826       0.082490
       1.220000       5.570501       0.666865       0.083231
       1.230000       5.714033       0.689626       0.084271
       1.240000       5.817234       0.713159       0.085511
       1.250000       5.884794       0.737666       0.086836
       1.260000       5.923412       0.763439       0.088140
       1.270000       5.940610       0.790763       0.089333
       1.280000       5.943332       0.819778       0.090343
       1.290000       5.936642       0.850324       0.091117
       1.300000       5.923101       0.881827       0.091609
       1.310000       5.903162       0.913272       0.091785
       1.320000       5.876417       0.943314       0.091635
       1.330000       5.842987       0.970536       0.091188
       1.340000       5.804215       0.993804       0.090525
       1.350000       5.762247       1.012617       0.089770
       1.360000       5.718787       1.027322       0.089073
       1.370000       5.673835       1.039098       0.088579
       1.380000       5.625178       1.049712       0.088414
       1.390000       5.568960       1.061159       0.088661
       1.400000       5.500999       1.075293       0.089365
       1.410000       5.418054       1.093551       0.090527
       1.420000       5.318309       1.116769       0.092113
       1.430000       5.200862       1.145077       0.094053
       1.440000       5.064722       1.177850       0.096237
       1.450000       4.908159       1.213733       0.098508
       1.460000       4.729011       1.250796       0.100666
       1.470000       4.525890       1.286831       0.102474
       1.480000       4.299598       1.319782       0.103694
       1.490000       4.053916       1.348187       0.104136
       1.500000       3.795299       1.371439       0.103707
       1.510000       3.531673       1.389744       0.102435
       1.520000       3.270928       1.403771       0.100468
       1.530000       3.019721       1.414185       0.098028
       1.540000       2.782854       1.421291       0.095362
       1.550000       2.563200       1.424985       0.092689
       1.560000       2.361987       1.425023       0.090171
       1.570000       2.179221       1.421463       0.087901
       1.580000       2.014119       1.415045       0.085907
       1.590000       1.865473       1.407307       0.084175
       1.600000       1.731900       1.400384       0.082665
       1.610000       1.612008       1.396590       0.081331
       1.620000       1.504473       1.397971       0.080138
       1.630000       1.408074       1.405922       0.079058
       1.640000       1.321692       1.420957       0.078064
       1.650000       1.244311       1.442583       0.077132
       1.660000       1.175011       1.469295       0.076230
       1.670000       1.112962       1.498722       0.075334
       1.680000       1.057425       1.527948       0.074437
       1.690000       1.007745       1.554057       0.073561
       1.700000       0.963359       1.574810       0.072755
       1.710000       0.923787       1.589252       0.072088
       1.720000       0.888632       1.598008       0.071635
       1.730000       0.857574       1.603126       0.071459
       1.740000       0.830355       1.607530       0.071606
       1.750000       0.806769       1.614301       0.072087
       1.760000       0.786650       1.626027       0.072888
       1.770000       0.769861       1.644348       0.073960
       1.780000       0.756278       1.669737       0.075231
       1.790000       0.745782       1.701475       0.076612
       1.800000       0.738236       1.737794       0.078006
       1.810000       0.733468       1.776178       0.079322
       1.820000       0.731245       1.813765       0.080484
       1.830000       0.731257       1.847778       0.081428
       1.840000       0.733110       1.875878       0.082113
       1.850000       0.736348       1.896384       0.082522
       1.860000       0.740520       1.908376       0.082673
       1.870000       0.745262       1.911771       0.082624
       1.880000       0.750404       1.907417       0.082475
       1.890000       0.756038       1.897158       0.082355
       1.900000       0.762512       1.883743       0.082400
       1.910000       0.770365       1.870500       0.082735
       1.920000       0.780203       1.860828       0.083460
       1.930000       0.792569       1.857637       0.084637
       1.940000       0.807838       1.862888       0.086287
       1.950000       0.826142       1.877294       0.088386
       1.960000       0.847333       1.900206       0.090862
       1.970000       0.870992       1.929669       0.093599
       1.980000       0.896480       1.962679       0.096439
       1.990000       0.923040       1.995621       0.099205
       2.000000       0.949930       2.024854       0.101724
       2.010000       0.976545       2.047274       0.103853
       2.020000       1.002494       2.060714       0.105509
       2.030000       1.027613       2.064032       0.106675
       2.040000       1.051933       2.056928       0.107404
       2.050000       1.075629       2.039609       0.107796
       2.060000       1.098958       2.012472       0.107989
       2.070000       1.122201       1.975962       0.108124
       2.080000       1.145589       1.930662       0.108322
       2.090000       1.169279       1.877554       0.108661
       2.100000       1.193394       1.818272       0.109159
       2.110000       1.218123       1.755157       0.109778
       2.120000       1.243819       1.691073       0.110436
       2.130000       1.271002       1.629049       0.111037
       2.140000       1.300233       1.571906       0.111507
       2.150000       1.331916       1.521978       0.111819
       2.160000       1.366112       1.480990       0.112002
       2.170000       1.402483       1.450063       0.112134
       2.180000       1.440378       1.429814       0.112318
       2.190000       1.479045       1.420483       0.112647
       2.200000       1.517863       1.422068       0.113183
       2.210000       1.556498       1.434407       0.113929
       2.220000       1.594913       1.457206       0.114840
       2.230000       1.633259       1.489998       0.115828
       2.240000       1.671720       1.532019       0.116793
       2.250000       1.710412       1.582033       0.117655
       2.260000       1.749380       1.638110       0.118378
       2.270000       1.788642       1.697444       0.118977
       2.280000       1.828200       1.756284       0.119513
       2.290000       1.867967       1.810113       0.120069
       2.300000       1.907621       1.854122       0.120728
       2.310000       1.946462       1.883979       0.121555
       2.320000       1.983349       1.896703       0.122589
       2.330000       2.016734       1.891385       0.123851
       2.340000       2.044712       1.869433       0.125346
       2.350000       2.065074       1.834247       0.127070
       2.360000       2.075382       1.790381       0.129007
       2.370000       2.073120       1.742533       0.131129
       2.380000       2.055968       1.694637       0.133400
       2.390000       2.022193       1.649286       0.135778
       2.400000       1.971086       1.607532       0.138218
       2.410000       1.903304       1.569004       0.140678
       2.420000       1.820975       1.532291       0.143109
       2.430000       1.727471       1.495497       0.145465
       2.440000       1.626899       1.456825       0.147702
       2.450000       1.523480       1.415064       0.149779
       2.460000       1.420998       1.369833       0.151672
       2.470000       1.322450       1.321571       0.153374
       2.480000       1.229919       1.271343       0.154904
       2.490000       1.144608       1.220584       0.156300
       2.500000       1.066962       1.170848       0.157606
       2.510000       0.996840       1.123597       0.158858
       2.520000       0.933681       1.080034       0.160073
       2.530000       0.876680       1.040978       0.161258
       2.540000       0.824941       1.006804       0.162431
       2.550000       0.777621       0.977436       0.163639
       2.560000       0.734019       0.952388       0.164959
       2.570000       0.693617       0.930870       0.166482
       2.580000       0.656064       0.911928       0.168281
       2.590000       0.621137       0.894647       0.170366
       2.600000       0.588701       0.878353       0.172671
       2.610000       0.558679       0.862767       0.175048
       2.620000       0.531034       0.848059       0.177297
       2.630000       0.505749       0.834770       0.179202
       2.640000       0.482813       0.823661       0.180567
       2.650000       0.462205       0.815541       0.181242
       2.660000       0.443878       0.811140       0.181127
       2.670000       0.427760       0.811023       0.180164
       2.680000       0.413752       0.815559       0.178336
       2.690000       0.401726       0.824903       0.175666
       2.700000       0.391524       0.838983       0.172233
       2.710000       0.382956       0.857469       0.168178
       2.720000       0.375800       0.879743       0.163697
       2.730000       0.369804       0.904883       0.159019
       2.740000       0.364698       0.931697       0.154386
       2.750000       0.360229       0.958838       0.150023
       2.760000       0.356181       0.985019       0.146118
       2.770000       0.352418       1.009272       0.142813
       2.780000       0.348885       1.031187       0.140192
       2.790000       0.345605       1.050993       0.138278
       2.800000       0.342641       1.069447       0.137033
       2.810000       0.340050       1.087552       0.136365
       2.820000       0.337843       1.106224       0.136144
       2.830000       0.335955       1.126037       0.136227
       2.840000       0.334252       1.147129       0.136478
       2.850000       0.332548       1.169301       0.136798
       2.860000       0.330649       1.192273       0.137135
       2.870000       0.328398       1.215989       0.137494
       2.880000       0.325723       1.240874       0.137925
       2.890000       0.322661       1.267929       0.138517
       2.900000       0.319368       1.298649       0.139385
       2.910000       0.316091       1.334803       0.140654
       2.920000       0.313126       1.378156       0.142434
       2.930000       0.310769       1.430223       0.144803
       2.940000       0.309281       1.492079       0.147786
       2.950000       0.308873       1.564231       0.151347
       2.960000       0.309698       1.646524       0.155384
       2.970000       0.311862       1.738061       0.159737
       2.980000       0.315418       1.837133       0.164204
       2.990000       0.320365       1.941148       0.168563
       3.000000       0.326641       2.046581       0.172602
       3.010000       0.334109       2.148978       0.176150
       3.020000       0.342551       2.243067       0.179102
       3.030000       0.351662       2.323046       0.181421
       3.040000       0.361066       2.383079       0.183114
       3.050000       0.370358       2.417997       0.184208
       3.060000       0.379173       2.424106       0.184705
       3.070000       0.387272       2.399943       0.184577
       3.080000       0.394623       2.346738       0.183764
       3.090000       0.401430       2.268367       0.182204
       3.100000       0.408097       2.170719       0.179871
       3.110000       0.415142       2.060637       0.176800
       3.120000       0.423073       1.944789       0.173102
       3.130000       0.432280       1.828792       0.168949
       3.140000       0.442964       1.716773       0.164549
       3.150000       0.455106       1.611354       0.160106
       3.160000       0.468477       1.513913       0.155786
       3.170000       0.482701       1.424951       0.151703
       3.180000       0.497329       1.344418       0.147921
       3.190000       0.511940       1.271951       0.144460
       3.200000       0.526204       1.207013       0.141318
       3.210000       0.539893       1.148969       0.138487
       3.220000       0.552847       1.097144       0.135965
       3.230000       0.564884       1.050838       0.133763
       3.240000       0.575729       1.009349       0.131906
       3.250000       0.584969       0.971965       0.130423
       3.260000       0.592052       0.937999       0.129334
       3.270000       0.596335       0.906825       0.128643
       3.280000       0.597160       0.877937       0.128324
       3.290000       0.593961       0.850972       0.128326
       3.300000       0.586392       0.825679       0.128568
       3.310000       0.574435       0.801858       0.128947
       3.320000       0.558462       0.779306       0.129344
       3.330000       0.539198       0.757810       0.129628
       3.340000       0.517597       0.737195       0.129679
       3.350000       0.494671       0.717391       0.129401
       3.360000       0.471314       0.698472       0.128754
       3.370000       0.448197       0.680647       0.127757
       3.380000       0.425733       0.664193       0.126495
       3.390000       0.404121       0.649392       0.125104
       3.400000       0.383423       0.636485       0.123756
       3.410000       0.363659       0.625673       0.122632
       3.420000       0.344866       0.617129       0.121906
       3.430000       0.327134       0.611008       0.121724
       3.440000       0.310590       0.607444       0.122203
       3.450000       0.295372       0.606510       0.123420
       3.460000       0.281594       0.608172       0.125414
       3.470000       0.269328       0.612241       0.128184
       3.480000       0.258595       0.618342       0.131686
       3.490000       0.249361       0.625911       0.135830
       3.500000       0.241548       0.634225       0.140482
       3.510000       0.235037       0.642476       0.145466
       3.520000       0.229671       0.649867       0.150579
       3.530000       0.225259       0.655737       0.155616
       3.540000       0.221587       0.659666       0.160388
       3.550000       0.218421       0.661559       0.164737
       3.560000       0.215531       0.661655       0.168533
       3.570000       0.212699       0.660471       0.171660
       3.580000       0.209742       0.658671       0.173998
       3.590000       0.206528       0.656923       0.175407
       3.600000       0.202983       0.655765       0.175747
       3.610000       0.199100       0.655547       0.174902
       3.620000       0.194933       0.656423       0.172831
       3.630000       0.190587       0.658403       0.169594
       3.640000       0.186194       0.661427       0.165361
       3.650000       0.181887       0.665434       0.160387
       3.660000       0.177778       0.670405       0.154970
       3.670000       0.173940       0.676354       0.149412
       3.680000       0.170402       0.683309       0.143980
       3.690000       0.167163       0.691289       0.138896
       3.700000       0.164200       0.700315       0.134325
       3.710000       0.161495       0.710462       0.130380
       3.720000       0.159042       0.721914       0.127129
       3.730000       0.156860       0.734976       0.124600
       3.740000       0.154986       0.750028       0.122794
       3.750000       0.153467       0.767416       0.121683
       3.760000       0.152351       0.787332       0.121222
       3.770000       0.151676       0.809722       0.121348
       3.780000       0.151469       0.834253       0.121984
       3.790000       0.151745       0.860356       0.123037
       3.800000       0.152505       0.887324       0.124406
       3.810000       0.153740       0.914433       0.125986
       3.820000       0.155426       0.941065       0.127675
       3.830000       0.157525       0.966800       0.129385
       3.840000       0.159981       0.991477       0.131045
       3.850000       0.162713       1.015201       0.132610
       3.860000       0.165617       1.038278       0.134057
       3.870000       0.168570       1.061104       0.135385
       3.880000       0.171437       1.084028       0.136615
       3.890000       0.174093       1.107264       0.137789
       3.900000       0.176434       1.130851       0.138961
       3.910000       0.178391       1.154657       0.140187
       3.920000       0.179930       1.178369       0.141508
       3.930000       0.181047       1.201472       0.142935
       3.940000       0.181766       1.223208       0.144446
       3.950000       0.182142       1.242564       0.145996
       3.960000       0.182264       1.258292       0.147543
       3.970000       0.182259       1.268956       0.149074
       3.980000       0.182284       1.273044       0.150624
       3.990000       0.182512       1.269144       0.152280
       4.000000       0.183106       1.256199       0.154164
       4.010000       0.184204       1.233789       0.156410
       4.020000       0.185903       1.202351       0.159136
       4.030000       0.188249       1.163220       0.162425
       4.040000       0.191236       1.118444       0.166315
       4.050000       0.194806       1.070424       0.170794
       4.060000       0.198845       1.021501       0.175803
       4.070000       0.203206       0.973629       0.181228
       4.080000       0.207724       0.928199       0.186897
       4.090000       0.212256       0.886024       0.192586
       4.100000       0.216713       0.847425       0.198028
       4.110000       0.221085       0.812377       0.202949
       4.120000       0.225443       0.780654       0.207102
       4.130000       0.229910       0.751958       0.210310
       4.140000       0.234623       0.726014       0.212496
       4.150000       0.239679       0.702613       0.213692
       4.160000       0.245108       0.681615       0.214021
       4.170000       0.250847       0.662920       0.213668
       4.180000       0.256753       0.646435       0.212838
       4.190000       0.262617       0.632050       0.211723
       4.200000       0.268197       0.619613       0.210477
       4.210000       0.273252       0.608936       0.209211
       4.220000       0.277571       0.599807       0.207982
       4.230000       0.280988       0.592026       0.206803
       4.240000       0.283401       0.585439       0.205653
       4.250000       0.284790       0.579962       0.204491
       4.260000       0.285230       0.575579       0.203279
       4.270000       0.284895       0.572328       0.202001
       4.280000       0.284041       0.570259       0.200668
       4.290000       0.282964       0.569390       0.199322
       4.300000       0.281954       0.569655       0.198027
       4.310000       0.281250       0.570857       0.196864
       4.320000       0.281014       0.572640       0.195916
       4.330000       0.281329       0.574506       0.195273
       4.340000       0.282215       0.575853       0.195021
       4.350000       0.283656       0.576061       0.195245
       4.360000       0.285623       0.574591       0.196029
       4.370000       0.288083       0.571089       0.197453
       4.380000       0.291005       0.565463       0.199582
       4.390000       0.294355       0.557901       0.202455
       4.400000       0.298104       0.548824       0.206062
       4.410000       0.302239       0.538785       0.210330
       4.420000       0.306784       0.528356       0.215123
       4.430000       0.311813       0.518031       0.220243
       4.440000       0.317450       0.508165       0.225468
       4.450000       0.323861       0.498969       0.230580
       4.460000       0.331228       0.490539       0.235407
       4.470000       0.339738       0.482922       0.239842
       4.480000       0.349571       0.476171       0.243843
       4.490000       0.360895       0.470378       0.247417
       4.500000       0.373872       0.465669       0.250595
       4.510000       0.388661       0.462163       0.253412
       4.520000       0.405424       0.459930       0.255884
       4.530000       0.424345       0.458954       0.258005
       4.540000       0.445646       0.459119       0.259740
       4.550000       0.469594       0.460233       0.261031
       4.560000       0.496488       0.462059       0.261805
       4.570000       0.526625       0.464377       0.262001
       4.580000       0.560242       0.467033       0.261585
       4.590000       0.597439       0.469982       0.260580
       4.600000       0.638090       0.473297       0.259068
       4.610000       0.681753       0.477146       0.257195
       4.620000       0.727595       0.481748       0.255142
       4.630000       0.774348       0.487318       0.253098
       4.640000       0.820339       0.494026       0.251222
       4.650000       0.863601       0.501959       0.249634
       4.660000       0.902064       0.511115       0.248409
       4.670000       0.933802       0.521395       0.247589
       4.680000       0.957281       0.532614       0.247201
       4.690000       0.971589       0.544501       0.247262
       4.700000       0.976577       0.556724       0.247774
       4.710000       0.972880       0.568916       0.248719
       4.720000       0.961744       0.580731       0.250042
       4.730000       0.944694       0.591922       0.251653
       4.740000       0.923163       0.602400       0.253421
       4.750000       0.898219       0.612270       0.255190
       4.760000       0.870500       0.621796       0.256782
       4.770000       0.840363       0.631328       0.258022
       4.780000       0.808130       0.641197       0.258744
       4.790000       0.774317       0.651625       0.258815
       4.800000       0.739720       0.662670       0.258144
       4.810000       0.705350       0.674225       0.256689
       4.820000       0.672269       0.686058       0.254463
       4.830000       0.641428       0.697881       0.251526
       4.840000       0.613566       0.709441       0.247982
       4.850000       0.589172       0.720577       0.243973
       4.860000       0.568511       0.731261       0.239667
       4.870000       0.551669       0.741579       0.235250
       4.880000       0.538619       0.751706       0.230913
       4.890000       0.529263       0.761861       0.226834
       4.900000       0.523481       0.772281       0.223167
       4.910000       0.521157       0.783202       0.220035
       4.920000       0.522200       0.794822       0.217519
       4.930000       0.526546       0.807258       0.215662
       4.940000       0.534156       0.820505       0.214467
       4.950000       0.545005       0.834414       0.213901
       4.960000       0.559071       0.848694       0.213907
       4.970000       0.576303       0.862937       0.214416
       4.980000       0.596595       0.876646       0.215358
       4.990000       0.619746       0.889276       0.216679
       5.000000       0.645418       0.900288       0.218330
       5.010000       0.673098       0.909225       0.220270
       5.020000       0.702090       0.915791       0.222437
       5.030000       0.731535       0.919911       0.224745
       5.040000       0.760484       0.921747       0.227071
       5.050000       0.787984       0.921656       0.229269
       5.060000       0.813158       0.920113       0.231184
       5.070000       0.835223       0.917623       0.232675
       5.080000       0.853488       0.914657       0.233629
       5.090000       0.867371       0.911638       0.233971
       5.100000       0.876512       0.908981       0.233667
       5.110000       0.880926       0.907165       0.232727
       5.120000       0.881140       0.906782       0.231199
       5.130000       0.878170       0.908523       0.229175
       5.140000       0.873338       0.913087       0.226771
       5.150000       0.867986       0.921040       0.224119
       5.160000       0.863184       0.932679       0.221340
       5.170000       0.859538       0.947949       0.218522
       5.180000       0.857137       0.966432       0.215717
       5.190000       0.855632       0.987426       0.212936
       5.200000       0.854437       1.010106       0.210164
       5.210000       0.852985       1.033755       0.207378
       5.220000       0.850970       1.057961       0.204561
       5.230000       0.848470       1.082735       0.201710
       5.240000       0.845927       1.108460       0.198841
       5.250000       0.843980       1.135699       0.195980
       5.260000       0.843251       1.164923       0.193158
       5.270000       0.844160       1.196249       0.190403
       5.280000       0.846827       1.229257       0.187736
       5.290000       0.851090       1.262937       0.185176
       5.300000       0.856618       1.295783       0.182734
       5.310000       0.863058       1.326036       0.180420
       5.320000       0.870187       1.352044       0.178243
       5.330000       0.877971       1.372629       0.176221
       5.340000       0.886546       1.387358       0.174385
       5.350000       0.896087       1.396592       0.172786
       5.360000       0.906644       1.401297       0.171492
       5.370000       0.917988       1.402701       0.170580
       5.380000       0.929533       1.401927       0.170110
       5.390000       0.940374       1.399720       0.170113
       5.400000       0.949433       1.396335       0.170566
       5.410000       0.955701       1.391576       0.171388
       5.420000       0.958491       1.384952       0.172443
       5.430000       0.957645       1.375909       0.173564
       5.440000       0.953629       1.364066       0.174586
       5.450000       0.947480       1.349422       0.175384
       5.460000       0.940637       1.332494       0.175892
       5.470000       0.934714       1.314343       0.176107
       5.480000       0.931293       1.296502       0.176068
       5.490000       0.931760       1.280774       0.175830
       5.500000       0.937223       1.268986       0.175450
       5.510000       0.948464       1.262741       0.174982
       5.520000       0.965936       1.263237       0.174489
       5.530000       0.989749       1.271170       0.174051
       5.540000       1.019666       1.286705       0.173763
       5.550000       1.055074       1.309495       0.173723
       5.560000       1.094975       1.338728       0.174012
       5.570000       1.138017       1.373212       0.174678
       5.580000       1.182601       1.411489       0.175719
       5.590000       1.227087       1.452004       0.177086
       5.600000       1.270039       1.493292       0.178686
       5.610000       1.310447       1.534143       0.180408
       5.620000       1.347816       1.573697       0.182148
       5.630000       1.382063       1.611403       0.183825
       5.640000       1.413246       1.646873       0.185398
       5.650000       1.441257       1.679686       0.186858
       5.660000       1.465613       1.709258       0.188214
       5.670000       1.485480       1.734842       0.189476
       5.680000       1.499914       1.755650       0.190634
       5.690000       1.508213       1.771044       0.191643
       5.700000       1.510227       1.780683       0.192426
       5.710000       1.506499       1.784614       0.192877
       5.720000       1.498235       1.783302       0.192880
       5.730000       1.487155       1.777624       0.192341
       5.740000       1.475271       1.768806       0.191211
       5.750000       1.464621       1.758293       0.189512
       5.760000       1.456976       1.747581       0.187331
       5.770000       1.453595       1.738047       0.184810
       5.780000       1.455068       1.730816       0.182116
       5.790000       1.461289       1.726683       0.179411
       5.800000       1.471546       1.726056       0.176837
       5.810000       1.484723       1.728944       0.174499
       5.820000       1.499554       1.734986       0.172467
       5.830000       1.514884       1.743529       0.170776
       5.840000       1.529849       1.753736       0.169427
       5.850000       1.543912       1.764680       0.168389
       5.860000       1.556719       1.775394       0.167605
       5.870000       1.567873       1.784896       0.166992
       5.880000       1.576755       1.792212       0.166459
       5.890000       1.582537       1.796454       0.165920
       5.900000       1.584393       1.796946       0.165307
       5.910000       1.581826       1.793367       0.164580
       5.920000       1.574937       1.785876       0.163731
       5.930000       1.564494       1.775143       0.162773
       5.940000       1.551794       1.762288       0.161734
       5.950000       1.538373       1.748715       0.160647
       5.960000       1.525682       1.735862       0.159551
       5.970000       1.514810       1.724910       0.158499
       5.980000       1.506321       1.716528       0.157562
       5.990000       1.500251       1.710713       0.156823
       6.000000       1.496267       1.706782       0.156376
       6.010000       1.493918       1.703521       0.156310
       6.020000       1.492882       1.699427       0.156702
       6.030000       1.493084       1.693001       0.157619
       6.040000       1.494672       1.683026       0.159110
       6.050000       1.497870       1.668793       0.161209
       6.060000       1.502835       1.650224       0.163935
       6.070000       1.509580       1.627865       0.167286
       6.080000       1.517994       1.602727       0.171237
       6.090000       1.527929       1.576066       0.175743
       6.100000       1.539300       1.549167       0.180726
       6.110000       1.552135       1.523186       0.186081
       6.120000       1.566565       1.499073       0.191674
       6.130000       1.582730       1.477506       0.197353
       6.140000       1.600637       1.458817       0.202961
       6.150000       1.620011       1.442913       0.208354
       6.160000       1.640210       1.429250       0.213407
       6.170000       1.660268       1.416922       0.218017
       6.180000       1.679071       1.404905       0.222094
       6.190000       1.695632       1.392371       0.225554
       6.200000       1.709341       1.378963       0.228325
       6.210000       1.720103       1.364903       0.230348
       6.220000       1.728262       1.350861       0.231596
       6.230000       1.734341       1.337675       0.232083
       6.240000       1.738663       1.326011       0.231876
       6.250000       1.741037       1.316110       0.231094
       6.260000       1.740612       1.307690       0.229903
       6.270000       1.735993       1.299998       0.228506
       6.280000       1.725561       1.291970       0.227119
       6.290000       1.707888       1.282440       0.225951
       6.300000       1.682087       1.270336       0.225181
       6.310000       1.648008       1.254840       0.224945
       6.320000       1.606263       1.235520       0.225322
       6.330000       1.558131       1.212416       0.226329
       6.340000       1.505386       1.186063       0.227915
       6.350000       1.450086       1.157447       0.229957
       6.360000       1.394350       1.127882       0.232274
       6.370000       1.340145       1.098840       0.234645
       6.380000       1.289139       1.071778       0.236834
       6.390000       1.242626       1.048009       0.238623
       6.400000       1.201532       1.028619       0.239839
       6.410000       1.166483       1.014434       0.240379
       6.420000       1.137871       1.006021       0.240212
       6.430000       1.115915       1.003683       0.239382
       6.440000       1.100684       1.007471       0.237991
       6.450000       1.092094       1.017175       0.236184
       6.460000       1.089881       1.032325       0.234130
       6.470000       1.093587       1.052198       0.232008
       6.480000       1.102552       1.075849       0.229995
       6.490000       1.115927       1.102173       0.228258
       6.500000       1.132689       1.130008       0.226947
       6.510000       1.151655       1.158224       0.226180
       6.520000       1.171489       1.185812       0.226043
       6.530000       1.190751       1.211936       0.226579
       6.540000       1.207995       1.235973       0.227788
       6.550000       1.221956       1.257565       0.229640
       6.560000       1.231765       1.276668       0.232085
       6.570000       1.237131       1.293564       0.235064
       6.580000       1.238391       1.308775       0.238512
       6.590000       1.236406       1.322899       0.242355
       6.600000       1.232318       1.336424       0.246504
       6.610000       1.227259       1.349589       0.250835
       6.620000       1.222092       1.362358       0.255198
       6.630000       1.217283       1.374495       0.259415
       6.640000       1.212927       1.385672       0.263303
       6.650000       1.208901       1.395575       0.266692
       6.660000       1.205050       1.403939       0.269440
       6.670000       1.201321       1.410541       0.271443
       6.680000       1.197776       1.415144       0.272640
       6.690000       1.194494       1.417451       0.273007
       6.700000       1.191449       1.417061       0.272564
       6.710000       1.188445       1.413494       0.271375
       6.720000       1.185141       1.406277       0.269544
       6.730000       1.181190       1.395128       0.267213
       6.740000       1.176408       1.380174       0.264558
       6.750000       1.170910       1.362113       0.261769
       6.760000       1.165163       1.342226       0.259041
       6.770000       1.159910       1.322214       0.256551
       6.780000       1.156014       1.303904       0.254447
       6.790000       1.154264       1.288932       0.252835
       6.800000       1.155220       1.278488       0.251778
       6.810000       1.159140       1.273172       0.251299
       6.820000       1.166002       1.272960       0.251391
       6.830000       1.175596       1.277278       0.252027
       6.840000       1.187644       1.285162       0.253175
       6.850000       1.201906       1.295483       0.254802
       6.860000       1.218240       1.307182       0.256884
       6.870000       1.236591       1.319437       0.259402
       6.880000       1.256900       1.331703       0.262340
       6.890000       1.278984       1.343618       0.265666
       6.900000       1.302426       1.354840       0.269319
       6.910000       1.326520       1.364914       0.273194
       6.920000       1.350278       1.373209       0.277151
       6.930000       1.372489       1.378952       0.281039
       6.940000       1.391816       1.381329       0.284725
       6.950000       1.406929       1.379602       0.288130
       6.960000       1.416670       1.373224       0.291243
       6.970000       1.420194       1.361909       0.294112
       6.980000       1.417064       1.345649       0.296816
       6.990000       1.407233       1.324691       0.299435
       7.000000       1.390984       1.299508       0.302016
       7.010000       1.368840       1.270814       0.304563
       7.020000       1.341524       1.239585       0.307035
       7.030000       1.309931       1.207051       0.309367
       7.040000       1.275103       1.174596       0.311488
       7.050000       1.238175       1.143597       0.313342
       7.060000       1.200300       1.115239       0.314887
       7.070000       1.162579       1.090376       0.316096
       7.080000       1.126000       1.069450       0.316949
       7.090000       1.091404       1.052490       0.317436
       7.100000       1.059462       1.039161       0.317548
       7.110000       1.030680       1.028872       0.317286
       7.120000       1.005404       1.020915       0.316652
       7.130000       0.983837       1.014628       0.315651
       7.140000       0.966045       1.009542       0.314287
       7.150000       0.951981       1.005487       0.312561
       7.160000       0.941500       1.002598       0.310473
       7.170000       0.934381       1.001232       0.308034
       7.180000       0.930333       1.001830       0.305268
       7.190000       0.928996       1.004747       0.302223
       7.200000       0.929937       1.010123       0.298962
       7.210000       0.932654       1.017807       0.295565
       7.220000       0.936580       1.027354       0.292119
       7.230000       0.941088       1.038072       0.288711
       7.240000       0.945487       1.049116       0.285431
       7.250000       0.949038       1.059605       0.282373
       7.260000       0.951027       1.068778       0.279640
       7.270000       0.950896       1.076161       0.277336
       7.280000       0.948393       1.081707       0.275569
       7.290000       0.943677       1.085828       0.274434
       7.300000       0.937303       1.089299       0.274011
       7.310000       0.930097       1.093047       0.274352
       7.320000       0.922961       1.097931       0.275479
       7.330000       0.916692       1.104597       0.277386
       7.340000       0.911852       1.113431       0.280042
       7.350000       0.908709       1.124596       0.283399
       7.360000       0.907235       1.138085       0.287409
       7.370000       0.907157       1.153765       0.292029
       7.380000       0.908040       1.171393       0.297228
       7.390000       0.909412       1.190648       0.302979
       7.400000       0.910916       1.211184       0.309247
       7.410000       0.912443       1.232707       0.315958
       7.420000       0.914201       1.255040       0.322984
       7.430000       0.916683       1.278143       0.330125
       7.440000       0.920551       1.302093       0.337113
       7.450000       0.926460       1.326991       0.343631
       7.460000       0.934877       1.352821       0.349356
       7.470000       0.945929       1.379296       0.354009
       7.480000       0.959317       1.405727       0.357408
       7.490000       0.974315       1.430997       0.359500
       7.500000       0.989881       1.453659       0.360381
       7.510000       1.004856       1.472152       0.360281
       7.520000       1.018213       1.485085       0.359525
       7.530000       1.029276       1.491524       0.358482
       7.540000       1.037846       1.491194       0.357509
       7.550000       1.044206       1.484571       0.356901
       7.560000       1.049023       1.472837       0.356858
       7.570000       1.053204       1.457706       0.357470
       7.580000       1.057716       1.441165       0.358704
       7.590000       1.063414       1.425150       0.360424
       7.600000       1.070883       1.411229       0.362413
       7.610000       1.080327       1.400356       0.364414
       7.620000       1.091535       1.392744       0.366178
       7.630000       1.103931       1.387876       0.367514
       7.640000       1.116685       1.384636       0.368323
       7.650000       1.128848       1.381504       0.368618
       7.660000       1.139475       1.376773       0.368515
       7.670000       1.147743       1.368757       0.368209
       7.680000       1.153045       1.356015       0.367936
       7.690000       1.155089       1.337564       0.367938
       7.700000       1.153950       1.313079       0.368427
       7.710000       1.150052       1.282978       0.369560
       7.720000       1.144069       1.248355       0.371424
       7.730000       1.136783       1.210758       0.374022
       7.740000       1.128945       1.171900       0.377285
       7.750000       1.121176       1.133382       0.381082
       7.760000       1.113904       1.096507       0.385245
       7.770000       1.107332       1.062212       0.389587
       7.780000       1.101442       1.031086       0.393935
       7.790000       1.096019       1.003451       0.398140
       7.800000       1.090716       0.979465       0.402104
       7.810000       1.085160       0.959221       0.405782
       7.820000       1.079063       0.942810       0.409190
       7.830000       1.072311       0.930337       0.412397
       7.840000       1.064990       0.921891       0.415514
       7.850000       1.057356       0.917477       0.418686
       7.860000       1.049752       0.916960       0.422076
       7.870000       1.042528       0.920013       0.425868
       7.880000       1.035988       0.926127       0.430254
       7.890000       1.030372       0.934660       0.435445
       7.900000       1.025875       0.944957       0.441658
       7.910000       1.022686       0.956494       0.449111
       7.920000       1.021016       0.969032       0.457996
       7.930000       1.021124       0.982692       0.468460
       7.940000       1.023296       0.997936       0.480599
       7.950000       1.027809       1.015452       0.494456
       7.960000       1.034869       1.035988       0.510041
       7.970000       1.044549       1.060189       0.527352
       7.980000       1.056732       1.088462       0.546387
       7.990000       1.071081       1.120891       0.567159
       8.000000       1.087047       1.157184       0.589689
       8.010000       1.103930       1.196652       0.614006
       8.020000       1.120973       1.238234       0.640146
       8.030000       1.137467       1.280555       0.668149
       8.040000       1.152844       1.322045       0.698042
       8.050000       1.166744       1.361116       0.729817
       8.060000       1.179054       1.396405       0.763395
       8.070000       1.189907       1.427027       0.798609
       8.080000       1.199650       1.452757       0.835209
       8.090000       1.208754       1.474055       0.872900
       8.100000       1.217706       1.491901       0.911395
       8.110000       1.226878       1.507451       0.950455
       8.120000       1.236430       1.521638       0.989900
       8.130000       1.246248       1.534839       1.029578
       8.140000       1.255954       1.546720       1.069306
       8.150000       1.264964       1.556330       1.108807
       8.160000       1.272602       1.562381       1.147663
       8.170000       1.278217       1.563610       1.185305
       8.180000       1.281287       1.559096       1.221050
       8.190000       1.281474       1.548449       1.254173
       8.200000       1.278636       1.531834       1.284009
       8.210000       1.272837       1.509905       1.310024
       8.220000       1.264359       1.483673       1.331858
       8.230000       1.253733       1.454382       1.349305
       8.240000       1.241748       1.423391       1.362267
       8.250000       1.229402       1.392053       1.370696
       8.260000       1.217771       1.361580       1.374570
       8.270000       1.207834       1.332926       1.373922
       8.280000       1.200307       1.306720       1.368900
       8.290000       1.195542       1.283276       1.359840
       8.300000       1.193525       1.262687       1.347293
       8.310000       1.193937       1.244951       1.331998
       8.320000       1.196272       1.230110       1.314789
       8.330000       1.199953       1.218348       1.296483
       8.340000       1.204438       1.210019       1.277780
       8.350000       1.209289       1.205605       1.259203
       8.360000       1.214226       1.205598       1.241088
       8.370000       1.219169       1.210376       1.223632
       8.380000       1.224273       1.220104       1.206948
       8.390000       1.229942       1.234668       1.191150
       8.400000       1.236792       1.253660       1.176415
       8.410000       1.245554       1.276381       1.163004
       8.420000       1.256939       1.301860       1.151241
       8.430000       1.271501       1.328893       1.141449
       8.440000       1.289534       1.356116       1.133883
       8.450000       1.311031       1.382109       1.128692
       8.460000       1.335700       1.405520       1.125918
       8.470000       1.363003       1.425167       1.125535
       8.480000       1.392217       1.440103       1.127482
       8.490000       1.422504       1.449680       1.131681
       8.500000       1.452993       1.453617       1.138018
       8.510000       1.482878       1.452103       1.146306
       8.520000       1.511505       1.445858       1.156250
       8.530000       1.538441       1.436094       1.167443
       8.540000       1.563510       1.424338       1.179391
       8.550000       1.586804       1.412164       1.191575
       8.560000       1.608654       1.400931       1.203522
       8.570000       1.629554       1.391576       1.214871
       8.580000       1.649995       1.384518       1.225410
       8.590000       1.670269       1.379654       1.235095
       8.600000       1.690298       1.376435       1.244025
       8.610000       1.709589       1.374007       1.252418
       8.620000       1.727368       1.371390       1.260547
       8.630000       1.742843       1.367685       1.268680
       8.640000       1.755503       1.362276       1.277021
       8.650000       1.765316       1.354977       1.285682
       8.660000       1.772758       1.346107       1.294702
       8.670000       1.778688       1.336473       1.304104
       8.680000       1.784128       1.327274       1.313955
       8.690000       1.790049       1.319941       1.324398
       8.700000       1.797220       1.315962       1.335642
       8.710000       1.806160       1.316717       1.347935
       8.720000       1.817155       1.323350       1.361532
       8.730000       1.830313       1.336704       1.376674
       8.740000       1.845642       1.357294       1.393579
       8.750000       1.863132       1.385288       1.412404
       8.760000       1.882834       1.420483       1.433201
       8.770000       1.904877       1.462248       1.455852
       8.780000       1.929397       1.509472       1.480045
       8.790000       1.956407       1.560539       1.505282
       8.800000       1.985667       1.613387       1.530948
       8.810000       2.016642       1.665677       1.556408
       8.820000       2.048583       1.715065       1.581102
       8.830000       2.080681       1.759540       1.604604
       8.840000       2.112250       1.797708       1.626657
       8.850000       2.142809       1.828935       1.647164
       8.860000       2.172025       1.853271       1.666168
       8.870000       2.199541       1.871212       1.683810
       8.880000       2.224766       1.883413       1.700268
       8.890000       2.246752       1.890482       1.715695
       8.900000       2.264229       1.892893       1.730151
       8.910000       2.275827       1.891011       1.743592
       8.920000       2.280417       1.885164       1.755890
       8.930000       2.277464       1.875718       1.766894
       8.940000       2.267241       1.863132       1.776471
       8.950000       2.250827       1.848004       1.784528
       8.960000       2.229893       1.831109       1.790985
       8.970000       2.206373       1.813419       1.795764
       8.980000       2.182140       1.796062       1.798829
       8.990000       2.158758       1.780203       1.800261
       9.000000       2.137359       1.766831       1.800344
       9.010000       2.118624       1.756523       1.799595
       9.020000       2.102829       1.749263       1.798700
       9.030000       2.089893       1.744387       1.798364
       9.040000       2.079403       1.740705       1.799161
       9.050000       2.070644       1.736776       1.801423
       9.060000       2.062677       1.731288       1.805223
       9.070000       2.054480       1.723407       1.810439
       9.080000       2.045131       1.713005       1.816844
       9.090000       2.033971       1.700671       1.824213
       9.100000       2.020686       1.687530       1.832394
       9.110000       2.005276       1.674926       1.841365
       9.120000       1.987922       1.664072       1.851255
       9.130000       1.968803       1.655742       1.862334
       9.140000       1.947924       1.650084       1.874940
       9.150000       1.925039       1.646590       1.889358
       9.160000       1.899676       1.644233       1.905656
       9.170000       1.871282       1.641732       1.923545
       9.180000       1.839393       1.637863       1.942322
       9.190000       1.803792       1.631720       1.960933
       9.200000       1.764590       1.622844       1.978156
       9.210000       1.722233       1.611196       1.992858
       9.220000       1.677452       1.597032       2.004256
       9.230000       1.631195       1.580763       2.012085
       9.240000       1.584551       1.562843       2.016617
       9.250000       1.538669       1.543709       2.018553
       9.260000       1.494676       1.523723       2.018837
       9.270000       1.453601       1.503131       2.018488
       9.280000       1.416300       1.482047       2.018498
       9.290000       1.383421       1.460494       2.019809
       9.300000       1.355403       1.438495       2.023328
       9.310000       1.332494       1.416190       2.029962
       9.320000       1.314785       1.393913       2.040650
       9.330000       1.302235       1.372223       2.056382
       9.340000       1.294684       1.351868       2.078223
       9.350000       1.291852       1.333711       2.107323
       9.360000       1.293329       1.318626       2.144925
       9.370000       1.298549       1.307372       2.192363
       9.380000       1.306792       1.300473       2.251026
       9.390000       1.317198       1.298100       2.322304
       9.400000       1.328827       1.299991       2.407498
       9.410000       1.340734       1.305434       2.507715
       9.420000       1.352039       1.313316       2.623757
       9.430000       1.361986       1.322258       2.755992
       9.440000       1.369974       1.330811       2.904204
       9.450000       1.375580       1.337677       3.067379
       9.460000       1.378570       1.341887       3.243462
       9.470000       1.378899       1.342878       3.429097
       9.480000       1.376691       1.340465       3.619453
       9.490000       1.372178       1.334727       3.808286
       9.500000       1.365616       1.325864       3.988340
       9.510000       1.357179       1.314085       4.152136
       9.520000       1.346892       1.299554       4.292952
       9.530000       1.334626       1.282407       4.405715
       9.540000       1.320185       1.262830       4.487514
       9.550000       1.303424       1.241137       4.537636
       9.560000       1.284359       1.217808       4.557217
       9.570000       1.263219       1.193462       4.548735
       9.580000       1.240420       1.168799       4.515514
       9.590000       1.216496       1.144518       4.461338
       9.600000       1.191999       1.121263       4.390193
       9.610000       1.167404       1.099570       4.306123
       9.620000       1.143049       1.079822       4.213167
       9.630000       1.119126       1.062214       4.115262
       9.640000       1.095717       1.046743       4.016052
       9.650000       1.072863       1.033226       3.918564
       9.660000       1.050618       1.021355       3.824901
       9.670000       1.029070       1.010781       3.736125
       9.680000       1.008340       1.001215       3.652421
       9.690000       0.988565       0.992505       3.573457
       9.700000       0.969879       0.984678       3.498744
       9.710000       0.952407       0.977910       3.427837
       9.720000       0.936264       0.972452       3.360302
       9.730000       0.921563       0.968536       3.295554
       9.740000       0.908435       0.966305       3.232701
       9.750000       0.897039       0.965781       3.170511
       9.760000       0.887568       0.966858       3.107601
       9.770000       0.880216       0.969311       3.042781
       9.780000       0.875142       0.972813       2.975465
       9.790000       0.872415       0.976966       2.905962
       9.800000       0.871983       0.981376       2.835498
       9.810000       0.873652       0.985721       2.765973
       9.820000       0.877087       0.989813       2.699531
       9.830000       0.881820       0.993577       2.638103
       9.840000       0.887271       0.996970       2.583040
       9.850000       0.892786       0.999860       2.534880
       9.860000       0.897716       1.001951       2.493291
       9.870000       0.901496       1.002780       2.457178
       9.880000       0.903734       1.001808       2.424942
       9.890000       0.904249       0.998581       2.394862
       9.900000       0.903081       0.992885       2.365516
       9.910000       0.900452       0.984856       2.336126
       9.920000       0.896702       0.974979       2.306728
       9.930000       0.892210       0.963990       2.278109
       9.940000       0.887323       0.952714       2.251543
       9.950000       0.882305       0.941903       2.228446
       9.960000       0.877314       0.932117       2.210059
       9.970000       0.872416       0.923691       2.197227
       9.980000       0.867601       0.916763       2.190297
       9.990000       0.862823       0.911358       2.189120
      10.000000       0.858013       0.907475       2.193115
      10.010000       0.853108       0.905146       2.201352
      10.020000       0.848048       0.904455       2.212600
      10.030000       0.842777       0.905518       2.225357
      10.040000       0.837232       0.908452       2.237908
      10.050000       0.831344       0.913350       2.248484
      10.060000       0.825053       0.920270       2.255545
      10.070000       0.818323       0.929240       2.258110
      10.080000       0.811141       0.940279       2.256006
      10.090000       0.803487       0.953432       2.249921
      10.100000       0.795301       0.968791       2.241204
      10.110000       0.786465       0.986506       2.231486
      10.120000       0.776837       1.006780       2.222245
      10.130000       0.766320       1.029842       2.214453
      10.140000       0.754937       1.055918       2.208395
      10.150000       0.742889       1.085174       2.203671
      10.160000       0.730547       1.117661       2.199374
      10.170000       0.718406       1.153252       2.194378
      10.180000       0.707005       1.191607       2.187686
      10.190000       0.696834       1.232176       2.178724
      10.200000       0.688274       1.274254       2.167515
      10.210000       0.681557       1.317086       2.154676
      10.220000       0.676765       1.360012       2.141265
      10.230000       0.673861       1.402601       2.128536
      10.240000       0.672730       1.444724       2.117692
      10.250000       0.673205       1.486510       2.109677
      10.260000       0.675086       1.528180       2.105029
      10.270000       0.678125       1.569810       2.103776
      10.280000       0.682012       1.611076       2.105417
      10.290000       0.686360       1.651054       2.108972
      10.300000       0.690714       1.688138       2.113168
      10.310000       0.694559       1.720117       2.116715
      10.320000       0.697351       1.744441       2.118632
      10.330000       0.698546       1.758660       2.118493
      10.340000       0.697648       1.760911       2.116497
      10.350000       0.694270       1.750323       2.113331
      10.360000       0.688205       1.727209       2.109880
      10.370000       0.679472       1.693028       2.106933
      10.380000       0.668344       1.650158       2.104990
      10.390000       0.655324       1.601560       2.104227
      10.400000       0.641082       1.550402       2.104588
      10.410000       0.626362       1.499714       2.105942
      10.420000       0.611891       1.452120       2.108210
      10.430000       0.598304       1.409688       2.111429
      10.440000       0.586086       1.373893       2.115746
      10.450000       0.575545       1.345670       2.121336
      10.460000       0.566804       1.325524       2.128306
      10.470000       0.559831       1.313660       2.136586
      10.480000       0.554474       1.310095       2.145875
      10.490000       0.550511       1.314725       2.155653
      10.500000       0.547687       1.327343       2.165305
      10.510000       0.545732       1.347607       2.174307
      10.520000       0.544370       1.374977       2.182423
      10.530000       0.543333       1.408668       2.189816
      10.540000       0.542378       1.447632       2.197002
      10.550000       0.541318       1.490611       2.204689
      10.560000       0.540048       1.536253       2.213529
      10.570000       0.538550       1.583271       2.223899
      10.580000       0.536892       1.630599       2.235765
      10.590000       0.535215       1.677498       2.248655
      10.600000       0.533712       1.723571       2.261755
      10.610000       0.532607       1.768726       2.274074
      10.620000       0.532121       1.813108       2.284623
      10.630000       0.532439       1.857017       2.292573
      10.640000       0.533673       1.900827       2.297329
      10.650000       0.535853       1.944860       2.298538
      10.660000       0.538918       1.989244       2.296063
      10.670000       0.542745       2.033772       2.289970
      10.680000       0.547158       2.077806       2.280551
      10.690000       0.551948       2.120232       2.268382
      10.700000       0.556889       2.159515       2.254366
      10.710000       0.561780       2.193898       2.239700
      10.720000       0.566495       2.221740       2.225760
      10.730000       0.571035       2.241960       2.213896
      10.740000       0.575544       2.254420       2.205194
      10.750000       0.580280       2.260070       2.200258
      10.760000       0.585536       2.260778       2.199073
      10.770000       0.591544       2.258861       2.200980
      10.780000       0.598390       2.256507       2.204789
      10.790000       0.605965       2.255252       2.209009
      10.800000       0.613973       2.255657       2.212136
      10.810000       0.621973       2.257221       2.212934
      10.820000       0.629449       2.258520       2.210623
      10.830000       0.635867       2.257504       2.204941
      10.840000       0.640714       2.251896       2.196076
      10.850000       0.643516       2.239606       2.184530
      10.860000       0.643868       2.219102       2.170984
      10.870000       0.641474       2.189678       2.156194
      10.880000       0.636204       2.151579       2.140931
      10.890000       0.628138       2.105951       2.125917
      10.900000       0.617584       2.054651       2.111740
      10.910000       0.605046       1.999965       2.098775
      10.920000       0.591166       1.944295       2.087118
      10.930000       0.576636       1.889895       2.076600
      10.940000       0.562109       1.838660       2.066852
      10.950000       0.548132       1.791987       2.057403
      10.960000       0.535104       1.750708       2.047780
      10.970000       0.523283       1.715086       2.037564
      10.980000       0.512832       1.684874       2.026420
      10.990000       0.503862       1.659424       2.014100
      11.000000       0.496475       1.637815       2.000463
      11.010000       0.490780       1.619006       1.985504
      11.020000       0.486872       1.601992       1.969397
      11.030000       0.484813       1.585935       1.952514
      11.040000       0.484606       1.570242       1.935397
      11.050000       0.486180       1.554550       1.918699
      11.060000       0.489386       1.538619       1.903088
      11.070000       0.494012       1.522192       1.889164
      11.080000       0.499818       1.504895       1.877392
      11.090000       0.506585       1.486241       1.868082
      11.100000       0.514146       1.465757       1.861391
      11.110000       0.522413       1.443168       1.857341
      11.120000       0.531358       1.418575       1.855855
      11.130000       0.540971       1.392537       1.856791
      11.140000       0.551212       1.366028       1.860000
      11.150000       0.561990       1.340288       1.865385
      11.160000       0.573155       1.316612       1.872927
      11.170000       0.584521       1.296161       1.882669
      11.180000       0.595899       1.279812       1.894640
      11.190000       0.607124       1.268071       1.908739
      11.200000       0.618071       1.261029       1.924641
      11.210000       0.628655       1.258357       1.941756
      11.220000       0.638804       1.259335       1.959282
      11.230000       0.648424       1.262933       1.976339
      11.240000       0.657354       1.267933       1.992161
      11.250000       0.665334       1.273081       2.006277
      11.260000       0.672001       1.277230       2.018611
      11.270000       0.676917       1.279455       2.029478
      11.280000       0.679632       1.279104       2.039497
      11.290000       0.679784       1.275818       2.049452
      11.300000       0.677184       1.269515       2.060151
      11.310000       0.671893       1.260382       2.072307
      11.320000       0.664226       1.248867       2.086461
      11.330000       0.654696       1.235674       2.102942
      11.340000       0.643907       1.221710       2.121891
      11.350000       0.632436       1.207952       2.143315
      11.360000       0.620745       1.195273       2.167182
      11.370000       0.609145       1.184263       2.193504
      11.380000       0.597804       1.175125       2.222394
      11.390000       0.586794       1.167689       2.254068
      11.400000       0.576151       1.161520       2.288792
      11.410000       0.565916       1.156069       2.326809
      11.420000       0.556174       1.150817       2.368272
      11.430000       0.547048       1.145355       2.413215
      11.440000       0.538679       1.139430       2.461571
      11.450000       0.531200       1.132954       2.513186
      11.460000       0.524711       1.125992       2.567804
      11.470000       0.519277       1.118721       2.624987
      11.480000       0.514936       1.111371       2.683995
      11.490000       0.511712       1.104137       2.743670
      11.500000       0.509618       1.097111       2.802407
      11.510000       0.508644       1.090244       2.858252
      11.520000       0.508747       1.083360       2.909141
      11.530000       0.509844       1.076227       2.953173
      11.540000       0.511794       1.068653       2.988848
      11.550000       0.514398       1.060569       3.015138
      11.560000       0.517391       1.052059       3.031427
      11.570000       0.520444       1.043316       3.037366
      11.580000       0.523200       1.034565       3.032755
      11.590000       0.525325       1.025968       3.017503
      11.600000       0.526579       1.017559       2.991655
      11.610000       0.526875       1.009225       2.955449
      11.620000       0.526290       1.000732       2.909355
      11.630000       0.525039       0.991792       2.854076
      11.640000       0.523414       0.982156       2.790532
      11.650000       0.521712       0.971727       2.719857
      11.660000       0.520181       0.960646       2.643408
      11.670000       0.519000       0.949307       2.562754
      11.680000       0.518279       0.938314       2.479617
      11.690000       0.518082       0.928371       2.395742
      11.700000       0.518450       0.920165       2.312741
      11.710000       0.519416       0.914265       2.231961
      11.720000       0.521015       0.911051       2.154425
      11.730000       0.523278       0.910667       2.080858
      11.740000       0.526231       0.912991       2.011761
      11.750000       0.529903       0.917619       1.947497
      11.760000       0.534343       0.923865       1.888349
      11.770000       0.539640       0.930781       1.834540
      11.780000       0.545932       0.937212       1.786218
      11.790000       0.553395       0.941890       1.743440
      11.800000       0.562217       0.943582       1.706144
      11.810000       0.572564       0.941289       1.674148
      11.820000       0.584547       0.934446       1.647157
      11.830000       0.598211       0.923060       1.624775
      11.840000       0.613527       0.907724       1.606534
      11.850000       0.630390       0.889482       1.591934
      11.860000       0.648625       0.869604       1.580489
      11.870000       0.667978       0.849350       1.571791
      11.880000       0.688126       0.829776       1.565541
      11.890000       0.708692       0.811637       1.561538
      11.900000       0.729277       0.795374       1.559606
      11.910000       0.749497       0.781162       1.559488
      11.920000       0.769022       0.768985       1.560753
      11.930000       0.787591       0.758700       1.562755
      11.940000       0.805012       0.750067       1.564685
      11.950000       0.821141       0.742755       1.565687
      11.960000       0.835863       0.736351       1.565018
      11.970000       0.849064       0.730387       1.562185
      11.980000       0.860627       0.724382       1.557037
      11.990000       0.870462       0.717886       1.549798
      12.000000       0.878557       0.710511       1.541032
      12.010000       0.885040       0.701947       1.531553
      12.020000       0.890200       0.691977       1.522286
      12.030000       0.894437       0.680510       1.514113
      12.040000       0.898132       0.667598       1.507734
      12.050000       0.901515       0.653449       1.503581
      12.060000       0.904560       0.638395       1.501795
      12.070000       0.906987       0.622838       1.502242
      12.080000       0.908361       0.607210       1.504568
      12.090000       0.908244       0.591933       1.508260
      12.100000       0.906342       0.577420       1.512704
      12.110000       0.902569       0.564058       1.517243
      12.120000       0.897037       0.552192       1.521239
      12.130000       0.889990       0.542096       1.524122
      12.140000       0.881739       0.533948       1.525447
      12.150000       0.872615       0.527829       1.524939
      12.160000       0.862968       0.523725       1.522506
      12.170000       0.853166       0.521551       1.518217
      12.180000       0.843587       0.521172       1.512241
      12.190000       0.834598       0.522409       1.504762
      12.200000       0.826514       0.525040       1.495921
      12.210000       0.819586       0.528787       1.485787
      12.220000       0.814010       0.533315       1.474402
      12.230000       0.809958       0.538238       1.461859
      12.240000       0.807607       0.543140       1.448369
      12.250000       0.807137       0.547610       1.434287
      12.260000       0.808692       0.551267       1.420074
      12.270000       0.812335       0.553793       1.406223
      12.280000       0.818009       0.554953       1.393156
      12.290000       0.825518       0.554625       1.381137
      12.300000       0.834525       0.552814       1.370208
      12.310000       0.844559       0.549673       1.360154
      12.320000       0.855022       0.545491       1.350541
      12.330000       0.865192       0.540671       1.340787
      12.340000       0.874255       0.535680       1.330292
      12.350000       0.881338       0.530995       1.318553
      12.360000       0.885578       0.527047       1.305258
      12.370000       0.886214       0.524193       1.290324
      12.380000       0.882714       0.522686       1.273872
      12.390000       0.874898       0.522673       1.256193
      12.400000       0.863019       0.524198       1.237681
      12.410000       0.847759       0.527217       1.218777
      12.420000       0.830127       0.531613       1.199909
      12.430000       0.811285       0.537225       1.181426
      12.440000       0.792361       0.543859       1.163542
      12.450000       0.774294       0.551311       1.146301
      12.460000       0.757759       0.559370       1.129597
      12.470000       0.743169       0.567836       1.113227
      12.480000       0.730734       0.576532       1.096979
      12.490000       0.720552       0.585314       1.080703
      12.500000       0.712682       0.594087       1.064350
      12.510000       0.707184       0.602790       1.047964
      12.520000       0.704111       0.611371       1.031657
      12.530000       0.703483       0.619740       1.015581
      12.540000       0.705250       0.627726       0.999900
      12.550000       0.709264       0.635062       0.984772
      12.560000       0.715281       0.641400       0.970337
      12.570000       0.722973       0.646379       0.956709
      12.580000       0.731958       0.649714       0.943981
      12.590000       0.741828       0.651280       0.932224
      12.600000       0.752187       0.651142       0.921500
      12.610000       0.762672       0.649531       0.911858
      12.620000       0.772958       0.646779       0.903327
      12.630000       0.782756       0.643257       0.895901
      12.640000       0.791807       0.639341       0.889520
      12.650000       0.799894       0.635400       0.884048
      12.660000       0.806874       0.631810       0.879262
      12.670000       0.812713       0.628952       0.874863
      12.680000       0.817502       0.627206       0.870519
      12.690000       0.821443       0.626928       0.865926
      12.700000       0.824827       0.628422       0.860871
      12.710000       0.827999       0.631920       0.855282
      12.720000       0.831341       0.637563       0.849228
      12.730000       0.835264       0.645396       0.842882
      12.740000       0.840187       0.655373       0.836456
      12.750000       0.846511       0.667356       0.830148
      12.760000       0.854555       0.681129       0.824120
      12.770000       0.864475       0.696404       0.818494
      12.780000       0.876177       0.712830       0.813363
      12.790000       0.889266       0.730004       0.808786
      12.800000       0.903065       0.747483       0.804781
      12.810000       0.916703       0.764808       0.801302
      12.820000       0.929282       0.781527       0.798230
      12.830000       0.940060       0.797227       0.795381
      12.840000       0.948585       0.811566       0.792531
      12.850000       0.954764       0.824312       0.789448
      12.860000       0.958830       0.835386       0.785917
      12.870000       0.961249       0.844880       0.781746
      12.880000       0.962613       0.853066       0.776755
      12.890000       0.963529       0.860353       0.770772
      12.900000       0.964547       0.867223       0.763642
      12.910000       0.966108       0.874156       0.755250
      12.920000       0.968539       0.881551       0.745574
      12.930000       0.972064       0.889671       0.734728
      12.940000       0.976834       0.898608       0.722995
      12.950000       0.982946       0.908271       0.710805
      12.960000       0.990437       0.918407       0.698668
      12.970000       0.999269       0.928655       0.687072
      12.980000       1.009323       0.938626       0.676393
      12.990000       1.020408       0.947993       0.666836
      13.000000       1.032314       0.956556       0.658433
      13.010000       1.044869       0.964269       0.651087
      13.020000       1.057989       0.971197       0.644637
      13.030000       1.071675       0.977421       0.638920
      13.040000       1.085950       0.982929       0.633810
      13.050000       1.100768       0.987546       0.629221
      13.060000       1.115925       0.990933       0.625089
      13.070000       1.131040       0.992664       0.621348
      13.080000       1.145621       0.992341       0.617913
      13.090000       1.159222       0.989678       0.614694
      13.100000       1.171599       0.984523       0.611626
      13.110000       1.182800       0.976832       0.608685
      13.120000       1.193130       0.966622       0.605883
      13.130000       1.203011       0.953969       0.603246
      13.140000       1.212811       0.939055       0.600773
      13.150000       1.222736       0.922230       0.598413
      13.160000       1.232802       0.904055       0.596066
      13.170000       1.242863       0.885276       0.593596
      13.180000       1.252655       0.866732       0.590863
      13.190000       1.261822       0.849241       0.587761
      13.200000       1.269965       0.833485       0.584244
      13.210000       1.276728       0.819935       0.580341
      13.220000       1.281909       0.808809       0.576142
      13.230000       1.285535       0.800081       0.571768
      13.240000       1.287835       0.793523       0.567334
      13.250000       1.289130       0.788762       0.562923
      13.260000       1.289653       0.785351       0.558577
      13.270000       1.289417       0.782826       0.554320
      13.280000       1.288159       0.780754       0.550198
      13.290000       1.285372       0.778767       0.546303
      13.300000       1.280398       0.776588       0.542781
      13.310000       1.272547       0.774031       0.539803
      13.320000       1.261230       0.770993       0.537515
      13.330000       1.246099       0.767422       0.535995
      13.340000       1.227152       0.763270       0.535225
      13.350000       1.204796       0.758446       0.535096
      13.360000       1.179826       0.752781       0.535445
      13.370000       1.153316       0.746027       0.536087
      13.380000       1.126458       0.737906       0.536846
      13.390000       1.100384       0.728183       0.537562
      13.400000       1.076046       0.716745       0.538084
      13.410000       1.054153       0.703656       0.538252
      13.420000       1.035182       0.689157       0.537907
      13.430000       1.019423       0.673638       0.536902
      13.440000       1.007018       0.657582       0.535130
      13.450000       0.997986       0.641510       0.532543
      13.460000       0.992216       0.625928       0.529149
      13.470000       0.989438       0.611289       0.525004
      13.480000       0.989212       0.597957       0.520198
      13.490000       0.990934       0.586180       0.514847
      13.500000       0.993891       0.576073       0.509085
      13.510000       0.997354       0.567619       0.503061
      13.520000       1.000708       0.560673       0.496939
      13.530000       1.003567       0.554995       0.490907
      13.540000       1.005861       0.550279       0.485176
      13.550000       1.007823       0.546188       0.479976
      13.560000       1.009875       0.542400       0.475543
      13.570000       1.012457       0.538633       0.472083
      13.580000       1.015844       0.534672       0.469730
      13.590000       1.020019       0.530375       0.468511
      13.600000       1.024636       0.525662       0.468325
      13.610000       1.029066       0.520493       0.468949
      13.620000       1.032489       0.514850       0.470076
      13.630000       1.034009       0.508729       0.471366
      13.640000       1.032744       0.502129       0.472514
      13.650000       1.027891       0.495068       0.473293
      13.660000       1.018800       0.487576       0.473581
      13.670000       1.005059       0.479706       0.473353
      13.680000       0.986593       0.471534       0.472645
      13.690000       0.963740       0.463163       0.471507
      13.700000       0.937265       0.454722       0.469954
      13.710000       0.908278       0.446373       0.467935
      13.720000       0.878083       0.438295       0.465337
      13.730000       0.847975       0.430672       0.462019
      13.740000       0.819066       0.423668       0.457867
      13.750000       0.792175       0.417403       0.452837
      13.760000       0.767797       0.411937       0.446991
      13.770000       0.746145       0.407265       0.440491
      13.780000       0.727235       0.403320       0.433576
      13.790000       0.710974       0.399987       0.426511
      13.800000       0.697226       0.397118       0.419542
      13.810000       0.685840       0.394566       0.412862
      13.820000       0.676644       0.392202       0.406598
      13.830000       0.669420       0.389941       0.400812
      13.840000       0.663879       0.387746       0.395513
      13.850000       0.659654       0.385625       0.390669
      13.860000       0.656319       0.383612       0.386233
      13.870000       0.653445       0.381745       0.382158
      13.880000       0.650664       0.380056       0.378421
      13.890000       0.647738       0.378557       0.375038
      13.900000       0.644592       0.377251       0.372072
      13.910000       0.641320       0.376146       0.369622
      13.920000       0.638151       0.375268       0.367809
      13.930000       0.635402       0.374668       0.366744
      13.940000       0.633417       0.374417       0.366501
      13.950000       0.632517       0.374585       0.367093
      13.960000       0.632952       0.375233       0.368453
      13.970000       0.634867       0.376399       0.370429
      13.980000       0.638297       0.378099       0.372796
      13.990000       0.643186       0.380322       0.375280
      14.000000       0.649427       0.383043       0.377595
      14.010000       0.656903       0.386221       0.379495
      14.020000       0.665515       0.389808       0.380804
      14.030000       0.675183       0.393760       0.381446
      14.040000       0.685834       0.398048       0.381432
      14.050000       0.697386       0.402668       0.380829
      14.060000       0.709738       0.407629       0.379731
      14.070000       0.722740       0.412947       0.378220
      14.080000       0.736157       0.418622       0.376360
      14.090000       0.749608       0.424614       0.374199
      14.100000       0.762539       0.430834       0.371781
      14.110000       0.774239       0.437145       0.369168
      14.120000       0.783926       0.443384       0.366448
      14.130000       0.790846       0.449390       0.363747
      14.140000       0.794362       0.455049       0.361230
      14.150000       0.793982       0.460311       0.359085
      14.160000       0.789362       0.465198       0.357507
      14.170000       0.780321       0.469779       0.356671
      14.180000       0.766887       0.474129       0.356713
      14.190000       0.749370       0.478287       0.357720
      14.200000       0.728385       0.482219       0.359725
      14.210000       0.704826       0.485804       0.362709
      14.220000       0.679752       0.488852       0.366607
      14.230000       0.654248       0.491134       0.371313
      14.240000       0.629290       0.492427       0.376685
      14.250000       0.605669       0.492553       0.382558
      14.260000       0.583963       0.491402       0.388756
      14.270000       0.564557       0.488920       0.395092
      14.280000       0.547681       0.485102       0.401376
      14.290000       0.533450       0.479985       0.407399
      14.300000       0.521889       0.473663       0.412934
      14.310000       0.512961       0.466314       0.417749
      14.320000       0.506570       0.458214       0.421627
      14.330000       0.502570       0.449723       0.424407
      14.340000       0.500773       0.441242       0.426020
      14.350000       0.500944       0.433147       0.426507
      14.360000       0.502800       0.425731       0.426021
      14.370000       0.505999       0.419157       0.424803
      14.380000       0.510133       0.413448       0.423146
      14.390000       0.514740       0.408500       0.421352
      14.400000       0.519332       0.404116       0.419693
      14.410000       0.523447       0.400048       0.418397
      14.420000       0.526706       0.396047       0.417640
      14.430000       0.528862       0.391910       0.417542
      14.440000       0.529831       0.387510       0.418173
      14.450000       0.529708       0.382819       0.419549
      14.460000       0.528745       0.377902       0.421628
      14.470000       0.527318       0.372892       0.424317
      14.480000       0.525881       0.367955       0.427482
      14.490000       0.524912       0.363249       0.430967
      14.500000       0.524869       0.358901       0.434621
      14.510000       0.526142       0.354993       0.438325
      14.520000       0.529031       0.351567       0.442015
      14.530000       0.533716       0.348647       0.445691
      14.540000       0.540263       0.346248       0.449402
      14.550000       0.548630       0.344389       0.453221
      14.560000       0.558703       0.343084       0.457208
      14.570000       0.570334       0.342332       0.461368
      14.580000       0.583379       0.342105       0.465632
      14.590000       0.597712       0.342339       0.469851
      14.600000       0.613216       0.342949       0.473803
      14.610000       0.629743       0.343839       0.477222
      14.620000       0.647086       0.344920       0.479830
      14.630000       0.664961       0.346118       0.481371
      14.640000       0.683026       0.347375       0.481649
      14.650000       0.700922       0.348646       0.480554
      14.660000       0.718322       0.349889       0.478089
      14.670000       0.734966       0.351061       0.474376
      14.680000       0.750680       0.352126       0.469649
      14.690000       0.765371       0.353071       0.464224
      14.700000       0.779011       0.353917       0.458460
      14.710000       0.791597       0.354718       0.452707
      14.720000       0.803100       0.355543       0.447278
      14.730000       0.813412       0.356462       0.442429
      14.740000       0.822320       0.357523       0.438356
      14.750000       0.829505       0.358756       0.435196
      14.760000       0.834568       0.360179       0.433031
      14.770000       0.837067       0.361801       0.431895
      14.780000       0.836555       0.363630       0.431785
      14.790000       0.832638       0.365647       0.432684
      14.800000       0.825053       0.367798       0.434588
      14.810000       0.813750       0.369975       0.437526
      14.820000       0.798948       0.372028       0.441559
      14.830000       0.781142       0.373795       0.446757
      14.840000       0.761034       0.375140       0.453163
      14.850000       0.739420       0.375982       0.460746
      14.860000       0.717067       0.376309       0.469374
      14.870000       0.694614       0.376169       0.478806
      14.880000       0.672548       0.375658       0.488704
      14.890000       0.651219       0.374897       0.498673
      14.900000       0.630903       0.374025       0.508314
      14.910000       0.611841       0.373177       0.517289
      14.920000       0.594255       0.372463       0.525369
      14.930000       0.578335       0.371948       0.532480
      14.940000       0.564208       0.371642       0.538698
      14.950000       0.551924       0.371492       0.544227
      14.960000       0.541453       0.371407       0.549340
      14.970000       0.532702       0.371278       0.554314
      14.980000       0.525551       0.371013       0.559374
      14.990000       0.519886       0.370560       0.564662
      15.000000       0.515633       0.369921       0.570238
      15.010000       0.512778       0.369152       0.576091
      15.020000       0.511371       0.368355       0.582169
      15.030000       0.511501       0.367675       0.588384
      15.040000       0.513257       0.367282       0.594615
      15.050000       0.516688       0.367351       0.600690
      15.060000       0.521760       0.368043       0.606369
      15.070000       0.528339       0.369477       0.611339
      15.080000       0.536190       0.371718       0.615232
      15.090000       0.544993       0.374775       0.617669
      15.100000       0.554378       0.378613       0.618308
      15.110000       0.563953       0.383148       0.616894
      15.120000       0.573327       0.388259       0.613291
      15.130000       0.582131       0.393774       0.607490
      15.140000       0.590028       0.399472       0.599608
      15.150000       0.596752       0.405085       0.589867
      15.160000       0.602146       0.410326       0.578574
      15.170000       0.606197       0.414919       0.566096
      15.180000       0.609030       0.418637       0.552818
      15.190000       0.610866       0.421326       0.539118
      15.200000       0.611932       0.422919       0.525327
      15.210000       0.612381       0.423426       0.511708
      15.220000       0.612230       0.422920       0.498457
      15.230000       0.611368       0.421521       0.485709
      15.240000       0.609606       0.419379       0.473567
      15.250000       0.606769       0.416671       0.462127
      15.260000       0.602781       0.413594       0.451485
      15.270000       0.597725       0.410360       0.441732
      15.280000       0.591853       0.407185       0.432934
      15.290000       0.585550       0.404266       0.425118
      15.300000       0.579268       0.401759       0.418268
      15.310000       0.573456       0.399749       0.412343
      15.320000       0.568512       0.398255       0.407297
      15.330000       0.564763       0.397242       0.403103
      15.340000       0.562469       0.396649       0.399750
      15.350000       0.561843       0.396426       0.397239
      15.360000       0.563056       0.396546       0.395561
      15.370000       0.566240       0.397001       0.394684
      15.380000       0.571486       0.397791       0.394537
      15.390000       0.578846       0.398891       0.395009
      15.400000       0.588327       0.400242       0.395944
      15.410000       0.599894       0.401745       0.397141
      15.420000       0.613454       0.403275       0.398374
      15.430000       0.628847       0.404696       0.399402
      15.440000       0.645828       0.405875       0.400014
      15.450000       0.664056       0.406690       0.400057
      15.460000       0.683076       0.407039       0.399467
      15.470000       0.702317       0.406829       0.398290
      15.480000       0.721088       0.405975       0.396663
      15.490000       0.738594       0.404398       0.394792
      15.500000       0.753965       0.402032       0.392896
      15.510000       0.766310       0.398850       0.391168
      15.520000       0.774791       0.394884       0.389735
      15.530000       0.778732       0.390248       0.388645
      15.540000       0.777750       0.385144       0.387876
      15.550000       0.771872       0.379839       0.387362
      15.560000       0.761570       0.374639       0.387035
      15.570000       0.747685       0.369843       0.386863
      15.580000       0.731263       0.365708       0.386871
      15.590000       0.713373       0.362419       0.387146
      15.600000       0.694956       0.360070       0.387812
      15.610000       0.676728       0.358674       0.389009
      15.620000       0.659138       0.358172       0.390861
      15.630000       0.642355       0.358461       0.393467
      15.640000       0.626301       0.359416       0.396897
      15.650000       0.610729       0.360907       0.401198
      15.660000       0.595335       0.362815       0.406409
      15.670000       0.579885       0.365045       0.412565
      15.680000       0.564320       0.367534       0.419699
      15.690000       0.548791       0.370259       0.427832
      15.700000       0.533634       0.373223       0.436966
      15.710000       0.519288       0.376440       0.447079
      15.720000       0.506191       0.379901       0.458127
      15.730000       0.494702       0.383552       0.470063
      15.740000       0.485044       0.387285       0.482855
      15.750000       0.477291       0.390960       0.496495
      15.760000       0.471379       0.394429       0.510992
      15.770000       0.467128       0.397581       0.526339
      15.780000       0.464281       0.400365       0.542463
      15.790000       0.462531       0.402793       0.559185
      15.800000       0.461542       0.404924       0.576190
      15.810000       0.460979       0.406834       0.593040
      15.820000       0.460527       0.408584       0.609219
      15.830000       0.459932       0.410200       0.624200
      15.840000       0.459027       0.411672       0.637532
      15.850000       0.457759       0.412967       0.648904
      15.860000       0.456179       0.414041       0.658178
      15.870000       0.454424       0.414855       0.665376
      15.880000       0.452680       0.415386       0.670635
      15.890000       0.451143       0.415631       0.674140
      15.900000       0.449993       0.415615       0.676081
      15.910000       0.449388       0.415397       0.676643
      15.920000       0.449457       0.415068       0.676024
      15.930000       0.450306       0.414756       0.674465
      15.940000       0.452020       0.414613       0.672278
      15.950000       0.454650       0.414802       0.669829
      15.960000       0.458197       0.415464       0.667505
      15.970000       0.462599       0.416679       0.665659
      15.980000       0.467721       0.418431       0.664566
      15.990000       0.473369       0.420591       0.664388
      16.000000       0.479313       0.422926       0.665162
      16.010000       0.485318       0.425140       0.666803
      16.020000       0.491171       0.426935       0.669118
      16.030000       0.496709       0.428070       0.671825
      16.040000       0.501826       0.428395       0.674585
      16.050000       0.506470       0.427850       0.677036
      16.060000       0.510625       0.426426       0.678845
      16.070000       0.514287       0.424133       0.679746
      16.080000       0.517449       0.420971       0.679572
      16.090000       0.520105       0.416947       0.678260
      16.100000       0.522254       0.412107       0.675834
      16.110000       0.523908       0.406565       0.672371
      16.120000       0.525086       0.400519       0.667965
      16.130000       0.525817       0.394228       0.662713
      16.140000       0.526136       0.387974       0.656706
      16.150000       0.526099       0.382013       0.650038
      16.160000       0.525801       0.376543       0.642807
      16.170000       0.525395       0.371693       0.635107
      16.180000       0.525094       0.367528       0.627004
      16.190000       0.525128       0.364073       0.618527
      16.200000       0.525686       0.361335       0.609661
      16.210000       0.526844       0.359311       0.600369
      16.220000       0.528515       0.358004       0.590615
      16.230000       0.530436       0.357414       0.580393
      16.240000       0.532199       0.357533       0.569737
      16.250000       0.533324       0.358336       0.558720
      16.260000       0.533354       0.359778       0.547438
      16.270000       0.531945       0.361786       0.535994
      16.280000       0.528931       0.364279       0.524486
      16.290000       0.524345       0.367177       0.512998
      16.300000       0.518392       0.370424       0.501598
      16.310000       0.511394       0.374012       0.490323
      16.320000       0.503724       0.377981       0.479181
      16.330000       0.495741       0.382411       0.468148
      16.340000       0.487760       0.387388       0.457174
      16.350000       0.480040       0.392972       0.446212
      16.360000       0.472793       0.399172       0.435237
      16.370000       0.466197       0.405930       0.424278
      16.380000       0.460407       0.413134       0.413422
      16.390000       0.455548       0.420630       0.402805
      16.400000       0.451712       0.428253       0.392596
      16.410000       0.448945       0.435841       0.382970
      16.420000       0.447255       0.443262       0.374086
      16.430000       0.446617       0.450423       0.366070
      16.440000       0.446987       0.457285       0.358998
      16.450000       0.448307       0.463852       0.352892
      16.460000       0.450500       0.470155       0.347715
      16.470000       0.453461       0.476218       0.343382
      16.480000       0.457031       0.482034       0.339767
      16.490000       0.460996       0.487552       0.336717
      16.500000       0.465080       0.492682       0.334078
      16.510000       0.468952       0.497316       0.331710
      16.520000       0.472256       0.501365       0.329519
      16.530000       0.474650       0.504780       0.327463
      16.540000       0.475861       0.507572       0.325557
      16.550000       0.475740       0.509809       0.323850
      16.560000       0.474302       0.511603       0.322398
      16.570000       0.471726       0.513084       0.321226
      16.580000       0.468327       0.514377       0.320301
      16.590000       0.464497       0.515594       0.319512
      16.600000       0.460650       0.516837       0.318679
      16.610000       0.457160       0.518214       0.317574
      16.620000       0.454307       0.519850       0.315958
      16.630000       0.452241       0.521890       0.313631
      16.640000       0.450962       0.524482       0.310471
      16.650000       0.450325       0.527764       0.306456
      16.660000       0.450074       0.531834       0.301664
      16.670000       0.449892       0.536738       0.296243
      16.680000       0.449462       0.542465       0.290368
      16.690000       0.448523       0.548962       0.284206
      16.700000       0.446907       0.556148       0.277882
      16.710000       0.444547       0.563927       0.271484
      16.720000       0.441461       0.572203       0.265062
      16.730000       0.437730       0.580863       0.258652
      16.740000       0.433465       0.589766       0.252286
      16.750000       0.428789       0.598722       0.246005
      16.760000       0.423827       0.607492       0.239860
      16.770000       0.418702       0.615806       0.233910
      16.780000       0.413532       0.623401       0.228213
      16.790000       0.408434       0.630066       0.222820
      16.800000       0.403522       0.635679       0.217762
      16.810000       0.398898       0.640218       0.213043
      16.820000       0.394658       0.643747       0.208641
      16.830000       0.390884       0.646378       0.204509
      16.840000       0.387651       0.648242       0.200592
      16.850000       0.385029       0.649465       0.196840
      16.860000       0.383095       0.650178       0.193221
      16.870000       0.381950       0.650537       0.189723
      16.880000       0.381724       0.650738       0.186352
      16.890000       0.382564       0.651017       0.183121
      16.900000       0.384608       0.651622       0.180045
      16.910000       0.387945       0.652770       0.177134
      16.920000       0.392578       0.654604       0.174395
      16.930000       0.398404       0.657155       0.171832
      16.940000       0.405209       0.660323       0.169458
      16.950000       0.412682       0.663887       0.167292
      16.960000       0.420447       0.667522       0.165362
      16.970000       0.428099       0.670847       0.163704
      16.980000       0.435237       0.673478       0.162352
      16.990000       0.441496       0.675080       0.161334
      17.000000       0.446572       0.675407       0.160668
      17.010000       0.450236       0.674333       0.160358
      17.020000       0.452348       0.671855       0.160390
      17.030000       0.452874       0.668098       0.160738
      17.040000       0.451880       0.663296       0.161359
      17.050000       0.449528       0.657774       0.162198
      17.060000       0.446048       0.651908       0.163185
      17.070000       0.441717       0.646083       0.164244
      17.080000       0.436832       0.640631       0.165302
      17.090000       0.431685       0.635777       0.166301
      17.100000       0.426546       0.631594       0.167218
      17.110000       0.421643       0.627990       0.168065
      17.120000       0.417154       0.624730       0.168891
      17.130000       0.413199       0.621496       0.169765
      17.140000       0.409851       0.617968       0.170755
      17.150000       0.407138       0.613897       0.171910
      17.160000       0.405048       0.609166       0.173248
      17.170000       0.403527       0.603793       0.174748
      17.180000       0.402474       0.597908       0.176354
      17.190000       0.401726       0.591695       0.177985
      17.200000       0.401072       0.585329       0.179546
      17.210000       0.400273       0.578934       0.180937
      17.220000       0.399099       0.572573       0.182068
      17.230000       0.397375       0.566266       0.182866
      17.240000       0.395017       0.560027       0.183283
      17.250000       0.392048       0.553883       0.183297
      17.260000       0.388601       0.547881       0.182915
      17.270000       0.384890       0.542072       0.182174
      17.280000       0.381185       0.536496       0.181128
      17.290000       0.377778       0.531157       0.179850
      17.300000       0.374939       0.526016       0.178419
      17.310000       0.372891       0.520993       0.176911
      17.320000       0.371781       0.515981       0.175390
      17.330000       0.371665       0.510875       0.173896
      17.340000       0.372509       0.505591       0.172441
      17.350000       0.374199       0.500097       0.171009
      17.360000       0.376567       0.494423       0.169562
      17.370000       0.379421       0.488667       0.168050
      17.380000       0.382563       0.482988       0.166424
      17.390000       0.385811       0.477581       0.164655
      17.400000       0.389019       0.472645       0.162739
      17.410000       0.392087       0.468345       0.160705
      17.420000       0.394983       0.464775       0.158611
      17.430000       0.397739       0.461940       0.156538
      17.440000       0.400439       0.459755       0.154575
      17.450000       0.403198       0.458066       0.152802
      17.460000       0.406130       0.456685       0.151284
      17.470000       0.409327       0.455434       0.150059
      17.480000       0.412847       0.454186       0.149145
      17.490000       0.416694       0.452885       0.148537
      17.500000       0.420804       0.451539       0.148218
      17.510000       0.425015       0.450198       0.148164
      17.520000       0.429054       0.448916       0.148351
      17.530000       0.432538       0.447733       0.148756
      17.540000       0.435020       0.446671       0.149351
      17.550000       0.436070       0.445751       0.150101
      17.560000       0.435378       0.445002       0.150959
      17.570000       0.432841       0.444473       0.151866
      17.580000       0.428596       0.444218       0.152754
      17.590000       0.422988       0.444279       0.153559
      17.600000       0.416495       0.444671       0.154223
      17.610000       0.409631       0.445367       0.154702
      17.620000       0.402875       0.446300       0.154965
      17.630000       0.396625       0.447366       0.154996
      17.640000       0.391180       0.448438       0.154791
      17.650000       0.386737       0.449383       0.154355
      17.660000       0.383394       0.450086       0.153695
      17.670000       0.381162       0.450458       0.152811
      17.680000       0.379969       0.450444       0.151701
      17.690000       0.379682       0.450016       0.150355
      17.700000       0.380121       0.449166       0.148774
      17.710000       0.381071       0.447902       0.146975
      17.720000       0.382300       0.446244       0.145001
      17.730000       0.383572       0.444230       0.142916
      17.740000       0.384664       0.441917       0.140795
      17.750000       0.385394       0.439392       0.138713
      17.760000       0.385639       0.436761       0.136733
      17.770000       0.385342       0.434142       0.134905
      17.780000       0.384512       0.431632       0.133258
      17.790000       0.383223       0.429287       0.131810
      17.800000       0.381603       0.427097       0.130564
      17.810000       0.379821       0.424983       0.129509
      17.820000       0.378072       0.422812       0.128619
      17.830000       0.376548       0.420422       0.127854
      17.840000       0.375420       0.417655       0.127165
      17.850000       0.374820       0.414383       0.126507
      17.860000       0.374826       0.410535       0.125840
      17.870000       0.375456       0.406106       0.125141
      17.880000       0.376670       0.401163       0.124401
      17.890000       0.378364       0.395837       0.123625
      17.900000       0.380378       0.390298       0.122824
      17.910000       0.382503       0.384732       0.122017
      17.920000       0.384507       0.379322       0.121223
      17.930000       0.386170       0.374227       0.120464
      17.940000       0.387325       0.369571       0.119762
      17.950000       0.387886       0.365437       0.119136
      17.960000       0.387867       0.361856       0.118605
      17.970000       0.387358       0.358807       0.118183
      17.980000       0.386493       0.356229       0.117882
      17.990000       0.385409       0.354033       0.117704
      18.000000       0.384217       0.352114       0.117651
      18.010000       0.382981       0.350359       0.117712
      18.020000       0.381727       0.348647       0.117874
      18.030000       0.380459       0.346841       0.118112
      18.040000       0.379176       0.344799       0.118394
      18.050000       0.377891       0.342382       0.118682
      18.060000       0.376629       0.339479       0.118929
      18.070000       0.375416       0.336032       0.119091
      18.080000       0.374259       0.332050       0.119125
      18.090000       0.373131       0.327599       0.118998
      18.100000       0.371978       0.322771       0.118689
      18.110000       0.370735       0.317652       0.118193
      18.120000       0.369357       0.312299       0.117521
      18.130000       0.367845       0.306741       0.116700
      18.140000       0.366254       0.300998       0.115768
      18.150000       0.364687       0.295102       0.114763
      18.160000       0.363280       0.289119       0.113719
      18.170000       0.362189       0.283157       0.112661
      18.180000       0.361577       0.277351       0.111602
      18.190000       0.361598       0.271852       0.110548
      18.200000       0.362376       0.266797       0.109499
      18.210000       0.363965       0.262289       0.108453
      18.220000       0.366331       0.258388       0.107409
      18.230000       0.369340       0.255103       0.106367
      18.240000       0.372769       0.252402       0.105335
      18.250000       0.376347       0.250227       0.104325
      18.260000       0.379795       0.248506       0.103350
      18.270000       0.382870       0.247166       0.102424
      18.280000       0.385385       0.246137       0.101558
      18.290000       0.387203       0.245344       0.100753
      18.300000       0.388229       0.244703       0.100010
      18.310000       0.388392       0.244122       0.099321
      18.320000       0.387657       0.243501       0.098681
      18.330000       0.386032       0.242742       0.098084
      18.340000       0.383598       0.241762       0.097525
      18.350000       0.380510       0.240505       0.097005
      18.360000       0.377001       0.238953       0.096529
      18.370000       0.373352       0.237131       0.096105
      18.380000       0.369862       0.235110       0.095743
      18.390000       0.366813       0.232986       0.095451
      18.400000       0.364429       0.230863       0.095232
      18.410000       0.362869       0.228834       0.095080
      18.420000       0.362214       0.226965       0.094981
      18.430000       0.362476       0.225290       0.094915
      18.440000       0.363617       0.223815       0.094861
      18.450000       0.365561       0.222525       0.094796
      18.460000       0.368214       0.221399       0.094707
      18.470000       0.371475       0.220422       0.094588
      18.480000       0.375250       0.219595       0.094442
      18.490000       0.379452       0.218933       0.094282
      18.500000       0.384015       0.218457       0.094119
      18.510000       0.388879       0.218182       0.093960
      18.520000       0.393986       0.218101       0.093806
      18.530000       0.399245       0.218181       0.093646
      18.540000       0.404510       0.218361       0.093466
      18.550000       0.409569       0.218559       0.093253
      18.560000       0.414147       0.218685       0.093003
      18.570000       0.417941       0.218655       0.092726
      18.580000       0.420655       0.218404       0.092439
      18.590000       0.422052       0.217894       0.092161
      18.600000       0.421994       0.217116       0.091907
      18.610000       0.420467       0.216083       0.091680
      18.620000       0.417591       0.214824       0.091470
      18.630000       0.413608       0.213375       0.091259
      18.640000       0.408851       0.211773       0.091026
      18.650000       0.403707       0.210053       0.090752
      18.660000       0.398558       0.208247       0.090430
      18.670000       0.393737       0.206387       0.090064
      18.680000       0.389490       0.204494       0.089667
      18.690000       0.385960       0.202585       0.089264
      18.700000       0.383184       0.200662       0.088879
      18.710000       0.381106       0.198717       0.088534
      18.720000       0.379609       0.196736       0.088245
      18.730000       0.378543       0.194704       0.088013
      18.740000       0.377757       0.192615       0.087834
      18.750000       0.377118       0.190473       0.087693
      18.760000       0.376521       0.188303       0.087579
      18.770000       0.375896       0.186145       0.087478
      18.780000       0.375213       0.184053       0.087378
      18.790000       0.374492       0.182085       0.087266
      18.800000       0.373802       0.180298       0.087129
      18.810000       0.373247       0.178730       0.086955
      18.820000       0.372937       0.177398       0.086738
      18.830000       0.372944       0.176297       0.086484
      18.840000       0.373280       0.175400       0.086215
      18.850000       0.373869       0.174673       0.085962
      18.860000       0.374560       0.174079       0.085766
      18.870000       0.375145       0.173583       0.085665
      18.880000       0.375401       0.173162       0.085690
      18.890000       0.375128       0.172800       0.085859
      18.900000       0.374189       0.172485       0.086177
      18.910000       0.372530       0.172211       0.086631
      18.920000       0.370188       0.171978       0.087199
      18.930000       0.367282       0.171786       0.087848
      18.940000       0.363997       0.171644       0.088539
      18.950000       0.360546       0.171563       0.089232
      18.960000       0.357133       0.171555       0.089890
      18.970000       0.353920       0.171628       0.090484
      18.980000       0.351000       0.171782       0.091000
      18.990000       0.348394       0.172008       0.091437
      19.000000       0.346060       0.172292       0.091805
      19.010000       0.343914       0.172612       0.092117
      19.020000       0.341850       0.172942       0.092382
      19.030000       0.339768       0.173259       0.092594
      19.040000       0.337583       0.173538       0.092736
      19.050000       0.335230       0.173768       0.092781
      19.060000       0.332665       0.173942       0.092697
      19.070000       0.329872       0.174063       0.092461
      19.080000       0.326872       0.174139       0.092062
      19.090000       0.323719       0.174178       0.091506
      19.100000       0.320496       0.174193       0.090819
      19.110000       0.317296       0.174197       0.090040
      19.120000       0.314197       0.174215       0.089220
      19.130000       0.311240       0.174270       0.088415
      19.140000       0.308424       0.174387       0.087680
      19.150000       0.305706       0.174573       0.087061
      19.160000       0.303016       0.174818       0.086592
      19.170000       0.300278       0.175089       0.086291
      19.180000       0.297431       0.175343       0.086160
      19.190000       0.294448       0.175537       0.086183
      19.200000       0.291336       0.175642       0.086336
      19.210000       0.288131       0.175646       0.086588
      19.220000       0.284887       0.175555       0.086908
      19.230000       0.281660       0.175382       0.087273
      19.240000       0.278498       0.175140       0.087665
      19.250000       0.275429       0.174827       0.088078
      19.260000       0.272448       0.174432       0.088508
      19.270000       0.269525       0.173933       0.088953
      19.280000       0.266606       0.173310       0.089405
      19.290000       0.263634       0.172552       0.089850
      19.300000       0.260567       0.171661       0.090262
      19.310000       0.257383       0.170655       0.090613
      19.320000       0.254085       0.169564       0.090877
      19.330000       0.250702       0.168420       0.091034
      19.340000       0.247283       0.167259       0.091079
      19.350000       0.243899       0.166114       0.091016
      19.360000       0.240633       0.165013       0.090860
      19.370000       0.237579       0.163980       0.090620
      19.380000       0.234831       0.163031       0.090304
      19.390000       0.232476       0.162173       0.089910
      19.400000       0.230590       0.161407       0.089437
      19.410000       0.229230       0.160727       0.088891
      19.420000       0.228441       0.160123       0.088298
      19.430000       0.228254       0.159587       0.087702
      19.440000       0.228687       0.159113       0.087160
      19.450000       0.229748       0.158693       0.086737
      19.460000       0.231426       0.158322       0.086492
      19.470000       0.233693       0.157992       0.086470
      19.480000       0.236500       0.157694       0.086694
      19.490000       0.239780       0.157414       0.087166
      19.500000       0.243455       0.157136       0.087868
      19.510000       0.247433       0.156838       0.088767
      19.520000       0.251612       0.156502       0.089824
      19.530000       0.255883       0.156110       0.091001
      19.540000       0.260135       0.155654       0.092263
      19.550000       0.264263       0.155135       0.093586
      19.560000       0.268163       0.154559       0.094949
      19.570000       0.271736       0.153935       0.096334
      19.580000       0.274879       0.153274       0.097720
      19.590000       0.277483       0.152584       0.099085
      19.600000       0.279432       0.151878       0.100404
      19.610000       0.280617       0.151169       0.101656
      19.620000       0.280947       0.150467       0.102824
      19.630000       0.280373       0.149781       0.103903
      19.640000       0.278892       0.149112       0.104894
      19.650000       0.276552       0.148455       0.105808
      19.660000       0.273445       0.147800       0.106662
      19.670000       0.269692       0.147141       0.107477
      19.680000       0.265429       0.146471       0.108280
      19.690000       0.260799       0.145787       0.109097
      19.700000       0.255934       0.145090       0.109947
      19.710000       0.250953       0.144389       0.110845
      19.720000       0.245959       0.143699       0.111800
      19.730000       0.241037       0.143042       0.112815
      19.740000       0.236253       0.142438       0.113896
      19.750000       0.231650       0.141899       0.115051
      19.760000       0.227246       0.141431       0.116288
      19.770000       0.223031       0.141025       0.117619
      19.780000       0.218983       0.140668       0.119056
      19.790000       0.215079       0.140345       0.120607
      19.800000       0.211307       0.140043       0.122274
      19.810000       0.207665       0.139754       0.124052
      19.820000       0.204157       0.139479       0.125928
      19.830000       0.200777       0.139222       0.127877
      19.840000       0.197508       0.138993       0.129868
      19.850000       0.194324       0.138802       0.131865
      19.860000       0.191193       0.138665       0.133836
      19.870000       0.188092       0.138600       0.135762
      19.880000       0.185008       0.138628       0.137640
      19.890000       0.181947       0.138775       0.139486
      19.900000       0.178931       0.139070       0.141333
      19.910000       0.175997       0.139534       0.143221
      19.920000       0.173193       0.140180       0.145198
      19.930000       0.170565       0.141004       0.147308
      19.940000       0.168156       0.141989       0.149585
      19.950000       0.165996       0.143104       0.152049
      19.960000       0.164106       0.144310       0.154701
      19.970000       0.162497       0.145562       0.157520
      19.980000       0.161167       0.146813       0.160459
      19.990000       0.160105       0.148014       0.163452
      20.000000       0.159288       0.149114       0.166416
