  # energy grid [eV]     epsr_x  epsr_y  epsr_z
       0.000000            NaN            NaN            NaN
       0.010000 -145721.675370 -225465.753448       2.933560
       0.020000  -36427.408143  -56363.829731       2.869369
       0.030000  -16187.728331  -25048.657894       2.797216
       0.040000   -9103.839580  -14088.346845       2.733918
       0.050000   -5825.010181   -9015.287616       2.683028
       0.060000   -4043.916732   -6259.550741       2.642186
       0.070000   -2969.972596   -4597.927330       2.607658
       0.080000   -2272.940570   -3519.468873       2.575994
       0.090000   -1795.056732   -2780.080423       2.544447
       0.100000   -1453.228267   -2251.199441       2.511077
       0.110000   -1200.312911   -1859.886714       2.474797
       0.120000   -1007.949113   -1562.260900       2.435402
       0.130000    -858.243940   -1330.637933       2.393502
       0.140000    -739.456584   -1146.852486       2.350289
       0.150000    -643.624134    -998.584549       2.307158
       0.160000    -565.191424    -877.239505       2.265283
       0.170000    -500.187431    -776.673844       2.225313
       0.180000    -445.712555    -692.401833       2.187298
       0.190000    -399.609558    -621.086334       2.150840
       0.200000    -360.246643    -560.203085       2.115385
       0.210000    -326.371038    -507.814033       2.080543
       0.220000    -297.008050    -462.411017       2.046298
       0.230000    -271.390143    -422.805932       2.013072
       0.240000    -248.906253    -388.052296       1.981604
       0.250000    -229.065011    -357.388458       1.952750
       0.260000    -211.467683    -330.195964       1.927260
       0.270000    -195.787989    -305.968612       1.905631
       0.280000    -181.756893    -284.289111       1.888062
       0.290000    -169.150981    -264.811196       1.874491
       0.300000    -157.783508    -247.245721       1.864680
       0.310000    -147.497435    -231.349751       1.858285
       0.320000    -138.159950    -216.917956       1.854912
       0.330000    -129.658148    -203.775789       1.854134
       0.340000    -121.895572    -191.774067       1.855504
       0.350000    -114.789435    -180.784641       1.858559
       0.360000    -108.268351    -170.696906       1.862840
       0.370000    -102.270465    -161.414976       1.867902
       0.380000     -96.741884    -152.855377       1.873336
       0.390000     -91.635352    -144.945141       1.878778
       0.400000     -86.909144    -137.620238       1.883921
       0.410000     -82.526185    -130.824272       1.888531
       0.420000     -78.453387    -124.507411       1.892449
       0.430000     -74.661207    -118.625499       1.895593
       0.440000     -71.123352    -113.139326       1.897944
       0.450000     -67.816546    -108.014007       1.899517
       0.460000     -64.720275    -103.218451       1.900329
       0.470000     -61.816488     -98.724887       1.900371
       0.480000     -59.089262     -94.508454       1.899607
       0.490000     -56.524481     -90.546836       1.897988
       0.500000     -54.109546     -86.819939       1.895503
       0.510000     -51.833136     -83.309624       1.892222
       0.520000     -49.685024     -79.999460       1.888328
       0.530000     -47.655936     -76.874530       1.884100
       0.540000     -45.737450     -73.921253       1.879864
       0.550000     -43.921915     -71.127246       1.875906
       0.560000     -42.202391     -68.481199       1.872402
       0.570000     -40.572580     -65.972771       1.869382
       0.580000     -39.026732     -63.592499       1.866738
       0.590000     -37.559536     -61.331717       1.864270
       0.600000     -36.165978     -59.182482       1.861755
       0.610000     -34.841215     -57.137513       1.859018
       0.620000     -33.580488     -55.190138       1.855992
       0.630000     -32.379108     -53.334245       1.852747
       0.640000     -31.232548     -51.564240       1.849485
       0.650000     -30.136577     -49.875021       1.846491
       0.660000     -29.087408     -48.261941       1.844068
       0.670000     -28.081767     -46.720768       1.842462
       0.680000     -27.116884     -45.247629       1.841827
       0.690000     -26.190410     -43.838933       1.842202
       0.700000     -25.300311     -42.491288       1.843538
       0.710000     -24.444765     -41.201423       1.845719
       0.720000     -23.622095     -39.966127       1.848600
       0.730000     -22.830734     -38.782239       1.852033
       0.740000     -22.069237     -37.646682       1.855877
       0.750000     -21.336297     -36.556529       1.860013
       0.760000     -20.630770     -35.509087       1.864341
       0.770000     -19.951675     -34.501958       1.868781
       0.780000     -19.298168     -33.533079       1.873268
       0.790000     -18.669473     -32.600710       1.877747
       0.800000     -18.064784     -31.703388       1.882174
       0.810000     -17.483143     -30.839834       1.886509
       0.820000     -16.923313     -30.008860       1.890712
       0.830000     -16.383709     -29.209300       1.894748
       0.840000     -15.862422     -28.439982       1.898579
       0.850000     -15.357357     -27.699762       1.902171
       0.860000     -14.866448     -26.987556       1.905496
       0.870000     -14.387875     -26.302323       1.908533
       0.880000     -13.920190     -25.642984       1.911273
       0.890000     -13.462340     -25.008278       1.913715
       0.900000     -13.013590     -24.396630       1.915862
       0.910000     -12.573429     -23.806126       1.917708
       0.920000     -12.141472     -23.234614       1.919234
       0.930000     -11.717407     -22.679927       1.920403
       0.940000     -11.300964     -22.140141       1.921176
       0.950000     -10.891903     -21.613783       1.921523
       0.960000     -10.490004     -21.099930       1.921456
       0.970000     -10.095075     -20.598190       1.921039
       0.980000      -9.706949     -20.108597       1.920391
       0.990000      -9.325501     -19.631464       1.919671
       1.000000      -8.950664     -19.167229       1.919037
       1.010000      -8.582448     -18.716307       1.918609
       1.020000      -8.220967     -18.278946       1.918443
       1.030000      -7.866452     -17.855104       1.918522
       1.040000      -7.519269     -17.444352       1.918770
       1.050000      -7.179913     -17.045840       1.919078
       1.060000      -6.849003     -16.658382       1.919329
       1.070000      -6.527270     -16.280622       1.919432
       1.080000      -6.215577     -15.911273       1.919330
       1.090000      -5.915017     -15.549308       1.919019
       1.100000      -5.627093     -15.194076       1.918539
       1.110000      -5.354001     -14.845298       1.917969
       1.120000      -5.098911     -14.503003       1.917415
       1.130000      -4.866175     -14.167429       1.916993
       1.140000      -4.661298     -13.838933       1.916816
       1.150000      -4.490611     -13.517918       1.916971
       1.160000      -4.360548     -13.204774       1.917505
       1.170000      -4.276576     -12.899829       1.918415
       1.180000      -4.241909     -12.603299       1.919646
       1.190000      -4.256346     -12.315245       1.921104
       1.200000      -4.315696     -12.035554       1.922666
       1.210000      -4.412121     -11.763943       1.924202
       1.220000      -4.535335     -11.500011       1.925588
       1.230000      -4.674228     -11.243314       1.926719
       1.240000      -4.818361     -10.993443       1.927525
       1.250000      -4.959104     -10.750104       1.927977
       1.260000      -5.090444     -10.513197       1.928084
       1.270000      -5.209482     -10.282868       1.927882
       1.280000      -5.316393     -10.059519       1.927425
       1.290000      -5.413620      -9.843737       1.926775
       1.300000      -5.504424      -9.636130       1.926000
       1.310000      -5.591370      -9.437093       1.925188
       1.320000      -5.675490      -9.246559       1.924445
       1.330000      -5.756562      -9.063809       1.923890
       1.340000      -5.834254      -8.887453       1.923632
       1.350000      -5.909388      -8.715603       1.923748
       1.360000      -5.984448      -8.546238       1.924256
       1.370000      -6.063003      -8.377646       1.925121
       1.380000      -6.148362      -8.208771       1.926254
       1.390000      -6.242228      -8.039389       1.927536
       1.400000      -6.344124      -7.870085       1.928826
       1.410000      -6.451866      -7.702096       1.929981
       1.420000      -6.562707      -7.537109       1.930859
       1.430000      -6.674312      -7.377025       1.931325
       1.440000      -6.784884      -7.223706       1.931254
       1.450000      -6.892370      -7.078692       1.930545
       1.460000      -6.993361      -6.942908       1.929142
       1.470000      -7.082529      -6.816422       1.927062
       1.480000      -7.153134      -6.698383       1.924414
       1.490000      -7.198457      -6.587210       1.921410
       1.500000      -7.213450      -6.481015       1.918330
       1.510000      -7.195847      -6.378114       1.915472
       1.520000      -7.146348      -6.277381       1.913089
       1.530000      -7.068043      -6.178286       1.911341
       1.540000      -6.965454      -6.080619       1.910283
       1.550000      -6.843614      -5.984058       1.909870
       1.560000      -6.707368      -5.887832       1.909997
       1.570000      -6.560969      -5.790669       1.910526
       1.580000      -6.407909      -5.691066       1.911328
       1.590000      -6.250919      -5.587770       1.912296
       1.600000      -6.092070      -5.480219       1.913358
       1.610000      -5.932900      -5.368799       1.914475
       1.620000      -5.774545      -5.254834       1.915628
       1.630000      -5.617843      -5.140384       1.916807
       1.640000      -5.463404      -5.027943       1.918005
       1.650000      -5.311665      -4.920074       1.919221
       1.660000      -5.162924      -4.819025       1.920466
       1.670000      -5.017367      -4.726310       1.921767
       1.680000      -4.875085      -4.642332       1.923171
       1.690000      -4.736096      -4.566141       1.924725
       1.700000      -4.600360      -4.495496       1.926468
       1.710000      -4.467797      -4.427312       1.928413
       1.720000      -4.338307      -4.358398       1.930538
       1.730000      -4.211784      -4.286266       1.932793
       1.740000      -4.088131      -4.209700       1.935103
       1.750000      -3.967272      -4.128956       1.937378
       1.760000      -3.849154      -4.045590       1.939529
       1.770000      -3.733757      -3.962068       1.941472
       1.780000      -3.621094      -3.881280       1.943146
       1.790000      -3.511216      -3.806050       1.944513
       1.800000      -3.404209      -3.738695       1.945570
       1.810000      -3.300192      -3.680675       1.946341
       1.820000      -3.199298      -3.632400       1.946877
       1.830000      -3.101641      -3.593222       1.947245
       1.840000      -3.007271      -3.561606       1.947532
       1.850000      -2.916119      -3.535370       1.947838
       1.860000      -2.827945      -3.511925       1.948274
       1.870000      -2.742329      -3.488465       1.948943
       1.880000      -2.658718      -3.462189       1.949928
       1.890000      -2.576527      -3.430621       1.951268
       1.900000      -2.495272      -3.392031       1.952951
       1.910000      -2.414693      -3.345826       1.954920
       1.920000      -2.334810      -3.292747       1.957075
       1.930000      -2.255923      -3.234814       1.959291
       1.940000      -2.178561      -3.175029       1.961425
       1.950000      -2.103388      -3.116951       1.963331
       1.960000      -2.031099      -3.064197       1.964872
       1.970000      -1.962309      -3.019933       1.965935
       1.980000      -1.897440      -2.986406       1.966451
       1.990000      -1.836643      -2.964591       1.966408
       2.000000      -1.779778      -2.954075       1.965863
       2.010000      -1.726461      -2.953228       1.964934
       2.020000      -1.676160      -2.959630       1.963782
       2.030000      -1.628310      -2.970601       1.962584
       2.040000      -1.582392      -2.983630       1.961500
       2.050000      -1.537987      -2.996574       1.960652
       2.060000      -1.494807      -3.007614       1.960109
       2.070000      -1.452700      -3.015032       1.959876
       2.080000      -1.411619      -3.016994       1.959901
       2.090000      -1.371546      -3.011496       1.960088
       2.100000      -1.332414      -2.996560       1.960325
       2.110000      -1.294088      -2.970595       1.960515
       2.120000      -1.256445      -2.932745       1.960603
       2.130000      -1.219532      -2.883063       1.960591
       2.140000      -1.183694      -2.822474       1.960535
       2.150000      -1.149588      -2.752571       1.960529
       2.160000      -1.118057      -2.675351       1.960664
       2.170000      -1.089907      -2.592963       1.961005
       2.180000      -1.065684      -2.507532       1.961563
       2.190000      -1.045553      -2.421068       1.962296
       2.200000      -1.029338      -2.335452       1.963117
       2.210000      -1.016683      -2.252489       1.963924
       2.220000      -1.007267      -2.173999       1.964625
       2.230000      -1.000948      -2.101902       1.965171
       2.240000      -0.997798      -2.038286       1.965565
       2.250000      -0.998039      -1.985398       1.965864
       2.260000      -1.001965      -1.945519       1.966156
       2.270000      -1.009930      -1.920698       1.966537
       2.280000      -1.022409      -1.912323       1.967076
       2.290000      -1.040080      -1.920611       1.967804
       2.300000      -1.063824      -1.944142       1.968711
       2.310000      -1.094627      -1.979661       1.969757
       2.320000      -1.133408      -2.022302       1.970889
       2.330000      -1.180864      -2.066308       1.972050
       2.340000      -1.237349      -2.106074       1.973187
       2.350000      -1.302767      -2.137207       1.974247
       2.360000      -1.376427      -2.157237       1.975183
       2.370000      -1.456872      -2.165802       1.975949
       2.380000      -1.541738      -2.164325       1.976512
       2.390000      -1.627738      -2.155376       1.976846
       2.400000      -1.710853      -2.141924       1.976938
       2.410000      -1.786761      -2.126642       1.976780
       2.420000      -1.851447      -2.111377       1.976375
       2.430000      -1.901817      -2.096858       1.975734
       2.440000      -1.936119      -2.082695       1.974882
       2.450000      -1.954053      -2.067660       1.973856
       2.460000      -1.956583      -2.050127       1.972708
       2.470000      -1.945565      -2.028516       1.971496
       2.480000      -1.923338      -2.001610       1.970276
       2.490000      -1.892380      -1.968723       1.969087
       2.500000      -1.855040      -1.929740       1.967944
       2.510000      -1.813378      -1.885075       1.966842
       2.520000      -1.769062      -1.835581       1.965771
       2.530000      -1.723330      -1.782409       1.964735
       2.540000      -1.676993      -1.726850       1.963751
       2.550000      -1.630498      -1.670169       1.962840
       2.560000      -1.584025      -1.613445       1.962001
       2.570000      -1.537595      -1.557438       1.961177
       2.580000      -1.491166      -1.502484       1.960255
       2.590000      -1.444692      -1.448461       1.959074
       2.600000      -1.398147      -1.394853       1.957464
       2.610000      -1.351535      -1.340909       1.955288
       2.620000      -1.304893      -1.285872       1.952476
       2.630000      -1.258293      -1.229178       1.949042
       2.640000      -1.211846      -1.170588       1.945077
       2.650000      -1.165694      -1.110207       1.940722
       2.660000      -1.119999      -1.048443       1.936149
       2.670000      -1.074931      -0.985929       1.931539
       2.680000      -1.030665      -0.923451       1.927087
       2.690000      -0.987368      -0.861892       1.922995
       2.700000      -0.945199      -0.802190       1.919467
       2.710000      -0.904299      -0.745294       1.916686
       2.720000      -0.864780      -0.692092       1.914794
       2.730000      -0.826707      -0.643309       1.913865
       2.740000      -0.790086      -0.599364       1.913901
       2.750000      -0.754848      -0.560228       1.914837
       2.760000      -0.720855      -0.525337       1.916548
       2.770000      -0.687927      -0.493631       1.918870
       2.780000      -0.655881      -0.463751       1.921612
       2.790000      -0.624572      -0.434360       1.924574
       2.800000      -0.593925      -0.404465       1.927573
       2.810000      -0.563942      -0.373608       1.930454
       2.820000      -0.534683      -0.341871       1.933115
       2.830000      -0.506225      -0.309675       1.935513
       2.840000      -0.478617      -0.277488       1.937668
       2.850000      -0.451842      -0.245540       1.939648
       2.860000      -0.425791      -0.213647       1.941549
       2.870000      -0.400263      -0.181225       1.943472
       2.880000      -0.374990      -0.147482       1.945503
       2.890000      -0.349674      -0.111723       1.947698
       2.900000      -0.324046      -0.073666       1.950069
       2.910000      -0.297917      -0.033647       1.952575
       2.920000      -0.271198       0.007298       1.955123
       2.930000      -0.243910       0.047478       1.957571
       2.940000      -0.216157       0.084657       1.959743
       2.950000      -0.188107       0.116187       1.961453
       2.960000      -0.159964       0.139145       1.962525
       2.970000      -0.131958       0.150466       1.962819
       2.980000      -0.104335       0.147095       1.962252
       2.990000      -0.077359       0.126169       1.960810
       3.000000      -0.051301       0.085255       1.958553
       3.010000      -0.026426       0.022656       1.955605
       3.020000      -0.002972      -0.062213       1.952126
       3.030000       0.018885      -0.168429       1.948273
       3.040000       0.039072      -0.293231       1.944168
       3.050000       0.057663      -0.431888       1.939888
       3.060000       0.074904      -0.577878       1.935476
       3.070000       0.091193      -0.723475       1.930969
       3.080000       0.107011      -0.860705       1.926432
       3.090000       0.122812      -0.982513       1.921979
       3.100000       0.138907      -1.083780       1.917773
       3.110000       0.155380      -1.161892       1.914003
       3.120000       0.172064      -1.216707       1.910851
       3.130000       0.188581      -1.250016       1.908447
       3.140000       0.204416      -1.264765       1.906854
       3.150000       0.219015      -1.264317       1.906053
       3.160000       0.231879      -1.251907       1.905970
       3.170000       0.242643      -1.230366       1.906493
       3.180000       0.251113      -1.202038       1.907506
       3.190000       0.257258      -1.168823       1.908907
       3.200000       0.261147      -1.132245       1.910620
       3.210000       0.262865      -1.093521       1.912595
       3.220000       0.262440      -1.053615       1.914797
       3.230000       0.259815      -1.013282       1.917200
       3.240000       0.254880      -0.973100       1.919771
       3.250000       0.247547      -0.933480       1.922460
       3.260000       0.237832      -0.894654       1.925200
       3.270000       0.225939      -0.856688       1.927906
       3.280000       0.212311      -0.819512       1.930489
       3.290000       0.197657      -0.782995       1.932864
       3.300000       0.182922      -0.747018       1.934961
       3.310000       0.169193      -0.711495       1.936732
       3.320000       0.157536      -0.676355       1.938163
       3.330000       0.148828      -0.641475       1.939280
       3.340000       0.143615      -0.606652       1.940159
       3.350000       0.142058      -0.571609       1.940922
       3.360000       0.143982      -0.536067       1.941727
       3.370000       0.148990      -0.499822       1.942744
       3.380000       0.156605      -0.462791       1.944128
       3.390000       0.166385      -0.425016       1.945997
       3.400000       0.177997      -0.386625       1.948411
       3.410000       0.191222      -0.347797       1.951375
       3.420000       0.205924      -0.308747       1.954836
       3.430000       0.222000      -0.269735       1.958692
       3.440000       0.239323      -0.231088       1.962810
       3.450000       0.257726      -0.193220       1.967031
       3.460000       0.276996      -0.156621       1.971181
       3.470000       0.296887      -0.121824       1.975078
       3.480000       0.317141      -0.089340       1.978539
       3.490000       0.337505      -0.059586       1.981389
       3.500000       0.357742      -0.032797       1.983475
       3.510000       0.377636      -0.008962       1.984682
       3.520000       0.397001       0.012214       1.984945
       3.530000       0.415689       0.031305       1.984257
       3.540000       0.433597       0.049091       1.982663
       3.550000       0.450676       0.066450       1.980236
       3.560000       0.466937       0.084205       1.977063
       3.570000       0.482448       0.102984       1.973230
       3.580000       0.497334       0.123128       1.968823
       3.590000       0.511760       0.144679       1.963957
       3.600000       0.525914       0.167442       1.958798
       3.610000       0.539988       0.191092       1.953580
       3.620000       0.554155       0.215285       1.948597
       3.630000       0.568545       0.239745       1.944168
       3.640000       0.583231       0.264295       1.940579
       3.650000       0.598231       0.288853       1.938046
       3.660000       0.613510       0.313389       1.936686
       3.670000       0.629005       0.337876       1.936518
       3.680000       0.644646       0.362279       1.937477
       3.690000       0.660375       0.386570       1.939445
       3.700000       0.676163       0.410757       1.942269
       3.710000       0.692007       0.434896       1.945779
       3.720000       0.707923       0.459049       1.949805
       3.730000       0.723928       0.483194       1.954187
       3.740000       0.740032       0.507142       1.958773
       3.750000       0.756226       0.530489       1.963428
       3.760000       0.772482       0.552638       1.968031
       3.770000       0.788754       0.572893       1.972478
       3.780000       0.804986       0.590590       1.976682
       3.790000       0.821115       0.605221       1.980574
       3.800000       0.837074       0.616530       1.984111
       3.810000       0.852795       0.624536       1.987275
       3.820000       0.868206       0.629514       1.990079
       3.830000       0.883235       0.631915       1.992557
       3.840000       0.897810       0.632264       1.994767
       3.850000       0.911868       0.631032       1.996775
       3.860000       0.925361       0.628512       1.998653
       3.870000       0.938269       0.624746       2.000471
       3.880000       0.950614       0.619528       2.002293
       3.890000       0.962455       0.612470       2.004167
       3.900000       0.973891       0.603079       2.006119
       3.910000       0.985042       0.590814       2.008144
       3.920000       0.996040       0.575106       2.010214
       3.930000       1.007016       0.555389       2.012283
       3.940000       1.018101       0.531159       2.014315
       3.950000       1.029420       0.502062       2.016305
       3.960000       1.041093       0.467991       2.018288
       3.970000       1.053211       0.429206       2.020332
       3.980000       1.065829       0.386443       2.022520
       3.990000       1.078946       0.341006       2.024914
       4.000000       1.092506       0.294784       2.027535
       4.010000       1.106404       0.250118       2.030344
       4.020000       1.120498       0.209508       2.033247
       4.030000       1.134627       0.175214       2.036110
       4.040000       1.148620       0.148865       2.038768
       4.050000       1.162322       0.131226       2.041047
       4.060000       1.175606       0.122185       2.042769
       4.070000       1.188397       0.120935       2.043764
       4.080000       1.200687       0.126257       2.043890
       4.090000       1.212542       0.136795       2.043049
       4.100000       1.224080       0.151277       2.041221
       4.110000       1.235441       0.168634       2.038473
       4.120000       1.246740       0.188060       2.034972
       4.130000       1.258023       0.208994       2.030965
       4.140000       1.269251       0.231064       2.026744
       4.150000       1.280305       0.254014       2.022598
       4.160000       1.291016       0.277634       2.018771
       4.170000       1.301200       0.301718       2.015431
       4.180000       1.310702       0.326049       2.012662
       4.190000       1.319433       0.350398       2.010473
       4.200000       1.327381       0.374551       2.008815
       4.210000       1.334621       0.398330       2.007609
       4.220000       1.341304       0.421615       2.006761
       4.230000       1.347644       0.444359       2.006188
       4.240000       1.353906       0.466572       2.005829
       4.250000       1.360387       0.488287       2.005662
       4.260000       1.367391       0.509517       2.005699
       4.270000       1.375184       0.530222       2.005984
       4.280000       1.383961       0.550277       2.006572
       4.290000       1.393814       0.569470       2.007515
       4.300000       1.404726       0.587509       2.008854
       4.310000       1.416591       0.604071       2.010607
       4.320000       1.429253       0.618860       2.012776
       4.330000       1.442549       0.631690       2.015340
       4.340000       1.456335       0.642552       2.018263
       4.350000       1.470510       0.651665       2.021492
       4.360000       1.485004       0.659481       2.024956
       4.370000       1.499778       0.666643       2.028557
       4.380000       1.514810       0.673891       2.032168
       4.390000       1.530102       0.681933       2.035627
       4.400000       1.545684       0.691331       2.038749
       4.410000       1.561617       0.702424       2.041343
       4.420000       1.577991       0.715311       2.043238
       4.430000       1.594902       0.729899       2.044317
       4.440000       1.612431       0.745974       2.044540
       4.450000       1.630625       0.763288       2.043948
       4.460000       1.649482       0.781633       2.042647
       4.470000       1.668960       0.800865       2.040780
       4.480000       1.688986       0.820899       2.038491
       4.490000       1.709459       0.841664       2.035895
       4.500000       1.730261       0.863054       2.033068
       4.510000       1.751262       0.884901       2.030051
       4.520000       1.772323       0.906979       2.026855
       4.530000       1.793289       0.929032       2.023479
       4.540000       1.813976       0.950827       2.019924
       4.550000       1.834133       0.972199       2.016213
       4.560000       1.853402       0.993086       2.012400
       4.570000       1.871278       1.013540       2.008583
       4.580000       1.887075       1.033705       2.004902
       4.590000       1.899919       1.053779       2.001515
       4.600000       1.908774       1.073945       1.998583
       4.610000       1.912497       1.094322       1.996226
       4.620000       1.909944       1.114926       1.994509
       4.630000       1.900120       1.135662       1.993424
       4.640000       1.882361       1.156343       1.992903
       4.650000       1.856505       1.176717       1.992844
       4.660000       1.823024       1.196505       1.993133
       4.670000       1.783053       1.215432       1.993659
       4.680000       1.738333       1.233254       1.994321
       4.690000       1.691038       1.249788       1.995014
       4.700000       1.643507       1.264939       1.995626
       4.710000       1.597905       1.278742       1.996034
       4.720000       1.555899       1.291373       1.996111
       4.730000       1.518470       1.303146       1.995739
       4.740000       1.485942       1.314453       1.994824
       4.750000       1.458224       1.325677       1.993309
       4.760000       1.435128       1.337094       1.991183
       4.770000       1.416636       1.348802       1.988487
       4.780000       1.402990       1.360709       1.985311
       4.790000       1.394600       1.372577       1.981795
       4.800000       1.391835       1.384100       1.978108
       4.810000       1.394833       1.394997       1.974441
       4.820000       1.403411       1.405089       1.970988
       4.830000       1.417083       1.414341       1.967932
       4.840000       1.435156       1.422869       1.965434
       4.850000       1.456851       1.430891       1.963623
       4.860000       1.481392       1.438663       1.962592
       4.870000       1.508074       1.446414       1.962383
       4.880000       1.536289       1.454305       1.962994
       4.890000       1.565531       1.462410       1.964370
       4.900000       1.595390       1.470716       1.966417
       4.910000       1.625526       1.479115       1.969010
       4.920000       1.655642       1.487398       1.972004
       4.930000       1.685463       1.495263       1.975245
       4.940000       1.714705       1.502350       1.978583
       4.950000       1.743060       1.508291       1.981883
       4.960000       1.770173       1.512768       1.985036
       4.970000       1.795633       1.515559       1.987959
       4.980000       1.818964       1.516572       1.990596
       4.990000       1.839632       1.515881       1.992904
       5.000000       1.857071       1.513746       1.994842
       5.010000       1.870729       1.510624       1.996356
       5.020000       1.880143       1.507127       1.997380
       5.030000       1.885017       1.503953       1.997847
       5.040000       1.885287       1.501783       1.997705
       5.050000       1.881134       1.501186       1.996939
       5.060000       1.872955       1.502567       1.995582
       5.070000       1.861310       1.506166       1.993711
       5.080000       1.846919       1.512103       1.991445
       5.090000       1.830699       1.520444       1.988924
       5.100000       1.813804       1.531255       1.986301
       5.110000       1.797565       1.544600       1.983732
       5.120000       1.783299       1.560470       1.981360
       5.130000       1.772043       1.578680       1.979305
       5.140000       1.764319       1.598788       1.977648
       5.150000       1.760050       1.620077       1.976423
       5.160000       1.758646       1.641627       1.975614
       5.170000       1.759213       1.662450       1.975171
       5.180000       1.760826       1.681660       1.975026
       5.190000       1.762779       1.698642       1.975114
       5.200000       1.764767       1.713164       1.975396
       5.210000       1.766920       1.725396       1.975856
       5.220000       1.769699       1.735779       1.976502
       5.230000       1.773672       1.744807       1.977356
       5.240000       1.779269       1.752749       1.978439
       5.250000       1.786606       1.759465       1.979764
       5.260000       1.795443       1.764344       1.981334
       5.270000       1.805275       1.766402       1.983142
       5.280000       1.815493       1.764506       1.985176
       5.290000       1.825566       1.757660       1.987425
       5.300000       1.835160       1.745305       1.989876
       5.310000       1.844183       1.727552       1.992523
       5.320000       1.852717       1.705270       1.995367
       5.330000       1.860881       1.679969       1.998414
       5.340000       1.868684       1.653481       2.001675
       5.350000       1.875920       1.627552       2.005155
       5.360000       1.882157       1.603465       2.008836
       5.370000       1.886840       1.581853       2.012666
       5.380000       1.889466       1.562721       2.016556
       5.390000       1.889803       1.545648       2.020383
       5.400000       1.888057       1.530069       2.024004
       5.410000       1.884958       1.515556       2.027288
       5.420000       1.881701       1.502023       2.030140
       5.430000       1.879768       1.489831       2.032527
       5.440000       1.880666       1.479769       2.034491
       5.450000       1.885646       1.472939       2.036135
       5.460000       1.895507       1.470553       2.037593
       5.470000       1.910499       1.473690       2.038998
       5.480000       1.930344       1.483048       2.040452
       5.490000       1.954322       1.498764       2.042025
       5.500000       1.981387       1.520342       2.043763
       5.510000       2.010270       1.546702       2.045703
       5.520000       2.039569       1.576323       2.047878
       5.530000       2.067808       1.607418       2.050310
       5.540000       2.093500       1.638104       2.052992
       5.550000       2.115217       1.666560       2.055883
       5.560000       2.131698       1.691163       2.058901
       5.570000       2.141991       1.710608       2.061930
       5.580000       2.145598       1.724014       2.064844
       5.590000       2.142569       1.730981       2.067526
       5.600000       2.133482       1.731580       2.069889
       5.610000       2.119271       1.726240       2.071895
       5.620000       2.100943       1.715562       2.073550
       5.630000       2.079288       1.700120       2.074899
       5.640000       2.054724       1.680327       2.075996
       5.650000       2.027344       1.656437       2.076889
       5.660000       1.997172       1.628680       2.077600
       5.670000       1.964496       1.597450       2.078123
       5.680000       1.930124       1.563440       2.078429
       5.690000       1.895419       1.527674       2.078481
       5.700000       1.862121       1.491417       2.078256
       5.710000       1.832039       1.456058       2.077767
       5.720000       1.806734       1.422963       2.077076
       5.730000       1.787278       1.393336       2.076302
       5.740000       1.774082       1.368070       2.075607
       5.750000       1.766828       1.347630       2.075170
       5.760000       1.764503       1.332000       2.075152
       5.770000       1.765565       1.320715       2.075670
       5.780000       1.768192       1.312940       2.076777
       5.790000       1.770577       1.307580       2.078468
       5.800000       1.771191       1.303395       2.080687
       5.810000       1.768974       1.299130       2.083350
       5.820000       1.763423       1.293640       2.086351
       5.830000       1.754530       1.285997       2.089581
       5.840000       1.742604       1.275542       2.092931
       5.850000       1.728018       1.261878       2.096303
       5.860000       1.711016       1.244852       2.099615
       5.870000       1.691691       1.224543       2.102815
       5.880000       1.670136       1.201295       2.105886
       5.890000       1.646714       1.175757       2.108848
       5.900000       1.622249       1.148896       2.111752
       5.910000       1.598028       1.121920       2.114666
       5.920000       1.575573       1.096137       2.117664
       5.930000       1.556286       1.072737       2.120807
       5.940000       1.541128       1.052574       2.124149
       5.950000       1.530425       1.035976       2.127735
       5.960000       1.523858       1.022644       2.131606
       5.970000       1.520606       1.011674       2.135803
       5.980000       1.519608       1.001717       2.140356
       5.990000       1.519853       0.991263       2.145278
       6.000000       1.520626       0.978953       2.150558
       6.010000       1.521602       0.963866       2.156158
       6.020000       1.522773       0.945699       2.162020
       6.030000       1.524257       0.924819       2.168067
       6.040000       1.526100       0.902195       2.174213
       6.050000       1.528166       0.879218       2.180360
       6.060000       1.530162       0.857440       2.186402
       6.070000       1.531737       0.838277       2.192225
       6.080000       1.532600       0.822779       2.197714
       6.090000       1.532568       0.811506       2.202751
       6.100000       1.531549       0.804535       2.207222
       6.110000       1.529451       0.801540       2.211027
       6.120000       1.526079       0.801880       2.214092
       6.130000       1.521042       0.804668       2.216379
       6.140000       1.513738       0.808847       2.217891
       6.150000       1.503436       0.813310       2.218666
       6.160000       1.489454       0.817102       2.218769
       6.170000       1.471378       0.819640       2.218280
       6.180000       1.449232       0.820884       2.217286
       6.190000       1.423514       0.821326       2.215883
       6.200000       1.395057       0.821791       2.214189
       6.210000       1.364746       0.823098       2.212343
       6.220000       1.333190       0.825727       2.210510
       6.230000       1.300492       0.829624       2.208868
       6.240000       1.266234       0.834217       2.207598
       6.250000       1.229684       0.838603       2.206863
       6.260000       1.190180       0.841825       2.206788
       6.270000       1.147527       0.843138       2.207444
       6.280000       1.102268       0.842193       2.208839
       6.290000       1.055724       0.839121       2.210914
       6.300000       1.009816       0.834521       2.213550
       6.310000       0.966758       0.829389       2.216581
       6.320000       0.928737       0.825007       2.219810
       6.330000       0.897641       0.822789       2.223021
       6.340000       0.874869       0.824099       2.225999
       6.350000       0.861221       0.830072       2.228557
       6.360000       0.856867       0.841464       2.230552
       6.370000       0.861412       0.858576       2.231914
       6.380000       0.874023       0.881260       2.232651
       6.390000       0.893598       0.908987       2.232856
       6.400000       0.918917       0.940940       2.232689
       6.410000       0.948743       0.976110       2.232355
       6.420000       0.981873       1.013366       2.232079
       6.430000       1.017139       1.051513       2.232075
       6.440000       1.053390       1.089328       2.232525
       6.450000       1.089478       1.125610       2.233566
       6.460000       1.124273       1.159225       2.235288
       6.470000       1.156684       1.189176       2.237729
       6.480000       1.185707       1.214670       2.240885
       6.490000       1.210465       1.235192       2.244708
       6.500000       1.230242       1.250535       2.249111
       6.510000       1.244523       1.260802       2.253978
       6.520000       1.253046       1.266359       2.259163
       6.530000       1.255890       1.267790       2.264513
       6.540000       1.253565       1.265844       2.269878
       6.550000       1.247053       1.261383       2.275121
       6.560000       1.237745       1.255296       2.280129
       6.570000       1.227240       1.248351       2.284802
       6.580000       1.217066       1.241054       2.289054
       6.590000       1.208400       1.233563       2.292796
       6.600000       1.201879       1.225712       2.295940
       6.610000       1.197577       1.217146       2.298407
       6.620000       1.195128       1.207486       2.300141
       6.630000       1.193968       1.196467       2.301127
       6.640000       1.193571       1.183988       2.301401
       6.650000       1.193615       1.170087       2.301051
       6.660000       1.193998       1.154875       2.300206
       6.670000       1.194739       1.138477       2.299026
       6.680000       1.195840       1.121008       2.297687
       6.690000       1.197194       1.102600       2.296375
       6.700000       1.198609       1.083463       2.295278
       6.710000       1.199917       1.063996       2.294575
       6.720000       1.201117       1.044887       2.294429
       6.730000       1.202467       1.027159       2.294975
       6.740000       1.204469       1.012096       2.296306
       6.750000       1.207753       1.001023       2.298466
       6.760000       1.212890       0.994996       2.301446
       6.770000       1.220206       0.994527       2.305188
       6.780000       1.229672       0.999433       2.309591
       6.790000       1.240894       1.008852       2.314527
       6.800000       1.253210       1.021407       2.319858
       6.810000       1.265849       1.035436       2.325450
       6.820000       1.278078       1.049259       2.331189
       6.830000       1.289306       1.061404       2.336976
       6.840000       1.299120       1.070797       2.342740
       6.850000       1.307241       1.076846       2.348420
       6.860000       1.313436       1.079401       2.353967
       6.870000       1.317402       1.078608       2.359329
       6.880000       1.318685       1.074690       2.364440
       6.890000       1.316679       1.067788       2.369218
       6.900000       1.310689       1.057900       2.373575
       6.910000       1.300049       1.044947       2.377431
       6.920000       1.284255       1.028899       2.380746
       6.930000       1.263073       1.009903       2.383538
       6.940000       1.236631       0.988365       2.385889
       6.950000       1.205470       0.964965       2.387921
       6.960000       1.170538       0.940618       2.389769
       6.970000       1.133096       0.916386       2.391535
       6.980000       1.094572       0.893372       2.393272
       6.990000       1.056399       0.872658       2.394975
       7.000000       1.019904       0.855266       2.396595
       7.010000       0.986268       0.842141       2.398066
       7.020000       0.956513       0.834078       2.399333
       7.030000       0.931485       0.831606       2.400373
       7.040000       0.911816       0.834874       2.401193
       7.050000       0.897884       0.843577       2.401826
       7.060000       0.889800       0.856997       2.402316
       7.070000       0.887423       0.874113       2.402711
       7.080000       0.890397       0.893757       2.403056
       7.090000       0.898199       0.914774       2.403398
       7.100000       0.910197       0.936175       2.403783
       7.110000       0.925691       0.957250       2.404255
       7.120000       0.943952       0.977632       2.404858
       7.130000       0.964248       0.997306       2.405630
       7.140000       0.985869       1.016526       2.406610
       7.150000       1.008144       1.035682       2.407842
       7.160000       1.030458       1.055116       2.409375
       7.170000       1.052249       1.074977       2.411275
       7.180000       1.073007       1.095128       2.413612
       7.190000       1.092272       1.115155       2.416458
       7.200000       1.109649       1.134443       2.419876
       7.210000       1.124815       1.152305       2.423914
       7.220000       1.137538       1.168127       2.428605
       7.230000       1.147693       1.181483       2.433966
       7.240000       1.155283       1.192235       2.440006
       7.250000       1.160508       1.200589       2.446723
       7.260000       1.163821       1.207115       2.454104
       7.270000       1.165957       1.212683       2.462116
       7.280000       1.167866       1.218308       2.470700
       7.290000       1.170541       1.224923       2.479774
       7.300000       1.174815       1.233160       2.489231
       7.310000       1.181191       1.243231       2.498947
       7.320000       1.189773       1.254945       2.508794
       7.330000       1.200300       1.267837       2.518644
       7.340000       1.212254       1.281314       2.528383
       7.350000       1.225000       1.294773       2.537916
       7.360000       1.237918       1.307652       2.547169
       7.370000       1.250518       1.319450       2.556077
       7.380000       1.262536       1.329748       2.564574
       7.390000       1.273985       1.338238       2.572578
       7.400000       1.285145       1.344754       2.579980
       7.410000       1.296468       1.349255       2.586643
       7.420000       1.308419       1.351774       2.592419
       7.430000       1.321298       1.352327       2.597181
       7.440000       1.335101       1.350809       2.600854
       7.450000       1.349462       1.346917       2.603455
       7.460000       1.363680       1.340111       2.605119
       7.470000       1.376836       1.329677       2.606096
       7.480000       1.387969       1.314879       2.606738
       7.490000       1.396283       1.295182       2.607447
       7.500000       1.401345       1.270480       2.608622
       7.510000       1.403212       1.241263       2.610599
       7.520000       1.402437       1.208657       2.613603
       7.530000       1.399954       1.174318       2.617721
       7.540000       1.396861       1.140207       2.622905
       7.550000       1.394193       1.108294       2.628990
       7.560000       1.392729       1.080249       2.635728
       7.570000       1.392875       1.057178       2.642833
       7.580000       1.394609       1.039446       2.650022
       7.590000       1.397502       1.026628       2.657057
       7.600000       1.400795       1.017594       2.663785
       7.610000       1.403550       1.010730       2.670165
       7.620000       1.404828       1.004231       2.676267
       7.630000       1.403852       0.996407       2.682266
       7.640000       1.400134       0.985940       2.688404
       7.650000       1.393528       0.972054       2.694937
       7.660000       1.384229       0.954590       2.702098
       7.670000       1.372752       0.934034       2.710048
       7.680000       1.359874       0.911484       2.718864
       7.690000       1.346546       0.888550       2.728527
       7.700000       1.333753       0.867152       2.738941
       7.710000       1.322352       0.849220       2.749940
       7.720000       1.312947       0.836376       2.761323
       7.730000       1.305823       0.829695       2.772878
       7.740000       1.300963       0.829608       2.784415
       7.750000       1.298107       0.835968       2.795789
       7.760000       1.296840       0.848203       2.806916
       7.770000       1.296671       0.865520       2.817781
       7.780000       1.297128       0.887071       2.828436
       7.790000       1.297843       0.912074       2.838992
       7.800000       1.298630       0.939871       2.849606
       7.810000       1.299525       0.969917       2.860459
       7.820000       1.300767       1.001739       2.871742
       7.830000       1.302722       1.034865       2.883628
       7.840000       1.305773       1.068770       2.896272
       7.850000       1.310222       1.102861       2.909794
       7.860000       1.316230       1.136506       2.924284
       7.870000       1.323825       1.169105       2.939802
       7.880000       1.332935       1.200185       2.956378
       7.890000       1.343447       1.229497       2.974009
       7.900000       1.355244       1.257080       2.992649
       7.910000       1.368223       1.283268       3.012201
       7.920000       1.382279       1.308591       3.032513
       7.930000       1.397270       1.333618       3.053395
       7.940000       1.412966       1.358759       3.074640
       7.950000       1.429020       1.384119       3.096045
       7.960000       1.444957       1.409433       3.117434
       7.970000       1.460192       1.434072       3.138659
       7.980000       1.474083       1.457120       3.159589
       7.990000       1.486012       1.477477       3.180103
       8.000000       1.495478       1.493973       3.200076
       8.010000       1.502189       1.505503       3.219369
       8.020000       1.506104       1.511154       3.237829
       8.030000       1.507442       1.510348       3.255269
       8.040000       1.506633       1.502962       3.271462
       8.050000       1.504252       1.489421       3.286130
       8.060000       1.500927       1.470706       3.298961
       8.070000       1.497239       1.448234       3.309643
       8.080000       1.493624       1.423599       3.317912
       8.090000       1.490287       1.398229       3.323586
       8.100000       1.487169       1.373049       3.326564
       8.110000       1.483971       1.348283       3.326795
       8.120000       1.480224       1.323476       3.324223
       8.130000       1.475412       1.297725       3.318734
       8.140000       1.469099       1.270065       3.310140
       8.150000       1.461044       1.239868       3.298193
       8.160000       1.451273       1.207111       3.282646
       8.170000       1.440083       1.172447       3.263328
       8.180000       1.427993       1.137082       3.240225
       8.190000       1.415676       1.102529       3.213530
       8.200000       1.403887       1.070347       3.183646
       8.210000       1.393422       1.041936       3.151139
       8.220000       1.385081       1.018407       3.116653
       8.230000       1.379608       1.000520       3.080842
       8.240000       1.377596       0.988647       3.044320
       8.250000       1.379357       0.982770       3.007670
       8.260000       1.384832       0.982506       2.971487
       8.270000       1.393568       0.987197       2.936421
       8.280000       1.404810       0.996057       2.903193
       8.290000       1.417645       1.008322       2.872544
       8.300000       1.431177       1.023376       2.845151
       8.310000       1.444674       1.040803       2.821516
       8.320000       1.457645       1.060370       2.801899
       8.330000       1.469871       1.081934       2.786300
       8.340000       1.481381       1.105311       2.774513
       8.350000       1.492405       1.130155       2.766203
       8.360000       1.503325       1.155886       2.761012
       8.370000       1.514618       1.181684       2.758630
       8.380000       1.526784       1.206549       2.758844
       8.390000       1.540246       1.229393       2.761539
       8.400000       1.555236       1.249129       2.766660
       8.410000       1.571707       1.264752       2.774138
       8.420000       1.589295       1.275427       2.783829
       8.430000       1.607352       1.280563       2.795471
       8.440000       1.625048       1.279897       2.808702
       8.450000       1.641483       1.273544       2.823107
       8.460000       1.655807       1.261995       2.838280
       8.470000       1.667299       1.246079       2.853848
       8.480000       1.675436       1.226903       2.869478
       8.490000       1.679936       1.205805       2.884844
       8.500000       1.680785       1.184300       2.899602
       8.510000       1.678235       1.163985       2.913395
       8.520000       1.672764       1.146355       2.925882
       8.530000       1.664998       1.132567       2.936795
       8.540000       1.655629       1.123240       2.945999
       8.550000       1.645310       1.118364       2.953524
       8.560000       1.634546       1.117361       2.959574
       8.570000       1.623579       1.119247       2.964487
       8.580000       1.612316       1.122853       2.968683
       8.590000       1.600364       1.127047       2.972598
       8.600000       1.587187       1.130931       2.976622
       8.610000       1.572370       1.133990       2.981048
       8.620000       1.555863       1.136181       2.986047
       8.630000       1.538110       1.137943       2.991658
       8.640000       1.519989       1.140129       2.997827
       8.650000       1.502585       1.143850       3.004468
       8.660000       1.486909       1.150274       3.011530
       8.670000       1.473660       1.160422       3.019028
       8.680000       1.463112       1.174988       3.027029
       8.690000       1.455132       1.194222       3.035607
       8.700000       1.449300       1.217885       3.044790
       8.710000       1.445050       1.245285       3.054532
       8.720000       1.441794       1.275357       3.064707
       8.730000       1.438999       1.306763       3.075110
       8.740000       1.436233       1.337978       3.085451
       8.750000       1.433166       1.367354       3.095341
       8.760000       1.429516       1.393164       3.104296
       8.770000       1.424945       1.413664       3.111783
       8.780000       1.418964       1.427209       3.117288
       8.790000       1.410910       1.432414       3.120419
       8.800000       1.400029       1.428359       3.120973
       8.810000       1.385637       1.414787       3.118974
       8.820000       1.367278       1.392215       3.114646
       8.830000       1.344794       1.361901       3.108354
       8.840000       1.318271       1.325629       3.100533
       8.850000       1.287875       1.285370       3.091618
       8.860000       1.253677       1.242920       3.081993
       8.870000       1.215559       1.199679       3.071938
       8.880000       1.173282       1.156599       3.061609
       8.890000       1.126696       1.114298       3.051041
       8.900000       1.076013       1.073218       3.040191
       8.910000       1.022031       1.033764       3.029009
       8.920000       0.966204       0.996373       3.017503
       8.930000       0.910483       0.961524       3.005767
       8.940000       0.856986       0.929721       2.993964
       8.950000       0.807583       0.901452       2.982293
       8.960000       0.763576       0.877134       2.970978
       8.970000       0.725532       0.857020       2.960294
       8.980000       0.693305       0.841067       2.950611
       8.990000       0.666186       0.828817       2.942397
       9.000000       0.643111       0.819356       2.936156
       9.010000       0.622854       0.811388       2.932298
       9.020000       0.604164       0.803455       2.931005
       9.030000       0.585843       0.794238       2.932162
       9.040000       0.566818       0.782879       2.935390
       9.050000       0.546229       0.769196       2.940161
       9.060000       0.523536       0.753740       2.945945
       9.070000       0.498598       0.737633       2.952319
       9.080000       0.471666       0.722241       2.959033
       9.090000       0.443280       0.708783       2.966006
       9.100000       0.414086       0.698000       2.973290
       9.110000       0.384648       0.689966       2.981007
       9.120000       0.355303       0.684079       2.989269
       9.130000       0.326127       0.679217       2.998081
       9.140000       0.297021       0.674016       3.007251
       9.150000       0.267869       0.667207       3.016338
       9.160000       0.238727       0.657907       3.024673
       9.170000       0.209943       0.645810       3.031490
       9.180000       0.182184       0.631204       3.036126
       9.190000       0.156353       0.614827       3.038245
       9.200000       0.133461       0.597630       3.038011
       9.210000       0.114483       0.580537       3.036136
       9.220000       0.100251       0.564297       3.033795
       9.230000       0.091376       0.549433       3.032403
       9.240000       0.088209       0.536259       3.033358
       9.250000       0.090819       0.524920       3.037823
       9.260000       0.098984       0.515426       3.046632
       9.270000       0.112222       0.507710       3.060305
       9.280000       0.129838       0.501713       3.079129
       9.290000       0.151001       0.497473       3.103242
       9.300000       0.174812       0.495173       3.132701
       9.310000       0.200361       0.495128       3.167496
       9.320000       0.226757       0.497700       3.207562
       9.330000       0.253134       0.503186       3.252756
       9.340000       0.278659       0.511706       3.302845
       9.350000       0.302522       0.523120       3.357465
       9.360000       0.323950       0.536975       3.416085
       9.370000       0.342227       0.552495       3.477944
       9.380000       0.356750       0.568617       3.541990
       9.390000       0.367082       0.584080       3.606804
       9.400000       0.373008       0.597558       3.670555
       9.410000       0.374546       0.607833       3.730975
       9.420000       0.371935       0.613967       3.785345
       9.430000       0.365595       0.615458       3.830502
       9.440000       0.356077       0.612315       3.862850
       9.450000       0.344018       0.605031       3.878427
       9.460000       0.330086       0.594456       3.873044
       9.470000       0.314923       0.581597       3.842584
       9.480000       0.299079       0.567429       3.783484
       9.490000       0.282952       0.552766       3.693384
       9.500000       0.266758       0.538225       3.571792
       9.510000       0.250564       0.524266       3.420545
       9.520000       0.234372       0.511281       3.243822
       9.530000       0.218248       0.499683       3.047652
       9.540000       0.202408       0.489945       2.839073
       9.550000       0.187252       0.482568       2.625221
       9.560000       0.173295       0.478010       2.412620
       9.570000       0.161065       0.476592       2.206778
       9.580000       0.150990       0.478448       2.012061
       9.590000       0.143319       0.483516       1.831733
       9.600000       0.138101       0.491550       1.668069
       9.610000       0.135205       0.502146       1.522477
       9.620000       0.134399       0.514785       1.395552
       9.630000       0.135432       0.528884       1.287048
       9.640000       0.138107       0.543873       1.195819
       9.650000       0.142307       0.559269       1.119877
       9.660000       0.147977       0.574745       1.056673
       9.670000       0.155086       0.590165       1.003533
       9.680000       0.163599       0.605575       0.958101
       9.690000       0.173455       0.621141       0.918572
       9.700000       0.184572       0.637051       0.883656
       9.710000       0.196851       0.653413       0.852366
       9.720000       0.210188       0.670186       0.823800
       9.730000       0.224481       0.687178       0.797069
       9.740000       0.239630       0.704082       0.771409
       9.750000       0.255512       0.720530       0.746427
       9.760000       0.271954       0.736153       0.722348
       9.770000       0.288700       0.750617       0.700132
       9.780000       0.305398       0.763669       0.681338
       9.790000       0.321610       0.775179       0.667759
       9.800000       0.336849       0.785164       0.660919
       9.810000       0.350626       0.793768       0.661646
       9.820000       0.362492       0.801180       0.669842
       9.830000       0.372081       0.807542       0.684498
       9.840000       0.379161       0.812875       0.703911
       9.850000       0.383681       0.817101       0.726016
       9.860000       0.385800       0.820133       0.748775
       9.870000       0.385886       0.822011       0.770553
       9.880000       0.384463       0.823020       0.790414
       9.890000       0.382130       0.823735       0.808273
       9.900000       0.379467       0.824953       0.824849
       9.910000       0.376954       0.827553       0.841409
       9.920000       0.374918       0.832304       0.859365
       9.930000       0.373513       0.839715       0.879860
       9.940000       0.372737       0.849963       0.903458
       9.950000       0.372478       0.862915       0.930035
       9.960000       0.372569       0.878230       0.958834
       9.970000       0.372840       0.895488       0.988647
       9.980000       0.373149       0.914306       1.018032
       9.990000       0.373396       0.934408       1.045517
      10.000000       0.373522       0.955628       1.069749
      10.010000       0.373500       0.977869       1.089578
      10.020000       0.373321       1.001054       1.104110
      10.030000       0.372983       1.025081       1.112784
      10.040000       0.372494       1.049811       1.115498
      10.050000       0.371883       1.075079       1.112756
      10.060000       0.371204       1.100713       1.105730
      10.070000       0.370523       1.126562       1.096151
      10.080000       0.369896       1.152510       1.085997
      10.090000       0.369351       1.178471       1.077070
      10.100000       0.368909       1.204374       1.070590
      10.110000       0.368629       1.230122       1.066970
      10.120000       0.368664       1.255563       1.065815
      10.130000       0.369289       1.280452       1.066141
      10.140000       0.370868       1.304432       1.066718
      10.150000       0.373786       1.327018       1.066439
      10.160000       0.378350       1.347611       1.064629
      10.170000       0.384714       1.365544       1.061225
      10.180000       0.392838       1.380153       1.056793
      10.190000       0.402496       1.390878       1.052367
      10.200000       0.413315       1.397357       1.049164
      10.210000       0.424841       1.399487       1.048268
      10.220000       0.436604       1.397426       1.050365
      10.230000       0.448170       1.391502       1.055614
      10.240000       0.459158       1.382043       1.063631
      10.250000       0.469235       1.369173       1.073582
      10.260000       0.478097       1.352662       1.084319
      10.270000       0.485460       1.331870       1.094562
      10.280000       0.491065       1.305839       1.103116
      10.290000       0.494702       1.273506       1.109101
      10.300000       0.496236       1.234021       1.112161
      10.310000       0.495637       1.187109       1.112566
      10.320000       0.493007       1.133389       1.111151
      10.330000       0.488594       1.074538       1.109079
      10.340000       0.482815       1.013218       1.107490
      10.350000       0.476249       0.952754       1.107190
      10.360000       0.469601       0.896669       1.108488
      10.370000       0.463646       0.848208       1.111228
      10.380000       0.459126       0.809947       1.114978
      10.390000       0.456664       0.783553       1.119256
      10.400000       0.456677       0.769704       1.123698
      10.410000       0.459342       0.768153       1.128125
      10.420000       0.464592       0.777914       1.132498
      10.430000       0.472154       0.797500       1.136822
      10.440000       0.481603       0.825170       1.141040
      10.450000       0.492428       0.859139       1.144956
      10.460000       0.504099       0.897709       1.148227
      10.470000       0.516132       0.939339       1.150413
      10.480000       0.528121       0.982640       1.151091
      10.490000       0.539763       1.026334       1.150005
      10.500000       0.550842       1.069189       1.147194
      10.510000       0.561226       1.109986       1.143027
      10.520000       0.570853       1.147526       1.138110
      10.530000       0.579739       1.180688       1.133080
      10.540000       0.587983       1.208531       1.128368
      10.550000       0.595749       1.230410       1.124020
      10.560000       0.603254       1.246062       1.119649
      10.570000       0.610723       1.255630       1.114528
      10.580000       0.618366       1.259593       1.107771
      10.590000       0.626346       1.258637       1.098559
      10.600000       0.634766       1.253499       1.086336
      10.610000       0.643644       1.244841       1.070919
      10.620000       0.652912       1.233162       1.052521
      10.630000       0.662415       1.218738       1.031676
      10.640000       0.671938       1.201567       1.009123
      10.650000       0.681240       1.181346       0.985708
      10.660000       0.690093       1.157488       0.962317
      10.670000       0.698305       1.129215       0.939862
      10.680000       0.705738       1.095712       0.919274
      10.690000       0.712317       1.056339       0.901450
      10.700000       0.718052       1.010870       0.887141
      10.710000       0.723048       0.959743       0.876792
      10.720000       0.727495       0.904198       0.870398
      10.730000       0.731626       0.846211       0.867415
      10.740000       0.735639       0.788166       0.866784
      10.750000       0.739610       0.732318       0.867063
      10.760000       0.743448       0.680233       0.866662
      10.770000       0.746883       0.632407       0.864122
      10.780000       0.749518       0.588196       0.858383
      10.790000       0.750914       0.546037       0.848976
      10.800000       0.750685       0.503874       0.836080
      10.810000       0.748567       0.459657       0.820436
      10.820000       0.744454       0.411793       0.803142
      10.830000       0.738396       0.359488       0.785410
      10.840000       0.730584       0.302916       0.768339
      10.850000       0.721339       0.243217       0.752795
      10.860000       0.711115       0.182333       0.739366
      10.870000       0.700494       0.122714       0.728375
      10.880000       0.690162       0.066943       0.719891
      10.890000       0.680848       0.017361       0.713735
      10.900000       0.673239      -0.024247       0.709501
      10.910000       0.667899      -0.056842       0.706608
      10.920000       0.665198      -0.080177       0.704413
      10.930000       0.665285      -0.094737       0.702332
      10.940000       0.668097      -0.101607       0.699944
      10.950000       0.673406      -0.102290       0.697041
      10.960000       0.680895      -0.098513       0.693616
      10.970000       0.690228      -0.092033       0.689824
      10.980000       0.701102      -0.084461       0.685935
      10.990000       0.713265      -0.077129       0.682317
      11.000000       0.726492      -0.071004       0.679417
      11.010000       0.740557      -0.066648       0.677749
      11.020000       0.755209      -0.064234       0.677855
      11.030000       0.770160      -0.063631       0.680225
      11.040000       0.785100      -0.064545       0.685219
      11.050000       0.799719      -0.066671       0.693000
      11.060000       0.813737      -0.069797       0.703507
      11.070000       0.826941      -0.073806       0.716480
      11.080000       0.839201      -0.078578       0.731513
      11.090000       0.850480      -0.083832       0.748122
      11.100000       0.860800      -0.089014       0.765810
      11.110000       0.870200      -0.093279       0.784108
      11.120000       0.878684      -0.095608       0.802615
      11.130000       0.886199      -0.095015       0.821019
      11.140000       0.892638      -0.090765       0.839109
      11.150000       0.897872      -0.082548       0.856742
      11.160000       0.901791      -0.070543       0.873782
      11.170000       0.904333      -0.055388       0.890017
      11.180000       0.905486      -0.038077       0.905099
      11.190000       0.905284      -0.019838       0.918559
      11.200000       0.903779      -0.001994       0.929874
      11.210000       0.901007       0.014163       0.938619
      11.220000       0.896963       0.027518       0.944611
      11.230000       0.891592       0.037245       0.948026
      11.240000       0.884803       0.042905       0.949418
      11.250000       0.876516       0.044474       0.949629
      11.260000       0.866719       0.042308       0.949620
      11.270000       0.855533       0.037065       0.950279
      11.280000       0.843263       0.029595       0.952266
      11.290000       0.830406       0.020843       0.955938
      11.300000       0.817611       0.011775       0.961335
      11.310000       0.805586       0.003318       0.968229
      11.320000       0.794978      -0.003692       0.976204
      11.330000       0.786261      -0.008601       0.984760
      11.340000       0.779672      -0.011041       0.993412
      11.350000       0.775221      -0.011025       1.001773
      11.360000       0.772748      -0.008957       1.009571
      11.370000       0.772011      -0.005546       1.016639
      11.380000       0.772769      -0.001628       1.022833
      11.390000       0.774836       0.002032       1.027952
      11.400000       0.778099       0.004893       1.031668
      11.410000       0.782506       0.006692       1.033504
      11.420000       0.788029       0.007429       1.032857
      11.430000       0.794631       0.007289       1.029053
      11.440000       0.802233       0.006563       1.021373
      11.450000       0.810713       0.005579       1.009048
      11.460000       0.819918       0.004624       0.991215
      11.470000       0.829687       0.003894       0.966889
      11.480000       0.839859       0.003442       0.934992
      11.490000       0.850277       0.003183       0.894483
      11.500000       0.860774       0.002932       0.844566
      11.510000       0.871170       0.002491       0.784918
      11.520000       0.881270       0.001730       0.715833
      11.530000       0.890874       0.000656       0.638218
      11.540000       0.899784      -0.000578       0.553425
      11.550000       0.907827      -0.001732       0.463011
      11.560000       0.914869      -0.002569       0.368534
      11.570000       0.920859      -0.002954       0.271455
      11.580000       0.925863      -0.002892       0.173155
      11.590000       0.930088      -0.002518       0.075008
      11.600000       0.933865      -0.002035      -0.021575
      11.610000       0.937597      -0.001629      -0.115145
      11.620000       0.941680      -0.001387      -0.204268
      11.630000       0.946426      -0.001229      -0.287573
      11.640000       0.952019      -0.000886      -0.363794
      11.650000       0.958513       0.000072      -0.431797
      11.660000       0.965864       0.002144      -0.490622
      11.670000       0.973970       0.005767      -0.539567
      11.680000       0.982722       0.011192      -0.578283
      11.690000       0.992024       0.018410      -0.606835
      11.700000       1.001805       0.027130      -0.625695
      11.710000       1.012009       0.036815      -0.635644
      11.720000       1.022590       0.046744      -0.637627
      11.730000       1.033510       0.056073      -0.632621
      11.740000       1.044737       0.063907      -0.621549
      11.750000       1.056259       0.069377      -0.605261
      11.760000       1.068083       0.071721      -0.584550
      11.770000       1.080224       0.070383      -0.560195
      11.780000       1.092676       0.065106      -0.532981
      11.790000       1.105380       0.056026      -0.503707
      11.800000       1.118207       0.043736      -0.473160
      11.810000       1.130950       0.029287      -0.442094
      11.820000       1.143339       0.014079      -0.411197
      11.830000       1.155070      -0.000354      -0.381060
      11.840000       1.165819      -0.012612      -0.352162
      11.850000       1.175263      -0.021670      -0.324842
      11.860000       1.183094      -0.027012      -0.299300
      11.870000       1.189038      -0.028626      -0.275630
      11.880000       1.192876      -0.026912      -0.253881
      11.890000       1.194474      -0.022515      -0.234144
      11.900000       1.193797      -0.016176      -0.216615
      11.910000       1.190916      -0.008617      -0.201601
      11.920000       1.185982      -0.000477      -0.189447
      11.930000       1.179198       0.007692      -0.180413
      11.940000       1.170780       0.015420      -0.174539
      11.950000       1.160940       0.022321      -0.171555
      11.960000       1.149873       0.028112      -0.170872
      11.970000       1.137776       0.032642      -0.171644
      11.980000       1.124871       0.035901      -0.172896
      11.990000       1.111442       0.038016      -0.173668
      12.000000       1.097834       0.039224      -0.173164
      12.010000       1.084416       0.039855      -0.170878
      12.020000       1.071477       0.040318      -0.166663
      12.030000       1.059132       0.041081      -0.160742
      12.040000       1.047261       0.042632      -0.153639
      12.050000       1.035549       0.045421      -0.146072
      12.060000       1.023610       0.049807      -0.138828
      12.070000       1.011147       0.056025      -0.132662
      12.080000       0.998085       0.064192      -0.128212
      12.090000       0.984618       0.074322      -0.125960
      12.100000       0.971146       0.086342      -0.126202
      12.110000       0.958163       0.100092      -0.129041
      12.120000       0.946138       0.115323      -0.134386
      12.130000       0.935447       0.131708      -0.141969
      12.140000       0.926359       0.148867      -0.151378
      12.150000       0.919059       0.166402      -0.162110
      12.160000       0.913666       0.183931      -0.173650
      12.170000       0.910235       0.201102      -0.185545
      12.180000       0.908746       0.217599      -0.197461
      12.190000       0.909086       0.233135      -0.209185
      12.200000       0.911070       0.247452      -0.220592
      12.210000       0.914469       0.260320      -0.231562
      12.220000       0.919046       0.271566      -0.241918
      12.230000       0.924568       0.281088      -0.251410
      12.240000       0.930784       0.288886      -0.259761
      12.250000       0.937391       0.295066      -0.266750
      12.260000       0.943998       0.299841      -0.272300
      12.270000       0.950136       0.303518      -0.276532
      12.280000       0.955286       0.306488      -0.279769
      12.290000       0.958918       0.309198      -0.282497
      12.300000       0.960533       0.312130      -0.285289
      12.310000       0.959694       0.315750      -0.288692
      12.320000       0.956058       0.320462      -0.293119
      12.330000       0.949415       0.326560      -0.298753
      12.340000       0.939733       0.334193      -0.305508
      12.350000       0.927206       0.343359      -0.313057
      12.360000       0.912294       0.353916      -0.320904
      12.370000       0.895750       0.365615      -0.328498
      12.380000       0.878604       0.378137      -0.335322
      12.390000       0.862077       0.391127      -0.340960
      12.400000       0.847427       0.404229      -0.345144
      12.410000       0.835759       0.417112      -0.347766
      12.420000       0.827858       0.429492      -0.348887
      12.430000       0.824092       0.441139      -0.348712
      12.440000       0.824414       0.451880      -0.347551
      12.450000       0.828455       0.461595      -0.345737
      12.460000       0.835657       0.470214      -0.343543
      12.470000       0.845417       0.477717      -0.341118
      12.480000       0.857183       0.484126      -0.338464
      12.490000       0.870498       0.489490      -0.335471
      12.500000       0.884982       0.493868      -0.331975
      12.510000       0.900291       0.497290      -0.327816
      12.520000       0.916071       0.499740      -0.322873
      12.530000       0.931931       0.501154      -0.317081
      12.540000       0.947454       0.501449      -0.310428
      12.550000       0.962223       0.500584      -0.302952
      12.560000       0.975858       0.498625      -0.294728
      12.570000       0.988052       0.495799      -0.285857
      12.580000       0.998591       0.492495      -0.276454
      12.590000       1.007363       0.489215      -0.266643
      12.600000       1.014357       0.486477      -0.256558
      12.610000       1.019638       0.484733      -0.246349
      12.620000       1.023333       0.484316      -0.236193
      12.630000       1.025612       0.485445      -0.226291
      12.640000       1.026699       0.488245      -0.216868
      12.650000       1.026880       0.492779      -0.208149
      12.660000       1.026505       0.499054      -0.200322
      12.670000       1.025966       0.507010      -0.193496
      12.680000       1.025652       0.516511      -0.187655
      12.690000       1.025900       0.527334      -0.182652
      12.700000       1.026970       0.539174      -0.178225
      12.710000       1.029027       0.551659      -0.174062
      12.720000       1.032146       0.564371      -0.169875
      12.730000       1.036297       0.576874      -0.165461
      12.740000       1.041332       0.588734      -0.160726
      12.750000       1.046953       0.599541      -0.155672
      12.760000       1.052694       0.608919      -0.150360
      12.770000       1.057942       0.616546      -0.144887
      12.780000       1.061991       0.622162      -0.139376
      12.790000       1.064170       0.625584      -0.133975
      12.800000       1.063982       0.626720      -0.128862
      12.810000       1.061238       0.625584      -0.124231
      12.820000       1.056130       0.622302      -0.120263
      12.830000       1.049208       0.617115      -0.117097
      12.840000       1.041259       0.610373      -0.114800
      12.850000       1.033151       0.602525      -0.113372
      12.860000       1.025670       0.594073      -0.112752
      12.870000       1.019409       0.585529      -0.112841
      12.880000       1.014728       0.577333      -0.113508
      12.890000       1.011750       0.569789      -0.114584
      12.900000       1.010407       0.563018      -0.115839
      12.910000       1.010499       0.556947      -0.116971
      12.920000       1.011761       0.551327      -0.117603
      12.930000       1.013899       0.545780      -0.117323
      12.940000       1.016622       0.539864      -0.115752
      12.950000       1.019632       0.533145      -0.112631
      12.960000       1.022623       0.525270      -0.107888
      12.970000       1.025289       0.516029      -0.101659
      12.980000       1.027352       0.505384      -0.094247
      12.990000       1.028605       0.493455      -0.086040
      13.000000       1.028943       0.480456      -0.077423
      13.010000       1.028348       0.466600      -0.068706
      13.020000       1.026841       0.452004      -0.060090
      13.030000       1.024401       0.436641      -0.051680
      13.040000       1.020906       0.420358      -0.043516
      13.050000       1.016127       0.402970      -0.035617
      13.060000       1.009793       0.384375      -0.028013
      13.070000       1.001719       0.364644      -0.020738
      13.080000       0.991926       0.344037      -0.013816
      13.090000       0.980693       0.322950      -0.007238
      13.100000       0.968495       0.301836      -0.000963
      13.110000       0.955848       0.281143       0.005059
      13.120000       0.943122       0.261320       0.010859
      13.130000       0.930431       0.242843       0.016418
      13.140000       0.917634       0.226241       0.021682
      13.150000       0.904429       0.212059       0.026579
      13.160000       0.890472       0.200771       0.031058
      13.170000       0.875452       0.192676       0.035119
      13.180000       0.859144       0.187806       0.038826
      13.190000       0.841434       0.185913       0.042303
      13.200000       0.822369       0.186495       0.045715
      13.210000       0.802178       0.188880       0.049229
      13.220000       0.781235       0.192317       0.052975
      13.230000       0.759943       0.196072       0.057026
      13.240000       0.738578       0.199512       0.061395
      13.250000       0.717181       0.202146       0.066060
      13.260000       0.695544       0.203649       0.070999
      13.270000       0.673309       0.203857       0.076220
      13.280000       0.650116       0.202743       0.081759
      13.290000       0.625754       0.200389       0.087660
      13.300000       0.600261       0.196946       0.093929
      13.310000       0.573984       0.192589       0.100499
      13.320000       0.547582       0.187477       0.107216
      13.330000       0.521985       0.181720       0.113862
      13.340000       0.498279       0.175369       0.120198
      13.350000       0.477554       0.168425       0.126015
      13.360000       0.460728       0.160892       0.131164
      13.370000       0.448394       0.152841       0.135566
      13.380000       0.440746       0.144464       0.139193
      13.390000       0.437590       0.136099       0.142049
      13.400000       0.438439       0.128203       0.144157
      13.410000       0.442626       0.121278       0.145559
      13.420000       0.449417       0.115794       0.146338
      13.430000       0.458068       0.112117       0.146627
      13.440000       0.467852       0.110474       0.146604
      13.450000       0.478050       0.110931       0.146471
      13.460000       0.487955       0.113403       0.146427
      13.470000       0.496882       0.117670       0.146658
      13.480000       0.504227       0.123399       0.147321
      13.490000       0.509530       0.130180       0.148549
      13.500000       0.512553       0.137560       0.150448
      13.510000       0.513327       0.145091       0.153103
      13.520000       0.512149       0.152370       0.156575
      13.530000       0.509509       0.159070       0.160900
      13.540000       0.505958       0.164964       0.166079
      13.550000       0.501922       0.169939       0.172059
      13.560000       0.497561       0.173984       0.178708
      13.570000       0.492704       0.177181       0.185812
      13.580000       0.486892       0.179671       0.193074
      13.590000       0.479501       0.181621       0.200151
      13.600000       0.469911       0.183195       0.206698
      13.610000       0.457654       0.184539       0.212430
      13.620000       0.442508       0.185777       0.217164
      13.630000       0.424533       0.187026       0.220852
      13.640000       0.404071       0.188394       0.223571
      13.650000       0.381728       0.189995       0.225488
      13.660000       0.358363       0.191941       0.226807
      13.670000       0.335065       0.194345       0.227717
      13.680000       0.313080       0.197312       0.228344
      13.690000       0.293685       0.200939       0.228742
      13.700000       0.278017       0.205305       0.228907
      13.710000       0.266900       0.210459       0.228820
      13.720000       0.260727       0.216404       0.228494
      13.730000       0.259431       0.223086       0.228023
      13.740000       0.262558       0.230392       0.227584
      13.750000       0.269401       0.238162       0.227420
      13.760000       0.279155       0.246206       0.227793
      13.770000       0.291044       0.254331       0.228934
      13.780000       0.304403       0.262363       0.230993
      13.790000       0.318691       0.270169       0.234019
      13.800000       0.333474       0.277673       0.237970
      13.810000       0.348381       0.284862       0.242733
      13.820000       0.363069       0.291777       0.248158
      13.830000       0.377215       0.298495       0.254094
      13.840000       0.390530       0.305108       0.260404
      13.850000       0.402803       0.311696       0.266985
      13.860000       0.413941       0.318311       0.273776
      13.870000       0.424005       0.324976       0.280760
      13.880000       0.433210       0.331691       0.287953
      13.890000       0.441887       0.338454       0.295390
      13.900000       0.450417       0.345270       0.303099
      13.910000       0.459160       0.352161       0.311075
      13.920000       0.468389       0.359157       0.319261
      13.930000       0.478252       0.366281       0.327539
      13.940000       0.488758       0.373533       0.335735
      13.950000       0.499778       0.380882       0.343632
      13.960000       0.511080       0.388271       0.351005
      13.970000       0.522363       0.395625       0.357646
      13.980000       0.533312       0.402861       0.363403
      13.990000       0.543647       0.409900       0.368213
      14.000000       0.553147       0.416671       0.372112
      14.010000       0.561647       0.423116       0.375236
      14.020000       0.569012       0.429198       0.377796
      14.030000       0.575104       0.434898       0.380029
      14.040000       0.579771       0.440211       0.382156
      14.050000       0.582828       0.445131       0.384349
      14.060000       0.584056       0.449637       0.386720
      14.070000       0.583185       0.453676       0.389342
      14.080000       0.579898       0.457165       0.392263
      14.090000       0.573863       0.459998       0.395535
      14.100000       0.564810       0.462075       0.399223
      14.110000       0.552628       0.463322       0.403407
      14.120000       0.537439       0.463724       0.408170
      14.130000       0.519607       0.463333       0.413588
      14.140000       0.499697       0.462256       0.419706
      14.150000       0.478411       0.460624       0.426522
      14.160000       0.456556       0.458550       0.433974
      14.170000       0.435039       0.456092       0.441942
      14.180000       0.414852       0.453233       0.450256
      14.190000       0.397016       0.449890       0.458718
      14.200000       0.382471       0.445941       0.467116
      14.210000       0.371937       0.441274       0.475239
      14.220000       0.365820       0.435830       0.482887
      14.230000       0.364180       0.429633       0.489883
      14.240000       0.366773       0.422798       0.496079
      14.250000       0.373146       0.415515       0.501363
      14.260000       0.382731       0.408016       0.505661
      14.270000       0.394927       0.400547       0.508924
      14.280000       0.409150       0.393358       0.511133
      14.290000       0.424856       0.386708       0.512294
      14.300000       0.441542       0.380870       0.512459
      14.310000       0.458746       0.376116       0.511741
      14.320000       0.476046       0.372676       0.510333
      14.330000       0.493053       0.370688       0.508503
      14.340000       0.509417       0.370154       0.506577
      14.350000       0.524818       0.370932       0.504893
      14.360000       0.538970       0.372760       0.503759
      14.370000       0.551632       0.375300       0.503409
      14.380000       0.562630       0.378202       0.503977
      14.390000       0.571893       0.381160       0.505499
      14.400000       0.579480       0.383954       0.507918
      14.410000       0.585604       0.386474       0.511118
      14.420000       0.590614       0.388724       0.514940
      14.430000       0.594973       0.390808       0.519198
      14.440000       0.599193       0.392903       0.523693
      14.450000       0.603783       0.395209       0.528222
      14.460000       0.609188       0.397911       0.532590
      14.470000       0.615736       0.401134       0.536632
      14.480000       0.623616       0.404934       0.540226
      14.490000       0.632864       0.409292       0.543310
      14.500000       0.643370       0.414141       0.545882
      14.510000       0.654902       0.419388       0.547998
      14.520000       0.667129       0.424940       0.549741
      14.530000       0.679670       0.430719       0.551195
      14.540000       0.692129       0.436657       0.552405
      14.550000       0.704141       0.442686       0.553355
      14.560000       0.715401       0.448728       0.553963
      14.570000       0.725673       0.454686       0.554095
      14.580000       0.734773       0.460463       0.553595
      14.590000       0.742538       0.465967       0.552323
      14.600000       0.748792       0.471135       0.550194
      14.610000       0.753334       0.475935       0.547202
      14.620000       0.755953       0.480365       0.543438
      14.630000       0.756474       0.484445       0.539091
      14.640000       0.754799       0.488202       0.534438
      14.650000       0.750929       0.491665       0.529820
      14.660000       0.744964       0.494863       0.525615
      14.670000       0.737070       0.497835       0.522190
      14.680000       0.727443       0.500637       0.519860
      14.690000       0.716271       0.503341       0.518850
      14.700000       0.703687       0.506022       0.519272
      14.710000       0.689752       0.508735       0.521128
      14.720000       0.674439       0.511503       0.524333
      14.730000       0.657666       0.514312       0.528740
      14.740000       0.639347       0.517127       0.534166
      14.750000       0.619449       0.519901       0.540412
      14.760000       0.598033       0.522589       0.547277
      14.770000       0.575292       0.525138       0.554572
      14.780000       0.551574       0.527485       0.562139
      14.790000       0.527401       0.529548       0.569857
      14.800000       0.503463       0.531235       0.577639
      14.810000       0.480575       0.532467       0.585406
      14.820000       0.459579       0.533217       0.593052
      14.830000       0.441222       0.533525       0.600418
      14.840000       0.426045       0.533501       0.607276
      14.850000       0.414323       0.533300       0.613349
      14.860000       0.406066       0.533096       0.618341
      14.870000       0.401098       0.533041       0.621993
      14.880000       0.399145       0.533259       0.624122
      14.890000       0.399923       0.533827       0.624673
      14.900000       0.403168       0.534777       0.623731
      14.910000       0.408632       0.536087       0.621520
      14.920000       0.416051       0.537685       0.618370
      14.930000       0.425129       0.539466       0.614655
      14.940000       0.435538       0.541310       0.610727
      14.950000       0.446942       0.543116       0.606852
      14.960000       0.459032       0.544829       0.603166
      14.970000       0.471556       0.546450       0.599670
      14.980000       0.484331       0.548041       0.596256
      14.990000       0.497249       0.549706       0.592746
      15.000000       0.510258       0.551568       0.588943
      15.010000       0.523323       0.553748       0.584657
      15.020000       0.536392       0.556343       0.579714
      15.030000       0.549355       0.559417       0.573954
      15.040000       0.562023       0.562978       0.567219
      15.050000       0.574134       0.566977       0.559356
      15.060000       0.585371       0.571302       0.550232
      15.070000       0.595409       0.575789       0.539774
      15.080000       0.603949       0.580246       0.528003
      15.090000       0.610761       0.584469       0.515066
      15.100000       0.615706       0.588261       0.501237
      15.110000       0.618737       0.591433       0.486894
      15.120000       0.619900       0.593807       0.472484
      15.130000       0.619325       0.595227       0.458472
      15.140000       0.617236       0.595575       0.445305
      15.150000       0.613943       0.594792       0.433377
      15.160000       0.609826       0.592903       0.423003
      15.170000       0.605279       0.590024       0.414403
      15.180000       0.600641       0.586354       0.407689
      15.190000       0.596130       0.582143       0.402867
      15.200000       0.591812       0.577669       0.399859
      15.210000       0.587630       0.573196       0.398528
      15.220000       0.583483       0.568964       0.398712
      15.230000       0.579315       0.565175       0.400259
      15.240000       0.575192       0.561989       0.403035
      15.250000       0.571334       0.559529       0.406923
      15.260000       0.568083       0.557875       0.411805
      15.270000       0.565839       0.557061       0.417543
      15.280000       0.564972       0.557060       0.423978
      15.290000       0.565748       0.557782       0.430940
      15.300000       0.568284       0.559084       0.438274
      15.310000       0.572552       0.560787       0.445857
      15.320000       0.578411       0.562719       0.453599
      15.330000       0.585651       0.564739       0.461432
      15.340000       0.594024       0.566757       0.469288
      15.350000       0.603263       0.568720       0.477078
      15.360000       0.613079       0.570595       0.484692
      15.370000       0.623163       0.572339       0.492000
      15.380000       0.633189       0.573887       0.498864
      15.390000       0.642812       0.575148       0.505150
      15.400000       0.651671       0.576026       0.510746
      15.410000       0.659389       0.576438       0.515581
      15.420000       0.665565       0.576337       0.519641
      15.430000       0.669783       0.575709       0.522992
      15.440000       0.671620       0.574581       0.525781
      15.450000       0.670662       0.573005       0.528230
      15.460000       0.666526       0.571057       0.530604
      15.470000       0.658892       0.568821       0.533169
      15.480000       0.647545       0.566403       0.536148
      15.490000       0.632415       0.563926       0.539676
      15.500000       0.613630       0.561552       0.543794
      15.510000       0.591557       0.559483       0.548450
      15.520000       0.566839       0.557952       0.553532
      15.530000       0.540402       0.557193       0.558914
      15.540000       0.513418       0.557409       0.564489
      15.550000       0.487166       0.558730       0.570210
      15.560000       0.462851       0.561193       0.576095
      15.570000       0.441406       0.564732       0.582216
      15.580000       0.423377       0.569188       0.588668
      15.590000       0.408906       0.574337       0.595533
      15.600000       0.397788       0.579926       0.602850
      15.610000       0.389579       0.585707       0.610606
      15.620000       0.383702       0.591464       0.618743
      15.630000       0.379565       0.597031       0.627175
      15.640000       0.376668       0.602294       0.635804
      15.650000       0.374696       0.607188       0.644532
      15.660000       0.373569       0.611691       0.653267
      15.670000       0.373425       0.615815       0.661915
      15.680000       0.374543       0.619591       0.670375
      15.690000       0.377221       0.623050       0.678529
      15.700000       0.381663       0.626200       0.686249
      15.710000       0.387900       0.629009       0.693410
      15.720000       0.395772       0.631412       0.699899
      15.730000       0.404960       0.633326       0.705623
      15.740000       0.415045       0.634684       0.710502
      15.750000       0.425569       0.635469       0.714445
      15.760000       0.436096       0.635729       0.717319
      15.770000       0.446250       0.635569       0.718925
      15.780000       0.455738       0.635126       0.719004
      15.790000       0.464357       0.634529       0.717262
      15.800000       0.472002       0.633869       0.713431
      15.810000       0.478664       0.633187       0.707333
      15.820000       0.484436       0.632476       0.698945
      15.830000       0.489500       0.631703       0.688423
      15.840000       0.494108       0.630841       0.676097
      15.850000       0.498539       0.629877       0.662423
      15.860000       0.503049       0.628828       0.647904
      15.870000       0.507839       0.627734       0.633014
      15.880000       0.513027       0.626657       0.618145
      15.890000       0.518658       0.625673       0.603592
      15.900000       0.524708       0.624867       0.589583
      15.910000       0.531109       0.624320       0.576308
      15.920000       0.537765       0.624099       0.563956
      15.930000       0.544552       0.624244       0.552705
      15.940000       0.551319       0.624748       0.542691
      15.950000       0.557885       0.625538       0.533966
      15.960000       0.564041       0.626465       0.526463
      15.970000       0.569573       0.627314       0.519990
      15.980000       0.574282       0.627826       0.514250
      15.990000       0.578023       0.627755       0.508877
      16.000000       0.580716       0.626919       0.503481
      16.010000       0.582359       0.625245       0.497688
      16.020000       0.583020       0.622786       0.491174
      16.030000       0.582818       0.619700       0.483696
      16.040000       0.581895       0.616202       0.475117
      16.050000       0.580387       0.612507       0.465417
      16.060000       0.578408       0.608799       0.454699
      16.070000       0.576046       0.605227       0.443164
      16.080000       0.573375       0.601935       0.431071
      16.090000       0.570469       0.599093       0.418689
      16.100000       0.567404       0.596903       0.406257
      16.110000       0.564258       0.595580       0.393958
      16.120000       0.561105       0.595307       0.381925
      16.130000       0.558019       0.596198       0.370250
      16.140000       0.555075       0.598268       0.359004
      16.150000       0.552362       0.601442       0.348237
      16.160000       0.549972       0.605582       0.337978
      16.170000       0.547976       0.610519       0.328221
      16.180000       0.546381       0.616092       0.318931
      16.190000       0.545084       0.622162       0.310063
      16.200000       0.543857       0.628616       0.301582
      16.210000       0.542373       0.635361       0.293492
      16.220000       0.540265       0.642316       0.285840
      16.230000       0.537212       0.649395       0.278707
      16.240000       0.533022       0.656512       0.272181
      16.250000       0.527694       0.663574       0.266340
      16.260000       0.521434       0.670496       0.261230
      16.270000       0.514626       0.677211       0.256868
      16.280000       0.507755       0.683684       0.253240
      16.290000       0.501326       0.689918       0.250309
      16.300000       0.495776       0.695952       0.248019
      16.310000       0.491418       0.701842       0.246303
      16.320000       0.488427       0.707631       0.245094
      16.330000       0.486849       0.713322       0.244341
      16.340000       0.486641       0.718858       0.244026
      16.350000       0.487707       0.724126       0.244181
      16.360000       0.489928       0.728977       0.244880
      16.370000       0.493166       0.733259       0.246222
      16.380000       0.497265       0.736846       0.248304
      16.390000       0.502050       0.739655       0.251187
      16.400000       0.507322       0.741662       0.254884
      16.410000       0.512877       0.742895       0.259345
      16.420000       0.518515       0.743428       0.264466
      16.430000       0.524048       0.743366       0.270093
      16.440000       0.529303       0.742820       0.276041
      16.450000       0.534114       0.741883       0.282110
      16.460000       0.538310       0.740607       0.288106
      16.470000       0.541713       0.739000       0.293860
      16.480000       0.544146       0.737041       0.299236
      16.490000       0.545452       0.734708       0.304152
      16.500000       0.545521       0.732006       0.308580
      16.510000       0.544317       0.728993       0.312546
      16.520000       0.541912       0.725780       0.316115
      16.530000       0.538501       0.722520       0.319367
      16.540000       0.534403       0.719381       0.322367
      16.550000       0.530030       0.716521       0.325131
      16.560000       0.525832       0.714058       0.327617
      16.570000       0.522216       0.712065       0.329729
      16.580000       0.519492       0.710577       0.331333
      16.590000       0.517821       0.709608       0.332299
      16.600000       0.517212       0.709166       0.332536
      16.610000       0.517518       0.709257       0.332028
      16.620000       0.518471       0.709878       0.330854
      16.630000       0.519725       0.710998       0.329187
      16.640000       0.520914       0.712541       0.327268
      16.650000       0.521710       0.714383       0.325362
      16.660000       0.521884       0.716354       0.323709
      16.670000       0.521332       0.718264       0.322485
      16.680000       0.520092       0.719921       0.321787
      16.690000       0.518312       0.721151       0.321639
      16.700000       0.516217       0.721812       0.322016
      16.710000       0.514054       0.721781       0.322876
      16.720000       0.512049       0.720952       0.324179
      16.730000       0.510392       0.719213       0.325903
      16.740000       0.509219       0.716454       0.328037
      16.750000       0.508628       0.712582       0.330578
      16.760000       0.508683       0.707549       0.333521
      16.770000       0.509422       0.701383       0.336845
      16.780000       0.510866       0.694210       0.340514
      16.790000       0.513017       0.686240       0.344471
      16.800000       0.515860       0.677742       0.348646
      16.810000       0.519364       0.668996       0.352959
      16.820000       0.523487       0.660245       0.357339
      16.830000       0.528178       0.651677       0.361735
      16.840000       0.533386       0.643424       0.366123
      16.850000       0.539062       0.635589       0.370507
      16.860000       0.545164       0.628261       0.374910
      16.870000       0.551645       0.621522       0.379359
      16.880000       0.558431       0.615427       0.383876
      16.890000       0.565396       0.609970       0.388474
      16.900000       0.572340       0.605058       0.393153
      16.910000       0.578989       0.600496       0.397911
      16.920000       0.585017       0.596006       0.402745
      16.930000       0.590084       0.591256       0.407656
      16.940000       0.593874       0.585911       0.412650
      16.950000       0.596142       0.579683       0.417732
      16.960000       0.596736       0.572380       0.422900
      16.970000       0.595617       0.563936       0.428142
      16.980000       0.592856       0.554429       0.433430
      16.990000       0.588625       0.544066       0.438724
      17.000000       0.583182       0.533155       0.443972
      17.010000       0.576846       0.522064       0.449117
      17.020000       0.569987       0.511184       0.454099
      17.030000       0.562988       0.500878       0.458862
      17.040000       0.556225       0.491455       0.463356
      17.050000       0.550025       0.483124       0.467540
      17.060000       0.544649       0.475973       0.471390
      17.070000       0.540280       0.469946       0.474907
      17.080000       0.537014       0.464846       0.478118
      17.090000       0.534868       0.460366       0.481080
      17.100000       0.533787       0.456136       0.483865
      17.110000       0.533656       0.451802       0.486548
      17.120000       0.534318       0.447101       0.489183
      17.130000       0.535595       0.441912       0.491788
      17.140000       0.537298       0.436280       0.494341
      17.150000       0.539244       0.430388       0.496784
      17.160000       0.541249       0.424497       0.499040
      17.170000       0.543136       0.418873       0.501024
      17.180000       0.544737       0.413719       0.502666
      17.190000       0.545918       0.409137       0.503918
      17.200000       0.546601       0.405132       0.504760
      17.210000       0.546796       0.401646       0.505209
      17.220000       0.546608       0.398608       0.505308
      17.230000       0.546237       0.395963       0.505129
      17.240000       0.545941       0.393690       0.504758
      17.250000       0.545999       0.391780       0.504293
      17.260000       0.546662       0.390217       0.503831
      17.270000       0.548118       0.388960       0.503458
      17.280000       0.550466       0.387938       0.503247
      17.290000       0.553707       0.387061       0.503245
      17.300000       0.557741       0.386243       0.503472
      17.310000       0.562384       0.385421       0.503923
      17.320000       0.567395       0.384578       0.504566
      17.330000       0.572500       0.383754       0.505350
      17.340000       0.577435       0.383042       0.506219
      17.350000       0.581974       0.382573       0.507124
      17.360000       0.585952       0.382493       0.508031
      17.370000       0.589271       0.382935       0.508939
      17.380000       0.591902       0.383988       0.509871
      17.390000       0.593874       0.385668       0.510881
      17.400000       0.595272       0.387912       0.512035
      17.410000       0.596217       0.390572       0.513404
      17.420000       0.596847       0.393446       0.515041
      17.430000       0.597290       0.396308       0.516977
      17.440000       0.597628       0.398954       0.519210
      17.450000       0.597888       0.401241       0.521708
      17.460000       0.598031       0.403107       0.524412
      17.470000       0.597964       0.404579       0.527254
      17.480000       0.597547       0.405748       0.530158
      17.490000       0.596602       0.406735       0.533060
      17.500000       0.594917       0.407646       0.535901
      17.510000       0.592279       0.408547       0.538637
      17.520000       0.588509       0.409462       0.541230
      17.530000       0.583527       0.410386       0.543646
      17.540000       0.577414       0.411312       0.545849
      17.550000       0.570452       0.412239       0.547800
      17.560000       0.563106       0.413171       0.549468
      17.570000       0.555959       0.414094       0.550830
      17.580000       0.549594       0.414970       0.551880
      17.590000       0.544491       0.415726       0.552634
      17.600000       0.540950       0.416265       0.553122
      17.610000       0.539080       0.416480       0.553385
      17.620000       0.538817       0.416272       0.553473
      17.630000       0.539973       0.415566       0.553434
      17.640000       0.542280       0.414328       0.553316
      17.650000       0.545426       0.412570       0.553154
      17.660000       0.549085       0.410344       0.552979
      17.670000       0.552939       0.407731       0.552812
      17.680000       0.556699       0.404824       0.552679
      17.690000       0.560122       0.401717       0.552615
      17.700000       0.563018       0.398498       0.552671
      17.710000       0.565258       0.395250       0.552905
      17.720000       0.566774       0.392051       0.553373
      17.730000       0.567568       0.388979       0.554117
      17.740000       0.567712       0.386104       0.555153
      17.750000       0.567341       0.383481       0.556472
      17.760000       0.566636       0.381132       0.558040
      17.770000       0.565800       0.379031       0.559815
      17.780000       0.565035       0.377098       0.561743
      17.790000       0.564529       0.375213       0.563771
      17.800000       0.564431       0.373233       0.565844
      17.810000       0.564841       0.371034       0.567911
      17.820000       0.565795       0.368537       0.569924
      17.830000       0.567261       0.365727       0.571849
      17.840000       0.569146       0.362665       0.573671
      17.850000       0.571306       0.359473       0.575391
      17.860000       0.573564       0.356319       0.577029
      17.870000       0.575725       0.353393       0.578617
      17.880000       0.577595       0.350875       0.580186
      17.890000       0.578994       0.348912       0.581766
      17.900000       0.579784       0.347595       0.583380
      17.910000       0.579880       0.346953       0.585043
      17.920000       0.579281       0.346954       0.586765
      17.930000       0.578074       0.347516       0.588548
      17.940000       0.576426       0.348517       0.590388
      17.950000       0.574550       0.349804       0.592279
      17.960000       0.572661       0.351213       0.594204
      17.970000       0.570931       0.352584       0.596146
      17.980000       0.569463       0.353778       0.598081
      17.990000       0.568288       0.354688       0.599983
      18.000000       0.567383       0.355232       0.601824
      18.010000       0.566698       0.355357       0.603574
      18.020000       0.566187       0.355029       0.605206
      18.030000       0.565820       0.354240       0.606691
      18.040000       0.565590       0.353018       0.608009
      18.050000       0.565501       0.351441       0.609146
      18.060000       0.565546       0.349634       0.610100
      18.070000       0.565703       0.347758       0.610883
      18.080000       0.565930       0.345977       0.611519
      18.090000       0.566187       0.344425       0.612047
      18.100000       0.566458       0.343185       0.612512
      18.110000       0.566773       0.342289       0.612966
      18.120000       0.567204       0.341749       0.613458
      18.130000       0.567857       0.341577       0.614028
      18.140000       0.568834       0.341809       0.614704
      18.150000       0.570216       0.342506       0.615494
      18.160000       0.572045       0.343739       0.616395
      18.170000       0.574315       0.345565       0.617394
      18.180000       0.576970       0.348006       0.618474
      18.190000       0.579890       0.351037       0.619623
      18.200000       0.582892       0.354576       0.620831
      18.210000       0.585737       0.358506       0.622094
      18.220000       0.588164       0.362680       0.623413
      18.230000       0.589926       0.366952       0.624793
      18.240000       0.590837       0.371189       0.626239
      18.250000       0.590805       0.375288       0.627755
      18.260000       0.589840       0.379171       0.629339
      18.270000       0.588033       0.382782       0.630984
      18.280000       0.585529       0.386079       0.632677
      18.290000       0.582494       0.389024       0.634402
      18.300000       0.579107       0.391594       0.636148
      18.310000       0.575557       0.393777       0.637904
      18.320000       0.572054       0.395589       0.639666
      18.330000       0.568834       0.397074       0.641432
      18.340000       0.566141       0.398307       0.643204
      18.350000       0.564203       0.399389       0.644987
      18.360000       0.563194       0.400438       0.646781
      18.370000       0.563212       0.401572       0.648589
      18.380000       0.564257       0.402886       0.650402
      18.390000       0.566237       0.404439       0.652208
      18.400000       0.568984       0.406244       0.653989
      18.410000       0.572281       0.408275       0.655727
      18.420000       0.575894       0.410479       0.657404
      18.430000       0.579600       0.412790       0.659011
      18.440000       0.583199       0.415147       0.660546
      18.450000       0.586527       0.417507       0.662017
      18.460000       0.589460       0.419844       0.663439
      18.470000       0.591902       0.422149       0.664831
      18.480000       0.593789       0.424423       0.666210
      18.490000       0.595072       0.426657       0.667586
      18.500000       0.595708       0.428823       0.668960
      18.510000       0.595644       0.430877       0.670324
      18.520000       0.594801       0.432756       0.671667
      18.530000       0.593077       0.434397       0.672982
      18.540000       0.590358       0.435746       0.674270
      18.550000       0.586558       0.436774       0.675543
      18.560000       0.581652       0.437484       0.676819
      18.570000       0.575710       0.437911       0.678116
      18.580000       0.568913       0.438115       0.679443
      18.590000       0.561548       0.438172       0.680799
      18.600000       0.553981       0.438158       0.682169
      18.610000       0.546614       0.438142       0.683533
      18.620000       0.539840       0.438177       0.684875
      18.630000       0.533993       0.438298       0.686184
      18.640000       0.529308       0.438531       0.687464
      18.650000       0.525891       0.438887       0.688729
      18.660000       0.523716       0.439372       0.690002
      18.670000       0.522637       0.439983       0.691306
      18.680000       0.522424       0.440707       0.692662
      18.690000       0.522800       0.441529       0.694082
      18.700000       0.523484       0.442432       0.695564
      18.710000       0.524233       0.443405       0.697099
      18.720000       0.524860       0.444447       0.698666
      18.730000       0.525252       0.445571       0.700243
      18.740000       0.525362       0.446803       0.701811
      18.750000       0.525195       0.448176       0.703357
      18.760000       0.524793       0.449726       0.704875
      18.770000       0.524226       0.451480       0.706364
      18.780000       0.523581       0.453451       0.707824
      18.790000       0.522945       0.455629       0.709260
      18.800000       0.522381       0.457981       0.710680
      18.810000       0.521901       0.460457       0.712099
      18.820000       0.521451       0.462997       0.713543
      18.830000       0.520908       0.465539       0.715039
      18.840000       0.520111       0.468038       0.716613
      18.850000       0.518893       0.470460       0.718283
      18.860000       0.517124       0.472791       0.720049
      18.870000       0.514743       0.475029       0.721896
      18.880000       0.511785       0.477183       0.723796
      18.890000       0.508371       0.479261       0.725709
      18.900000       0.504694       0.481275       0.727590
      18.910000       0.500984       0.483236       0.729400
      18.920000       0.497474       0.485152       0.731102
      18.930000       0.494363       0.487033       0.732671
      18.940000       0.491786       0.488887       0.734092
      18.950000       0.489790       0.490712       0.735364
      18.960000       0.488340       0.492503       0.736499
      18.970000       0.487325       0.494243       0.737523
      18.980000       0.486592       0.495913       0.738463
      18.990000       0.485981       0.497494       0.739348
      19.000000       0.485351       0.498969       0.740198
      19.010000       0.484605       0.500327       0.741017
      19.020000       0.483693       0.501566       0.741801
      19.030000       0.482611       0.502689       0.742536
      19.040000       0.481388       0.503713       0.743214
      19.050000       0.480077       0.504657       0.743837
      19.060000       0.478745       0.505544       0.744424
      19.070000       0.477476       0.506394       0.745007
      19.080000       0.476354       0.507222       0.745632
      19.090000       0.475450       0.508042       0.746349
      19.100000       0.474802       0.508863       0.747203
      19.110000       0.474407       0.509694       0.748233
      19.120000       0.474215       0.510538       0.749461
      19.130000       0.474150       0.511388       0.750892
      19.140000       0.474127       0.512220       0.752513
      19.150000       0.474076       0.512997       0.754294
      19.160000       0.473961       0.513680       0.756192
      19.170000       0.473788       0.514238       0.758161
      19.180000       0.473599       0.514659       0.760151
      19.190000       0.473460       0.514955       0.762119
      19.200000       0.473438       0.515152       0.764031
      19.210000       0.473583       0.515286       0.765869
      19.220000       0.473923       0.515382       0.767625
      19.230000       0.474459       0.515456       0.769302
      19.240000       0.475165       0.515507       0.770909
      19.250000       0.475993       0.515528       0.772453
      19.260000       0.476893       0.515514       0.773937
      19.270000       0.477822       0.515471       0.775356
      19.280000       0.478764       0.515419       0.776702
      19.290000       0.479734       0.515391       0.777966
      19.300000       0.480777       0.515423       0.779143
      19.310000       0.481955       0.515550       0.780238
      19.320000       0.483338       0.515799       0.781271
      19.330000       0.484994       0.516183       0.782268
      19.340000       0.486983       0.516707       0.783263
      19.350000       0.489354       0.517364       0.784287
      19.360000       0.492133       0.518142       0.785358
      19.370000       0.495325       0.519021       0.786490
      19.380000       0.498910       0.519977       0.787691
      19.390000       0.502845       0.520985       0.788973
      19.400000       0.507068       0.522019       0.790359
      19.410000       0.511504       0.523060       0.791882
      19.420000       0.516071       0.524093       0.793581
      19.430000       0.520683       0.525110       0.795485
      19.440000       0.525250       0.526100       0.797611
      19.450000       0.529674       0.527059       0.799949
      19.460000       0.533853       0.527977       0.802468
      19.470000       0.537686       0.528846       0.805116
      19.480000       0.541076       0.529658       0.807832
      19.490000       0.543935       0.530405       0.810552
      19.500000       0.546188       0.531082       0.813220
      19.510000       0.547773       0.531690       0.815792
      19.520000       0.548643       0.532237       0.818241
      19.530000       0.548768       0.532740       0.820554
      19.540000       0.548139       0.533220       0.822729
      19.550000       0.546764       0.533698       0.824770
      19.560000       0.544660       0.534189       0.826680
      19.570000       0.541854       0.534706       0.828463
      19.580000       0.538379       0.535256       0.830119
      19.590000       0.534284       0.535847       0.831654
      19.600000       0.529643       0.536482       0.833080
      19.610000       0.524563       0.537161       0.834418
      19.620000       0.519187       0.537879       0.835694
      19.630000       0.513687       0.538627       0.836937
      19.640000       0.508248       0.539393       0.838178
      19.650000       0.503045       0.540168       0.839443
      19.660000       0.498232       0.540951       0.840756
      19.670000       0.493926       0.541742       0.842134
      19.680000       0.490205       0.542549       0.843586
      19.690000       0.487110       0.543381       0.845110
      19.700000       0.484645       0.544252       0.846699
      19.710000       0.482790       0.545174       0.848341
      19.720000       0.481503       0.546157       0.850026
      19.730000       0.480729       0.547202       0.851744
      19.740000       0.480400       0.548300       0.853492
      19.750000       0.480440       0.549434       0.855264
      19.760000       0.480770       0.550583       0.857057
      19.770000       0.481324       0.551727       0.858861
      19.780000       0.482057       0.552855       0.860662
      19.790000       0.482947       0.553965       0.862440
      19.800000       0.483982       0.555063       0.864172
      19.810000       0.485153       0.556160       0.865833
      19.820000       0.486442       0.557267       0.867397
      19.830000       0.487823       0.558396       0.868843
      19.840000       0.489272       0.559557       0.870162
      19.850000       0.490778       0.560755       0.871356
      19.860000       0.492341       0.561995       0.872445
      19.870000       0.493981       0.563279       0.873460
      19.880000       0.495727       0.564605       0.874440
      19.890000       0.497616       0.565964       0.875421
      19.900000       0.499677       0.567335       0.876430
      19.910000       0.501933       0.568685       0.877476
      19.920000       0.504389       0.569971       0.878553
      19.930000       0.507033       0.571144       0.879633
      19.940000       0.509837       0.572159       0.880671
      19.950000       0.512762       0.572975       0.881610
      19.960000       0.515764       0.573562       0.882380
      19.970000       0.518794       0.573901       0.882910
      19.980000       0.521801       0.573980       0.883134
      19.990000       0.524735       0.573798       0.882994
      20.000000       0.527545       0.573362       0.882451
