  # energy grid [eV]     epsi_x  epsi_y  epsi_z
       0.000000            NaN            NaN            NaN
       0.010000       0.000126       0.000026       0.000153
       0.020000       0.000252       0.000052       0.000305
       0.030000       0.000378       0.000078       0.000458
       0.040000       0.000505       0.000104       0.000612
       0.050000       0.000631       0.000130       0.000766
       0.060000       0.000757       0.000156       0.000921
       0.070000       0.000883       0.000182       0.001078
       0.080000       0.001010       0.000208       0.001236
       0.090000       0.001136       0.000233       0.001395
       0.100000       0.001263       0.000259       0.001556
       0.110000       0.001389       0.000285       0.001719
       0.120000       0.001516       0.000311       0.001884
       0.130000       0.001642       0.000337       0.002052
       0.140000       0.001769       0.000363       0.002223
       0.150000       0.001896       0.000389       0.002396
       0.160000       0.002023       0.000415       0.002573
       0.170000       0.002150       0.000441       0.002754
       0.180000       0.002278       0.000467       0.002939
       0.190000       0.002405       0.000493       0.003128
       0.200000       0.002533       0.000519       0.003322
       0.210000       0.002660       0.000546       0.003522
       0.220000       0.002788       0.000572       0.003727
       0.230000       0.002916       0.000598       0.003939
       0.240000       0.003044       0.000624       0.004158
       0.250000       0.003173       0.000650       0.004385
       0.260000       0.003301       0.000676       0.004620
       0.270000       0.003430       0.000702       0.004864
       0.280000       0.003559       0.000728       0.005118
       0.290000       0.003688       0.000755       0.005384
       0.300000       0.003817       0.000781       0.005662
       0.310000       0.003947       0.000807       0.005953
       0.320000       0.004077       0.000833       0.006260
       0.330000       0.004207       0.000859       0.006582
       0.340000       0.004337       0.000886       0.006923
       0.350000       0.004468       0.000912       0.007285
       0.360000       0.004599       0.000938       0.007669
       0.370000       0.004730       0.000965       0.008077
       0.380000       0.004862       0.000991       0.008514
       0.390000       0.004993       0.001017       0.008983
       0.400000       0.005125       0.001044       0.009486
       0.410000       0.005258       0.001070       0.010029
       0.420000       0.005390       0.001097       0.010616
       0.430000       0.005523       0.001123       0.011254
       0.440000       0.005657       0.001150       0.011948
       0.450000       0.005790       0.001176       0.012707
       0.460000       0.005925       0.001203       0.013539
       0.470000       0.006059       0.001229       0.014454
       0.480000       0.006194       0.001256       0.015463
       0.490000       0.006329       0.001283       0.016581
       0.500000       0.006465       0.001309       0.017822
       0.510000       0.006601       0.001336       0.019202
       0.520000       0.006737       0.001363       0.020740
       0.530000       0.006874       0.001390       0.022457
       0.540000       0.007011       0.001416       0.024374
       0.550000       0.007149       0.001443       0.026510
       0.560000       0.007287       0.001470       0.028884
       0.570000       0.007426       0.001497       0.031507
       0.580000       0.007565       0.001524       0.034381
       0.590000       0.007704       0.001551       0.037485
       0.600000       0.007844       0.001578       0.040773
       0.610000       0.007985       0.001605       0.044160
       0.620000       0.008126       0.001632       0.047516
       0.630000       0.008268       0.001659       0.050660
       0.640000       0.008410       0.001686       0.053375
       0.650000       0.008553       0.001714       0.055436
       0.660000       0.008696       0.001741       0.056647
       0.670000       0.008840       0.001768       0.056890
       0.680000       0.008984       0.001796       0.056155
       0.690000       0.009129       0.001823       0.054545
       0.700000       0.009274       0.001850       0.052243
       0.710000       0.009420       0.001878       0.049474
       0.720000       0.009567       0.001905       0.046461
       0.730000       0.009714       0.001933       0.043390
       0.740000       0.009862       0.001961       0.040402
       0.750000       0.010011       0.001988       0.037589
       0.760000       0.010160       0.002016       0.035004
       0.770000       0.010310       0.002044       0.032672
       0.780000       0.010461       0.002072       0.030594
       0.790000       0.010613       0.002099       0.028761
       0.800000       0.010765       0.002127       0.027156
       0.810000       0.010918       0.002155       0.025761
       0.820000       0.011071       0.002183       0.024553
       0.830000       0.011226       0.002211       0.023515
       0.840000       0.011381       0.002240       0.022627
       0.850000       0.011537       0.002268       0.021874
       0.860000       0.011694       0.002296       0.021240
       0.870000       0.011852       0.002324       0.020713
       0.880000       0.012010       0.002353       0.020282
       0.890000       0.012170       0.002381       0.019939
       0.900000       0.012330       0.002410       0.019674
       0.910000       0.012491       0.002438       0.019483
       0.920000       0.012653       0.002467       0.019358
       0.930000       0.012816       0.002495       0.019297
       0.940000       0.012980       0.002524       0.019295
       0.950000       0.013145       0.002553       0.019350
       0.960000       0.013310       0.002582       0.019460
       0.970000       0.013477       0.002611       0.019625
       0.980000       0.013645       0.002640       0.019843
       0.990000       0.013814       0.002669       0.020115
       1.000000       0.013984       0.002698       0.020443
       1.010000       0.014155       0.002727       0.020827
       1.020000       0.014327       0.002756       0.021270
       1.030000       0.014500       0.002786       0.021775
       1.040000       0.014674       0.002815       0.022347
       1.050000       0.014850       0.002845       0.022989
       1.060000       0.015026       0.002874       0.023709
       1.070000       0.015204       0.002904       0.024512
       1.080000       0.015383       0.002934       0.025408
       1.090000       0.015563       0.002963       0.026405
       1.100000       0.015744       0.002993       0.027515
       1.110000       0.015927       0.003023       0.028751
       1.120000       0.016111       0.003053       0.030129
       1.130000       0.016296       0.003084       0.031667
       1.140000       0.016483       0.003114       0.033384
       1.150000       0.016670       0.003144       0.035305
       1.160000       0.016860       0.003174       0.037457
       1.170000       0.017050       0.003205       0.039870
       1.180000       0.017243       0.003235       0.042579
       1.190000       0.017436       0.003266       0.045621
       1.200000       0.017631       0.003297       0.049036
       1.210000       0.017828       0.003328       0.052865
       1.220000       0.018026       0.003359       0.057146
       1.230000       0.018226       0.003390       0.061908
       1.240000       0.018427       0.003421       0.067165
       1.250000       0.018630       0.003452       0.072902
       1.260000       0.018835       0.003483       0.079061
       1.270000       0.019041       0.003515       0.085524
       1.280000       0.019249       0.003546       0.092093
       1.290000       0.019459       0.003578       0.098486
       1.300000       0.019670       0.003609       0.104340
       1.310000       0.019884       0.003641       0.109244
       1.320000       0.020099       0.003673       0.112798
       1.330000       0.020316       0.003705       0.114684
       1.340000       0.020535       0.003737       0.114730
       1.350000       0.020756       0.003770       0.112956
       1.360000       0.020979       0.003802       0.109562
       1.370000       0.021204       0.003834       0.104883
       1.380000       0.021432       0.003867       0.099324
       1.390000       0.021661       0.003900       0.093286
       1.400000       0.021892       0.003933       0.087118
       1.410000       0.022126       0.003966       0.081089
       1.420000       0.022362       0.003999       0.075384
       1.430000       0.022600       0.004032       0.070112
       1.440000       0.022840       0.004065       0.065327
       1.450000       0.023083       0.004098       0.061040
       1.460000       0.023329       0.004132       0.057236
       1.470000       0.023576       0.004166       0.053885
       1.480000       0.023827       0.004199       0.050950
       1.490000       0.024080       0.004233       0.048391
       1.500000       0.024335       0.004268       0.046170
       1.510000       0.024594       0.004302       0.044251
       1.520000       0.024855       0.004336       0.042600
       1.530000       0.025118       0.004371       0.041190
       1.540000       0.025385       0.004405       0.039994
       1.550000       0.025655       0.004440       0.038991
       1.560000       0.025927       0.004475       0.038163
       1.570000       0.026203       0.004510       0.037492
       1.580000       0.026482       0.004545       0.036967
       1.590000       0.026764       0.004580       0.036576
       1.600000       0.027049       0.004616       0.036311
       1.610000       0.027338       0.004652       0.036164
       1.620000       0.027630       0.004688       0.036131
       1.630000       0.027925       0.004723       0.036208
       1.640000       0.028224       0.004760       0.036393
       1.650000       0.028527       0.004796       0.036685
       1.660000       0.028833       0.004832       0.037085
       1.670000       0.029143       0.004869       0.037595
       1.680000       0.029457       0.004906       0.038220
       1.690000       0.029775       0.004943       0.038964
       1.700000       0.030098       0.004980       0.039833
       1.710000       0.030424       0.005017       0.040838
       1.720000       0.030755       0.005055       0.041989
       1.730000       0.031090       0.005093       0.043297
       1.740000       0.031429       0.005130       0.044780
       1.750000       0.031773       0.005169       0.046454
       1.760000       0.032122       0.005207       0.048342
       1.770000       0.032476       0.005245       0.050469
       1.780000       0.032834       0.005284       0.052862
       1.790000       0.033198       0.005323       0.055556
       1.800000       0.033567       0.005362       0.058589
       1.810000       0.033941       0.005401       0.062003
       1.820000       0.034321       0.005441       0.065848
       1.830000       0.034706       0.005480       0.070175
       1.840000       0.035097       0.005520       0.075039
       1.850000       0.035494       0.005561       0.080496
       1.860000       0.035897       0.005601       0.086594
       1.870000       0.036307       0.005642       0.093371
       1.880000       0.036722       0.005682       0.100836
       1.890000       0.037145       0.005723       0.108962
       1.900000       0.037574       0.005765       0.117658
       1.910000       0.038010       0.005806       0.126755
       1.920000       0.038453       0.005848       0.135990
       1.930000       0.038904       0.005890       0.145001
       1.940000       0.039362       0.005932       0.153350
       1.950000       0.039828       0.005975       0.160563
       1.960000       0.040302       0.006018       0.166192
       1.970000       0.040784       0.006061       0.169881
       1.980000       0.041275       0.006104       0.171412
       1.990000       0.041775       0.006148       0.170732
       2.000000       0.042283       0.006192       0.167946
       2.010000       0.042801       0.006236       0.163294
       2.020000       0.043329       0.006281       0.157111
       2.030000       0.043867       0.006326       0.149791
       2.040000       0.044415       0.006371       0.141739
       2.050000       0.044973       0.006417       0.133345
       2.060000       0.045543       0.006462       0.124945
       2.070000       0.046123       0.006508       0.116811
       2.080000       0.046716       0.006555       0.109137
       2.090000       0.047320       0.006602       0.102046
       2.100000       0.047937       0.006649       0.095603
       2.110000       0.048567       0.006697       0.089822
       2.120000       0.049211       0.006744       0.084689
       2.130000       0.049868       0.006793       0.080169
       2.140000       0.050540       0.006841       0.076215
       2.150000       0.051226       0.006890       0.072778
       2.160000       0.051928       0.006940       0.069808
       2.170000       0.052646       0.006990       0.067259
       2.180000       0.053381       0.007040       0.065089
       2.190000       0.054133       0.007091       0.063260
       2.200000       0.054903       0.007142       0.061740
       2.210000       0.055692       0.007194       0.060500
       2.220000       0.056500       0.007246       0.059517
       2.230000       0.057329       0.007298       0.058772
       2.240000       0.058178       0.007351       0.058249
       2.250000       0.059050       0.007405       0.057936
       2.260000       0.059944       0.007459       0.057824
       2.270000       0.060863       0.007514       0.057907
       2.280000       0.061806       0.007569       0.058181
       2.290000       0.062775       0.007625       0.058646
       2.300000       0.063772       0.007681       0.059306
       2.310000       0.064797       0.007738       0.060164
       2.320000       0.065852       0.007795       0.061229
       2.330000       0.066938       0.007853       0.062512
       2.340000       0.068057       0.007912       0.064027
       2.350000       0.069211       0.007972       0.065793
       2.360000       0.070400       0.008032       0.067832
       2.370000       0.071627       0.008093       0.070170
       2.380000       0.072895       0.008154       0.072838
       2.390000       0.074204       0.008217       0.075873
       2.400000       0.075557       0.008280       0.079318
       2.410000       0.076957       0.008344       0.083220
       2.420000       0.078406       0.008409       0.087634
       2.430000       0.079906       0.008474       0.092620
       2.440000       0.081462       0.008541       0.098242
       2.450000       0.083076       0.008608       0.104566
       2.460000       0.084751       0.008677       0.111651
       2.470000       0.086491       0.008747       0.119549
       2.480000       0.088301       0.008817       0.128283
       2.490000       0.090184       0.008889       0.137839
       2.500000       0.092146       0.008962       0.148143
       2.510000       0.094191       0.009036       0.159040
       2.520000       0.096325       0.009111       0.170280
       2.530000       0.098555       0.009188       0.181510
       2.540000       0.100886       0.009266       0.192298
       2.550000       0.103326       0.009346       0.202165
       2.560000       0.105883       0.009427       0.210649
       2.570000       0.108567       0.009510       0.217357
       2.580000       0.111385       0.009594       0.222016
       2.590000       0.114349       0.009680       0.224487
       2.600000       0.117471       0.009768       0.224763
       2.610000       0.120764       0.009858       0.222946
       2.620000       0.124241       0.009950       0.219216
       2.630000       0.127919       0.010045       0.213811
       2.640000       0.131815       0.010141       0.206999
       2.650000       0.135949       0.010240       0.199065
       2.660000       0.140343       0.010342       0.190308
       2.670000       0.145022       0.010446       0.181025
       2.680000       0.150012       0.010554       0.171508
       2.690000       0.155346       0.010664       0.162031
       2.700000       0.161059       0.010778       0.152834
       2.710000       0.167189       0.010896       0.144113
       2.720000       0.173783       0.011017       0.136010
       2.730000       0.180892       0.011143       0.128613
       2.740000       0.188573       0.011273       0.121966
       2.750000       0.196893       0.011407       0.116069
       2.760000       0.205928       0.011547       0.110902
       2.770000       0.215766       0.011693       0.106423
       2.780000       0.226505       0.011844       0.102586
       2.790000       0.238259       0.012003       0.099339
       2.800000       0.251160       0.012168       0.096635
       2.810000       0.265355       0.012341       0.094428
       2.820000       0.281014       0.012523       0.092678
       2.830000       0.298328       0.012714       0.091352
       2.840000       0.317510       0.012915       0.090423
       2.850000       0.338795       0.013127       0.089867
       2.860000       0.362434       0.013352       0.089669
       2.870000       0.388686       0.013590       0.089819
       2.880000       0.417799       0.013844       0.090309
       2.890000       0.449984       0.014115       0.091142
       2.900000       0.485368       0.014404       0.092321
       2.910000       0.523930       0.014714       0.093858
       2.920000       0.565414       0.015048       0.095769
       2.930000       0.609225       0.015408       0.098076
       2.940000       0.654332       0.015797       0.100808
       2.950000       0.699211       0.016220       0.104001
       2.960000       0.741883       0.016681       0.107696
       2.970000       0.780127       0.017184       0.111944
       2.980000       0.811849       0.017736       0.116803
       2.990000       0.835574       0.018343       0.122335
       3.000000       0.850868       0.019012       0.128614
       3.010000       0.858527       0.019753       0.135711
       3.020000       0.860432       0.020575       0.143699
       3.030000       0.859148       0.021488       0.152642
       3.040000       0.857436       0.022505       0.162582
       3.050000       0.857858       0.023637       0.173525
       3.060000       0.862543       0.024897       0.185421
       3.070000       0.873111       0.026294       0.198141
       3.080000       0.890680       0.027838       0.211458
       3.090000       0.915908       0.029529       0.225041
       3.100000       0.949006       0.031359       0.238469
       3.110000       0.989702       0.033303       0.251261
       3.120000       1.037156       0.035319       0.262936
       3.130000       1.089835       0.037338       0.273072
       3.140000       1.145401       0.039263       0.281354
       3.150000       1.200670       0.040979       0.287596
       3.160000       1.251728       0.042362       0.291740
       3.170000       1.294240       0.043300       0.293838
       3.180000       1.323980       0.043718       0.294017
       3.190000       1.337484       0.043590       0.292454
       3.200000       1.332706       0.042948       0.289350
       3.210000       1.309461       0.041870       0.284914
       3.220000       1.269506       0.040463       0.279348
       3.230000       1.216176       0.038845       0.272844
       3.240000       1.153686       0.037127       0.265583
       3.250000       1.086366       0.035402       0.257731
       3.260000       1.018037       0.033738       0.249448
       3.270000       0.951673       0.032183       0.240888
       3.280000       0.889326       0.030762       0.232202
       3.290000       0.832228       0.029487       0.223546
       3.300000       0.780969       0.028361       0.215075
       3.310000       0.735695       0.027376       0.206948
       3.320000       0.696265       0.026525       0.199312
       3.330000       0.662380       0.025796       0.192299
       3.340000       0.633666       0.025178       0.186012
       3.350000       0.609734       0.024659       0.180526
       3.360000       0.590216       0.024231       0.175883
       3.370000       0.574780       0.023884       0.172100
       3.380000       0.563145       0.023610       0.169178
       3.390000       0.555085       0.023403       0.167107
       3.400000       0.550430       0.023257       0.165873
       3.410000       0.549063       0.023167       0.165458
       3.420000       0.550921       0.023129       0.165842
       3.430000       0.555994       0.023141       0.167006
       3.440000       0.564320       0.023200       0.168932
       3.450000       0.575981       0.023305       0.171610
       3.460000       0.591097       0.023455       0.175043
       3.470000       0.609817       0.023650       0.179251
       3.480000       0.632297       0.023890       0.184269
       3.490000       0.658682       0.024176       0.190146
       3.500000       0.689055       0.024510       0.196933
       3.510000       0.723387       0.024895       0.204686
       3.520000       0.761461       0.025333       0.213454
       3.530000       0.802778       0.025829       0.223290
       3.540000       0.846479       0.026388       0.234249
       3.550000       0.891301       0.027016       0.246390
       3.560000       0.935623       0.027719       0.259760
       3.570000       0.977659       0.028506       0.274373
       3.580000       1.015788       0.029387       0.290166
       3.590000       1.048980       0.030371       0.306967
       3.600000       1.077147       0.031473       0.324465
       3.610000       1.101281       0.032704       0.342212
       3.620000       1.123306       0.034080       0.359660
       3.630000       1.145705       0.035616       0.376224
       3.640000       1.171090       0.037327       0.391368
       3.650000       1.201835       0.039225       0.404673
       3.660000       1.239843       0.041318       0.415880
       3.670000       1.286415       0.043605       0.424887
       3.680000       1.342172       0.046071       0.431728
       3.690000       1.406984       0.048682       0.436535
       3.700000       1.479886       0.051380       0.439500
       3.710000       1.558994       0.054080       0.440844
       3.720000       1.641487       0.056670       0.440788
       3.730000       1.723700       0.059026       0.439531
       3.740000       1.801390       0.061026       0.437238
       3.750000       1.870127       0.062573       0.434036
       3.760000       1.925758       0.063618       0.430021
       3.770000       1.964846       0.064161       0.425274
       3.780000       1.985071       0.064257       0.419885
       3.790000       1.985582       0.063993       0.413971
       3.800000       1.967263       0.063479       0.407683
       3.810000       1.932771       0.062830       0.401201
       3.820000       1.886203       0.062152       0.394714
       3.830000       1.832415       0.061531       0.388392
       3.840000       1.776174       0.061027       0.382370
       3.850000       1.721432       0.060667       0.376731
       3.860000       1.670877       0.060443       0.371503
       3.870000       1.625825       0.060325       0.366684
       3.880000       1.586381       0.060265       0.362266
       3.890000       1.551777       0.060216       0.358274
       3.900000       1.520767       0.060150       0.354792
       3.910000       1.492011       0.060065       0.351969
       3.920000       1.464386       0.059986       0.349991
       3.930000       1.437197       0.059961       0.349047
       3.940000       1.410302       0.060042       0.349288
       3.950000       1.384113       0.060275       0.350812
       3.960000       1.359463       0.060682       0.353659
       3.970000       1.337355       0.061259       0.357834
       3.980000       1.318668       0.061968       0.363323
       3.990000       1.303923       0.062740       0.370112
       4.000000       1.293173       0.063480       0.378190
       4.010000       1.286065       0.064086       0.387541
       4.020000       1.282011       0.064463       0.398133
       4.030000       1.280412       0.064546       0.409903
       4.040000       1.280819       0.064316       0.422751
       4.050000       1.282979       0.063792       0.436523
       4.060000       1.286752       0.063025       0.450994
       4.070000       1.291995       0.062080       0.465852
       4.080000       1.298494       0.061019       0.480699
       4.090000       1.306004       0.059893       0.495072
       4.100000       1.314331       0.058749       0.508497
       4.110000       1.323390       0.057631       0.520538
       4.120000       1.333142       0.056583       0.530856
       4.130000       1.343445       0.055648       0.539230
       4.140000       1.353920       0.054868       0.545583
       4.150000       1.363938       0.054277       0.549967
       4.160000       1.372813       0.053904       0.552545
       4.170000       1.380125       0.053768       0.553554
       4.180000       1.386046       0.053882       0.553265
       4.190000       1.391499       0.054254       0.551936
       4.200000       1.398055       0.054886       0.549788
       4.210000       1.407626       0.055775       0.546992
       4.220000       1.422092       0.056912       0.543669
       4.230000       1.442973       0.058279       0.539901
       4.240000       1.471233       0.059849       0.535741
       4.250000       1.507211       0.061584       0.531213
       4.260000       1.550649       0.063433       0.526313
       4.270000       1.600767       0.065337       0.520998
       4.280000       1.656321       0.067227       0.515195
       4.290000       1.715606       0.069031       0.508815
       4.300000       1.776371       0.070668       0.501783
       4.310000       1.835733       0.072058       0.494075
       4.320000       1.890179       0.073128       0.485735
       4.330000       1.935796       0.073821       0.476893
       4.340000       1.968735       0.074121       0.467756
       4.350000       1.985844       0.074054       0.458599
       4.360000       1.985284       0.073693       0.449743
       4.370000       1.966977       0.073141       0.441536
       4.380000       1.932734       0.072521       0.434318
       4.390000       1.886006       0.071948       0.428404
       4.400000       1.831316       0.071525       0.424054
       4.410000       1.773518       0.071332       0.421469
       4.420000       1.717114       0.071425       0.420792
       4.430000       1.665774       0.071838       0.422123
       4.440000       1.622106       0.072586       0.425541
       4.450000       1.587643       0.073665       0.431111
       4.460000       1.562960       0.075055       0.438877
       4.470000       1.547851       0.076724       0.448838
       4.480000       1.541534       0.078633       0.460910
       4.490000       1.542853       0.080739       0.474883
       4.500000       1.550442       0.083000       0.490402
       4.510000       1.562846       0.085382       0.506966
       4.520000       1.578565       0.087847       0.523976
       4.530000       1.596087       0.090358       0.540800
       4.540000       1.613939       0.092863       0.556860
       4.550000       1.630797       0.095302       0.571707
       4.560000       1.645630       0.097604       0.585061
       4.570000       1.657802       0.099701       0.596812
       4.580000       1.667081       0.101539       0.606989
       4.590000       1.673554       0.103080       0.615707
       4.600000       1.677517       0.104311       0.623117
       4.610000       1.679414       0.105250       0.629365
       4.620000       1.679826       0.105935       0.634572
       4.630000       1.679477       0.106423       0.638823
       4.640000       1.679168       0.106772       0.642174
       4.650000       1.679608       0.107020       0.644659
       4.660000       1.681176       0.107178       0.646298
       4.670000       1.683731       0.107225       0.647104
       4.680000       1.686546       0.107117       0.647087
       4.690000       1.688455       0.106811       0.646262
       4.700000       1.688192       0.106289       0.644656
       4.710000       1.684816       0.105573       0.642317
       4.720000       1.678088       0.104732       0.639327
       4.730000       1.668634       0.103867       0.635818
       4.740000       1.657844       0.103088       0.631993
       4.750000       1.647547       0.102496       0.628135
       4.760000       1.639626       0.102166       0.624612
       4.770000       1.635718       0.102142       0.621860
       4.780000       1.637105       0.102447       0.620357
       4.790000       1.644742       0.103089       0.620570
       4.800000       1.659362       0.104072       0.622905
       4.810000       1.681515       0.105398       0.627655
       4.820000       1.711497       0.107065       0.634956
       4.830000       1.749177       0.109066       0.644769
       4.840000       1.793778       0.111376       0.656875
       4.850000       1.843691       0.113958       0.670893
       4.860000       1.896354       0.116757       0.686318
       4.870000       1.948259       0.119707       0.702577
       4.880000       1.995111       0.122725       0.719102
       4.890000       2.032242       0.125709       0.735394
       4.900000       2.055291       0.128541       0.751068
       4.910000       2.061060       0.131088       0.765862
       4.920000       2.048275       0.133232       0.779626
       4.930000       2.017916       0.134887       0.792295
       4.940000       1.972956       0.136031       0.803870
       4.950000       1.917617       0.136699       0.814403
       4.960000       1.856442       0.136972       0.823995
       4.970000       1.793524       0.136936       0.832795
       4.980000       1.732055       0.136656       0.840990
       4.990000       1.674200       0.136153       0.848794
       5.000000       1.621220       0.135418       0.856413
       5.010000       1.573710       0.134432       0.864027
       5.020000       1.531852       0.133195       0.871758
       5.030000       1.495631       0.131748       0.879663
       5.040000       1.464944       0.130178       0.887735
       5.050000       1.439624       0.128597       0.895921
       5.060000       1.419407       0.127130       0.904167
       5.070000       1.403925       0.125888       0.912475
       5.080000       1.392761       0.124960       0.920963
       5.090000       1.385588       0.124419       0.929894
       5.100000       1.382321       0.124319       0.939663
       5.110000       1.383217       0.124711       0.950716
       5.120000       1.388862       0.125646       0.963437
       5.130000       1.400048       0.127175       0.978032
       5.140000       1.417593       0.129352       0.994467
       5.150000       1.442154       0.132226       1.012484
       5.160000       1.474071       0.135841       1.031675
       5.170000       1.513257       0.140228       1.051592
       5.180000       1.559134       0.145403       1.071836
       5.190000       1.610622       0.151351       1.092109
       5.200000       1.666206       0.158022       1.112221
       5.210000       1.724100       0.165307       1.132067
       5.220000       1.782466       0.173035       1.151586
       5.230000       1.839644       0.180960       1.170722
       5.240000       1.894287       0.188776       1.189389
       5.250000       1.945395       0.196149       1.207457
       5.260000       1.992276       0.202755       1.224764
       5.270000       2.034541       0.208342       1.241137
       5.280000       2.072158       0.212764       1.256427
       5.290000       2.105568       0.215992       1.270552
       5.300000       2.135744       0.218096       1.283538
       5.310000       2.164151       0.219203       1.295556
       5.320000       2.192552       0.219447       1.306960
       5.330000       2.222732       0.218937       1.318294
       5.340000       2.256187       0.217758       1.330245
       5.350000       2.293844       0.215988       1.343541
       5.360000       2.335822       0.213734       1.358785
       5.370000       2.381250       0.211153       1.376292
       5.380000       2.428226       0.208458       1.395980
       5.390000       2.473986       0.205897       1.417350
       5.400000       2.515354       0.203714       1.439561
       5.410000       2.549415       0.202124       1.461556
       5.420000       2.574214       0.201286       1.482200
       5.430000       2.589263       0.201288       1.500411
       5.440000       2.595684       0.202151       1.515255
       5.450000       2.595982       0.203825       1.526031
       5.460000       2.593565       0.206201       1.532348
       5.470000       2.592182       0.209116       1.534176
       5.480000       2.595427       0.212383       1.531857
       5.490000       2.606443       0.215819       1.526059
       5.500000       2.627827       0.219279       1.517641
       5.510000       2.661701       0.222689       1.507455
       5.520000       2.709828       0.226051       1.496151
       5.530000       2.773724       0.229430       1.484075
       5.540000       2.854738       0.232927       1.471309
       5.550000       2.954124       0.236655       1.457870
       5.560000       3.073091       0.240717       1.443980
       5.570000       3.212822       0.245192       1.430280
       5.580000       3.374402       0.250123       1.417914
       5.590000       3.558618       0.255500       1.408427
       5.600000       3.765615       0.261245       1.403562
       5.610000       3.994429       0.267216       1.405039
       5.620000       4.242441       0.273212       1.414385
       5.630000       4.504887       0.279010       1.432857
       5.640000       4.774552       0.284411       1.461429
       5.650000       5.041808       0.289278       1.500806
       5.660000       5.295129       0.293572       1.551451
       5.670000       5.522118       0.297354       1.613573
       5.680000       5.710989       0.300773       1.687079
       5.690000       5.852241       0.304033       1.771464
       5.700000       5.940150       0.307341       1.865647
       5.710000       5.973668       0.310853       1.967800
       5.720000       5.956452       0.314641       2.075221
       5.730000       5.896018       0.318686       2.184375
       5.740000       5.802353       0.322905       2.291165
       5.750000       5.686412       0.327200       2.391449
       5.760000       5.558881       0.331501       2.481672
       5.770000       5.429276       0.335776       2.559417
       5.780000       5.305327       0.340012       2.623676
       5.790000       5.192552       0.344175       2.674784
       5.800000       5.094017       0.348169       2.714137
       5.810000       5.010318       0.351839       2.743838
       5.820000       4.939765       0.355002       2.766333
       5.830000       4.878751       0.357504       2.784047
       5.840000       4.822298       0.359289       2.799000
       5.850000       4.764806       0.360435       2.812536
       5.860000       4.700983       0.361159       2.825253
       5.870000       4.626827       0.361793       2.837218
       5.880000       4.540380       0.362720       2.848371
       5.890000       4.442028       0.364317       2.858919
       5.900000       4.334243       0.366891       2.869564
       5.910000       4.220935       0.370638       2.881491
       5.920000       4.106710       0.375614       2.896142
       5.930000       3.996289       0.381740       2.914899
       5.940000       3.894163       0.388820       2.938731
       5.950000       3.804402       0.396601       2.967891
       5.960000       3.730460       0.404840       3.001736
       5.970000       3.674951       0.413390       3.038783
       5.980000       3.639409       0.422250       3.077034
       5.990000       3.624141       0.431574       3.114496
       6.000000       3.628187       0.441620       3.149713
       6.010000       3.649388       0.452662       3.182087
       6.020000       3.684482       0.464894       3.211884
       6.030000       3.729201       0.478357       3.239964
       6.040000       3.778377       0.492916       3.267402
       6.050000       3.826122       0.508280       3.295128
       6.060000       3.866196       0.524080       3.323678
       6.070000       3.892591       0.539979       3.353054
       6.080000       3.900305       0.555775       3.382709
       6.090000       3.886122       0.571457       3.411665
       6.100000       3.849177       0.587184       3.438717
       6.110000       3.791091       0.603201       3.462634
       6.120000       3.715617       0.619727       3.482279
       6.130000       3.627904       0.636882       3.496619
       6.140000       3.533613       0.654675       3.504686
       6.150000       3.438175       0.673053       3.505586
       6.160000       3.346309       0.691967       3.498599
       6.170000       3.261816       0.711424       3.483327
       6.180000       3.187548       0.731493       3.459817
       6.190000       3.125483       0.752299       3.428595
       6.200000       3.076851       0.773998       3.390590
       6.210000       3.042246       0.796764       3.346981
       6.220000       3.021673       0.820751       3.299018
       6.230000       3.014517       0.846042       3.247862
       6.240000       3.019487       0.872596       3.194487
       6.250000       3.034647       0.900214       3.139668
       6.260000       3.057638       0.928554       3.084055
       6.270000       3.086065       0.957162       3.028252
       6.280000       3.117922       0.985506       2.972848
       6.290000       3.151863       1.013003       2.918380
       6.300000       3.187206       1.039053       2.865267
       6.310000       3.223680       1.063107       2.813803
       6.320000       3.261053       1.084771       2.764237
       6.330000       3.298789       1.103893       2.716901
       6.340000       3.335794       1.120583       2.672309
       6.350000       3.370305       1.135110       2.631153
       6.360000       3.399941       1.147709       2.594185
       6.370000       3.421919       1.158409       2.562050
       6.380000       3.433413       1.166966       2.535148
       6.390000       3.431963       1.172970       2.513578
       6.400000       3.415829       1.176074       2.497157
       6.410000       3.384220       1.176205       2.485473
       6.420000       3.337400       1.173672       2.477924
       6.430000       3.276651       1.169098       2.473714
       6.440000       3.204114       1.163242       2.471805
       6.450000       3.122542       1.156789       2.470868
       6.460000       3.035007       1.150228       2.469271
       6.470000       2.944657       1.143843       2.465158
       6.480000       2.854523       1.137838       2.456611
       6.490000       2.767379       1.132504       2.441904
       6.500000       2.685642       1.128355       2.419804
       6.510000       2.611314       1.126148       2.389870
       6.520000       2.545966       1.126788       2.352675
       6.530000       2.490776       1.131159       2.309838
       6.540000       2.446577       1.139963       2.263804
       6.550000       2.413916       1.153598       2.217389
       6.560000       2.393075       1.172100       2.173229
       6.570000       2.384053       1.195089       2.133286
       6.580000       2.386500       1.221737       2.098536
       6.590000       2.399618       1.250747       2.068887
       6.600000       2.422091       1.280403       2.043306
       6.610000       2.452144       1.308727       2.020113
       6.620000       2.487755       1.333763       1.997372
       6.630000       2.527009       1.353897       1.973326
       6.640000       2.568467       1.368123       1.946801
       6.650000       2.611380       1.376143       1.917519
       6.660000       2.655664       1.378243       1.886222
       6.670000       2.701683       1.375039       1.854556
       6.680000       2.749974       1.367204       1.824752
       6.690000       2.801066       1.355318       1.799171
       6.700000       2.855372       1.339892       1.779890
       6.710000       2.913089       1.321518       1.768395
       6.720000       2.974020       1.301039       1.765428
       6.730000       3.037326       1.279630       1.770934
       6.740000       3.101305       1.258747       1.784045
       6.750000       3.163317       1.239965       1.803080
       6.760000       3.219968       1.224786       1.825550
       6.770000       3.267549       1.214480       1.848248
       6.780000       3.302667       1.210012       1.867492
       6.790000       3.322853       1.212024       1.879553
       6.800000       3.326993       1.220877       1.881249
       6.810000       3.315474       1.236667       1.870536
       6.820000       3.290105       1.259217       1.846927
       6.830000       3.253859       1.288013       1.811584
       6.840000       3.210492       1.322124       1.767046
       6.850000       3.164043       1.360130       1.716707
       6.860000       3.118300       1.400146       1.664228
       6.870000       3.076355       1.439948       1.613028
       6.880000       3.040361       1.477202       1.565952
       6.890000       3.011493       1.509731       1.525107
       6.900000       2.990036       1.535758       1.491830
       6.910000       2.975497       1.554073       1.466746
       6.920000       2.966718       1.564144       1.449857
       6.930000       2.962080       1.566182       1.440632
       6.940000       2.959874       1.561142       1.438072
       6.950000       2.958850       1.550655       1.440762
       6.960000       2.958767       1.536852       1.446912
       6.970000       2.960711       1.522100       1.454438
       6.980000       2.966988       1.508675       1.461116
       6.990000       2.980607       1.498420       1.464837
       7.000000       3.004542       1.492455       1.463943
       7.010000       3.041020       1.490990       1.457561
       7.020000       3.091012       1.493301       1.445789
       7.030000       3.153982       1.497892       1.429659
       7.040000       3.227934       1.502809       1.410850
       7.050000       3.309690       1.506051       1.391273
       7.060000       3.395370       1.505964       1.372663
       7.070000       3.480940       1.501513       1.356311
       7.080000       3.562671       1.492379       1.342988
       7.090000       3.637389       1.478920       1.333027
       7.100000       3.702512       1.462026       1.326487
       7.110000       3.756009       1.442911       1.323288
       7.120000       3.796457       1.422869       1.323257
       7.130000       3.823297       1.403047       1.326085
       7.140000       3.837189       1.384297       1.331244
       7.150000       3.840225       1.367155       1.337968
       7.160000       3.835791       1.351933       1.345327
       7.170000       3.828059       1.338864       1.352396
       7.180000       3.821238       1.328223       1.358422
       7.190000       3.818828       1.320370       1.362895
       7.200000       3.823068       1.315700       1.365478
       7.210000       3.834697       1.314515       1.365832
       7.220000       3.853061       1.316864       1.363458
       7.230000       3.876472       1.322407       1.357672
       7.240000       3.902636       1.330347       1.347739
       7.250000       3.928944       1.339497       1.333118
       7.260000       3.952538       1.348462       1.313675
       7.270000       3.970213       1.355887       1.289779
       7.280000       3.978386       1.360674       1.262246
       7.290000       3.973332       1.362081       1.232195
       7.300000       3.951783       1.359703       1.200881
       7.310000       3.911764       1.353416       1.169544
       7.320000       3.853338       1.343362       1.139285
       7.330000       3.778940       1.330004       1.110982
       7.340000       3.693105       1.314191       1.085249
       7.350000       3.601708       1.297142       1.062456
       7.360000       3.510976       1.280329       1.042784
       7.370000       3.426582       1.265274       1.026316
       7.380000       3.352963       1.253334       1.013114
       7.390000       3.292929       1.245540       1.003277
       7.400000       3.247534       1.242518       0.996942
       7.410000       3.216179       1.244525       0.994269
       7.420000       3.196909       1.251539       0.995391
       7.430000       3.186879       1.263374       1.000382
       7.440000       3.182896       1.279742       1.009232
       7.450000       3.181945       1.300235       1.021833
       7.460000       3.181598       1.324255       1.037962
       7.470000       3.180236       1.350931       1.057255
       7.480000       3.177069       1.379124       1.079164
       7.490000       3.171991       1.407556       1.102923
       7.500000       3.165341       1.435059       1.127535
       7.510000       3.157680       1.460887       1.151803
       7.520000       3.149678       1.484959       1.174416
       7.530000       3.142095       1.507938       1.194083
       7.540000       3.135771       1.531061       1.209660
       7.550000       3.131565       1.555779       1.220240
       7.560000       3.130231       1.583308       1.225175
       7.570000       3.132332       1.614213       1.224046
       7.580000       3.138249       1.648138       1.216654
       7.590000       3.148294       1.683729       1.203076
       7.600000       3.162833       1.718781       1.183768
       7.610000       3.182323       1.750587       1.159640
       7.620000       3.207169       1.776413       1.132028
       7.630000       3.237439       1.793987       1.102535
       7.640000       3.272506       1.801863       1.072797
       7.650000       3.310790       1.799606       1.044257
       7.660000       3.349743       1.787762       1.018009
       7.670000       3.386179       1.767667       0.994743
       7.680000       3.416922       1.741172       0.974755
       7.690000       3.439592       1.710364       0.958024
       7.700000       3.453307       1.677364       0.944304
       7.710000       3.459059       1.644219       0.933227
       7.720000       3.459643       1.612857       0.924374
       7.730000       3.459170       1.585046       0.917328
       7.740000       3.462274       1.562305       0.911694
       7.750000       3.473278       1.545785       0.907131
       7.760000       3.495479       1.536177       0.903384
       7.770000       3.530686       1.533664       0.900323
       7.780000       3.579005       1.537971       0.897978
       7.790000       3.638807       1.548465       0.896541
       7.800000       3.706845       1.564294       0.896321
       7.810000       3.778499       1.584511       0.897655
       7.820000       3.848188       1.608163       0.900802
       7.830000       3.910011       1.634322       0.905852
       7.840000       3.958616       1.662071       0.912687
       7.850000       3.990168       1.690474       0.920984
       7.860000       4.003158       1.718573       0.930257
       7.870000       3.998761       1.745433       0.939911
       7.880000       3.980526       1.770227       0.949318
       7.890000       3.953473       1.792339       0.957904
       7.900000       3.922859       1.811433       0.965248
       7.910000       3.893033       1.827467       0.971173
       7.920000       3.866701       1.840624       0.975775
       7.930000       3.844742       1.851186       0.979393
       7.940000       3.826537       1.859366       0.982519
       7.950000       3.810608       1.865187       0.985689
       7.960000       3.795291       1.868430       0.989375
       7.970000       3.779255       1.868669       0.993907
       7.980000       3.761777       1.865355       0.999429
       7.990000       3.742821       1.857908       1.005899
       8.000000       3.723007       1.845836       1.013120
       8.010000       3.703515       1.828885       1.020760
       8.020000       3.685911       1.807229       1.028352
       8.030000       3.671939       1.781599       1.035256
       8.040000       3.663264       1.753289       1.040642
       8.050000       3.661207       1.723964       1.043532
       8.060000       3.666451       1.695336       1.042943
       8.070000       3.678757       1.668826       1.038104
       8.080000       3.696810       1.645338       1.028676
       8.090000       3.718302       1.625226       1.014891
       8.100000       3.740296       1.608439       0.997551
       8.110000       3.759781       1.594769       0.977884
       8.120000       3.774210       1.584087       0.957317
       8.130000       3.781879       1.576473       0.937242
       8.140000       3.782049       1.572184       0.918842
       8.150000       3.774878       1.571500       0.902987
       8.160000       3.761232       1.574493       0.890205
       8.170000       3.742447       1.580824       0.880691
       8.180000       3.720112       1.589621       0.874355
       8.190000       3.695929       1.599517       0.870911
       8.200000       3.671631       1.608875       0.869975
       8.210000       3.648909       1.616187       0.871170
       8.220000       3.629241       1.620529       0.874191
       8.230000       3.613652       1.621898       0.878838
       8.240000       3.602464       1.621311       0.884971
       8.250000       3.595173       1.620599       0.892441
       8.260000       3.590496       1.622002       0.901026
       8.270000       3.586589       1.627698       0.910405
       8.280000       3.581384       1.639402       0.920173
       8.290000       3.572994       1.658094       0.929894
       8.300000       3.560171       1.683907       0.939126
       8.310000       3.542718       1.716146       0.947438
       8.320000       3.521712       1.753433       0.954416
       8.330000       3.499386       1.793968       0.959695
       8.340000       3.478686       1.835834       0.963019
       8.350000       3.462652       1.877295       0.964306
       8.360000       3.453840       1.916992       0.963677
       8.370000       3.453915       1.954003       0.961434
       8.380000       3.463420       1.987769       0.957991
       8.390000       3.481660       2.017968       0.953798
       8.400000       3.506661       2.044387       0.949275
       8.410000       3.535219       2.066877       0.944789
       8.420000       3.563125       2.085384       0.940651
       8.430000       3.585627       2.100047       0.937143
       8.440000       3.598134       2.111289       0.934562
       8.450000       3.597017       2.119846       0.933242
       8.460000       3.580304       2.126684       0.933533
       8.470000       3.548028       2.132801       0.935735
       8.480000       3.502137       2.138959       0.939990
       8.490000       3.445968       2.145426       0.946198
       8.500000       3.383502       2.151829       0.953994
       8.510000       3.318601       2.157164       0.962818
       8.520000       3.254464       2.159996       0.972048
       8.530000       3.193387       2.158790       0.981171
       8.540000       3.136822       2.152282       0.989893
       8.550000       3.085639       2.139791       0.998163
       8.560000       3.040454       2.121380       1.006098
       8.570000       3.001894       2.097857       1.013853
       8.580000       2.970674       2.070636       1.021503
       8.590000       2.947457       2.041520       1.028970
       8.600000       2.932546       2.012470       1.036034
       8.610000       2.925583       1.985405       1.042397
       8.620000       2.925389       1.962074       1.047771
       8.630000       2.930050       1.943982       1.051965
       8.640000       2.937228       1.932360       1.054931
       8.650000       2.944584       1.928126       1.056779
       8.660000       2.950171       1.931858       1.057759
       8.670000       2.952632       1.943787       1.058209
       8.680000       2.951176       1.963848       1.058493
       8.690000       2.945381       1.991746       1.058934
       8.700000       2.934964       2.027039       1.059772
       8.710000       2.919643       2.069170       1.061139
       8.720000       2.899126       2.117437       1.063076
       8.730000       2.873225       2.170969       1.065569
       8.740000       2.842045       2.228739       1.068600
       8.750000       2.806171       2.289678       1.072192
       8.760000       2.766782       2.352834       1.076425
       8.770000       2.725607       2.417494       1.081427
       8.780000       2.684677       2.483177       1.087356
       8.790000       2.645954       2.549465       1.094377
       8.800000       2.610936       2.615737       1.102671
       8.810000       2.580351       2.680896       1.112437
       8.820000       2.554026       2.743188       1.123885
       8.830000       2.530979       2.800232       1.137185
       8.840000       2.509717       2.849267       1.152383
       8.850000       2.488677       2.887599       1.169319
       8.860000       2.466671       2.913086       1.187562
       8.870000       2.443201       2.924537       1.206411
       8.880000       2.418536       2.921897       1.224950
       8.890000       2.393556       2.906227       1.242184
       8.900000       2.369450       2.879501       1.257210
       8.910000       2.347390       2.844258       1.269395
       8.920000       2.328304       2.803215       1.278508
       8.930000       2.312795       2.758948       1.284759
       8.940000       2.301201       2.713738       1.288742
       8.950000       2.293712       2.669586       1.291288
       8.960000       2.290467       2.628278       1.293300
       8.970000       2.291544       2.591392       1.295607
       8.980000       2.296851       2.560203       1.298881
       8.990000       2.306028       2.535551       1.303625
       9.000000       2.318422       2.517758       1.310182
       9.010000       2.333223       2.506668       1.318766
       9.020000       2.349693       2.501781       1.329480
       9.030000       2.367391       2.502461       1.342328
       9.040000       2.386277       2.508164       1.357211
       9.050000       2.406612       2.518638       1.373906
       9.060000       2.428724       2.534040       1.392059
       9.070000       2.452727       2.554910       1.411203
       9.080000       2.478325       2.581982       1.430814
       9.090000       2.504720       2.615895       1.450393
       9.100000       2.530637       2.656870       1.469536
       9.110000       2.554442       2.704459       1.487995
       9.120000       2.574358       2.757443       1.505691
       9.130000       2.588780       2.813927       1.522710
       9.140000       2.596614       2.871583       1.539287
       9.150000       2.597559       2.928003       1.555775
       9.160000       2.592221       2.981050       1.572608
       9.170000       2.582029       3.029138       1.590257
       9.180000       2.568953       3.071368       1.609164
       9.190000       2.555092       3.107458       1.629682
       9.200000       2.542246       3.137481       1.652007
       9.210000       2.531565       3.161499       1.676130
       9.220000       2.523387       3.179261       1.701818
       9.230000       2.517289       3.190151       1.728653
       9.240000       2.512369       3.193442       1.756112
       9.250000       2.507653       3.188749       1.783685
       9.260000       2.502532       3.176430       1.811005
       9.270000       2.497040       3.157701       1.837965
       9.280000       2.491850       3.134383       1.864763
       9.290000       2.487973       3.108400       1.891867
       9.300000       2.486260       3.081248       1.919895
       9.310000       2.486941       3.053680       1.949469
       9.320000       2.489383       3.025675       1.981101
       9.330000       2.492181       2.996684       2.015145
       9.340000       2.493522       2.965994       2.051817
       9.350000       2.491667       2.933083       2.091256
       9.360000       2.485337       2.897864       2.133574
       9.370000       2.473839       2.860769       2.178876
       9.380000       2.456938       2.822709       2.227240
       9.390000       2.434597       2.784930       2.278686
       9.400000       2.406770       2.748827       2.333170
       9.410000       2.373365       2.715764       2.390621
       9.420000       2.334349       2.686947       2.451017
       9.430000       2.289925       2.663337       2.514443
       9.440000       2.240680       2.645572       2.581107
       9.450000       2.187629       2.633854       2.651279
       9.460000       2.132141       2.627833       2.725191
       9.470000       2.075773       2.626552       2.802943
       9.480000       2.020087       2.628569       2.884474
       9.490000       1.966506       2.632269       2.969626
       9.500000       1.916247       2.636305       3.058286
       9.510000       1.870280       2.639962       3.150551
       9.520000       1.829281       2.643282       3.246846
       9.530000       1.793569       2.646884       3.347932
       9.540000       1.763044       2.651570       3.454793
       9.550000       1.737196       2.657925       3.568450
       9.560000       1.715209       2.666080       3.689778
       9.570000       1.696156       2.675710       3.819399
       9.580000       1.679220       2.686172       3.957710
       9.590000       1.663856       2.696663       4.105021
       9.600000       1.649832       2.706276       4.261755
       9.610000       1.637171       2.714012       4.428615
       9.620000       1.626044       2.718805       4.606647
       9.630000       1.616689       2.719665       4.797109
       9.640000       1.609371       2.715895       5.001144
       9.650000       1.604372       2.707275       5.219276
       9.660000       1.601971       2.694080       5.450839
       9.670000       1.602369       2.676885       5.693457
       9.680000       1.605595       2.656270       5.942696
       9.690000       1.611435       2.632604       6.191994
       9.700000       1.619414       2.606058       6.432961
       9.710000       1.628879       2.576830       6.656102
       9.720000       1.639102       2.545432       6.851928
       9.730000       1.649388       2.512815       7.012255
       9.740000       1.659125       2.480241       7.131389
       9.750000       1.667792       2.448923       7.206871
       9.760000       1.674933       2.419600       7.239600
       9.770000       1.680110       2.392223       7.233298
       9.780000       1.682866       2.365902       7.193479
       9.790000       1.682712       2.339167       7.126210
       9.800000       1.679174       2.310455       7.037087
       9.810000       1.671934       2.278666       6.930763
       9.820000       1.661037       2.243586       6.811092
       9.830000       1.647068       2.206034       6.681658
       9.840000       1.631179       2.167692       6.546230
       9.850000       1.614912       2.130706       6.408779
       9.860000       1.599850       2.097195       6.273031
       9.870000       1.587231       2.068836       6.141778
       9.880000       1.577664       2.046615       6.016334
       9.890000       1.571028       2.030757       5.896394
       9.900000       1.566581       2.020797       5.780356
       9.910000       1.563234       2.015728       5.666010
       9.920000       1.559903       2.014181       5.551338
       9.930000       1.555816       2.014618       5.435199
       9.940000       1.550712       2.015519       5.317713
       9.950000       1.544840       2.015565       5.200258
       9.960000       1.538825       2.013788       5.085099
       9.970000       1.533418       2.009672       4.974757
       9.980000       1.529242       2.003163       4.871298
       9.990000       1.526574       1.994572       4.775807
      10.000000       1.525203       1.984391       4.688197
      10.010000       1.524411       1.973061       4.607398
      10.020000       1.523070       1.960779       4.531769
      10.030000       1.519859       1.947375       4.459522
      10.040000       1.513580       1.932321       4.388968
      10.050000       1.503485       1.914858       4.318563
      10.060000       1.489525       1.894219       4.246851
      10.070000       1.472409       1.869872       4.172433
      10.080000       1.453444       1.841705       4.094093
      10.090000       1.434241       1.810112       4.011049
      10.100000       1.416383       1.775968       3.923235
      10.110000       1.401180       1.740554       3.831467
      10.120000       1.389533       1.705452       3.737380
      10.130000       1.381922       1.672438       3.643162
      10.140000       1.378481       1.643350       3.551183
      10.150000       1.379138       1.619936       3.463640
      10.160000       1.383770       1.603695       3.382309
      10.170000       1.392302       1.595744       3.308426
      10.180000       1.404708       1.596736       3.242682
      10.190000       1.420911       1.606831       3.185303
      10.200000       1.440618       1.625724       3.136150
      10.210000       1.463214       1.652709       3.094782
      10.220000       1.487729       1.686775       3.060463
      10.230000       1.512934       1.726705       3.032110
      10.240000       1.537492       1.771164       3.008219
      10.250000       1.560100       1.818758       2.986850
      10.260000       1.579565       1.868041       2.965710
      10.270000       1.594813       1.917490       2.942403
      10.280000       1.604869       1.965446       2.914824
      10.290000       1.608869       2.010101       2.881620
      10.300000       1.606137       2.049562       2.842549
      10.310000       1.596302       2.082030       2.798604
      10.320000       1.579442       2.106056       2.751783
      10.330000       1.556181       2.120785       2.704617
      10.340000       1.527713       2.126127       2.659590
      10.350000       1.495700       2.122788       2.618678
      10.360000       1.462060       2.112153       2.583105
      10.370000       1.428695       2.096024       2.553340
      10.380000       1.397243       2.076292       2.529279
      10.390000       1.368923       2.054632       2.510503
      10.400000       1.344502       2.032328       2.496515
      10.410000       1.324363       2.010239       2.486894
      10.420000       1.308621       1.988867       2.481335
      10.430000       1.297234       1.968454       2.479598
      10.440000       1.290056       1.949041       2.481415
      10.450000       1.286837       1.930504       2.486384
      10.460000       1.287187       1.912605       2.493880
      10.470000       1.290536       1.895069       2.502994
      10.480000       1.296093       1.877704       2.512519
      10.490000       1.302837       1.860485       2.520983
      10.500000       1.309530       1.843578       2.526774
      10.510000       1.314771       1.827280       2.528352
      10.520000       1.317117       1.811941       2.524547
      10.530000       1.315267       1.797889       2.514856
      10.540000       1.308258       1.785386       2.499633
      10.550000       1.295627       1.774582       2.480066
      10.560000       1.277465       1.765441       2.457927
      10.570000       1.254318       1.757688       2.435164
      10.580000       1.227013       1.750798       2.413494
      10.590000       1.196479       1.744072       2.394121
      10.600000       1.163658       1.736780       2.377636
      10.610000       1.129509       1.728303       2.364113
      10.620000       1.095052       1.718217       2.353301
      10.630000       1.061359       1.706292       2.344864
      10.640000       1.029486       1.692442       2.338575
      10.650000       1.000351       1.676666       2.334418
      10.660000       0.974627       1.659042       2.332579
      10.670000       0.952679       1.639751       2.333337
      10.680000       0.934563       1.619112       2.336898
      10.690000       0.920060       1.597578       2.343230
      10.700000       0.908736       1.575672       2.351948
      10.710000       0.899995       1.553875       2.362270
      10.720000       0.893150       1.532533       2.373031
      10.730000       0.887500       1.511843       2.382720
      10.740000       0.882429       1.491923       2.389536
      10.750000       0.877505       1.472913       2.391465
      10.760000       0.872549       1.455040       2.386435
      10.770000       0.867647       1.438591       2.372562
      10.780000       0.863080       1.423816       2.348462
      10.790000       0.859212       1.410825       2.313559
      10.800000       0.856360       1.399509       2.268290
      10.810000       0.854716       1.389538       2.214137
      10.820000       0.854316       1.380443       2.153442
      10.830000       0.855098       1.371761       2.089043
      10.840000       0.856975       1.363222       2.023827
      10.850000       0.859910       1.354889       1.960331
      10.860000       0.863934       1.347197       1.900470
      10.870000       0.869111       1.340850       1.845442
      10.880000       0.875467       1.336635       1.795755
      10.890000       0.882939       1.335230       1.751324
      10.900000       0.891364       1.337090       1.711595
      10.910000       0.900530       1.342412       1.675690
      10.920000       0.910245       1.351154       1.642572
      10.930000       0.920410       1.363073       1.611253
      10.940000       0.931038       1.377750       1.580982
      10.950000       0.942234       1.394610       1.551373
      10.960000       0.954137       1.412955       1.522398
      10.970000       0.966847       1.432017       1.494256
      10.980000       0.980374       1.451032       1.467182
      10.990000       0.994604       1.469329       1.441273
      11.000000       1.009278       1.486390       1.416416
      11.010000       1.024007       1.501864       1.392312
      11.020000       1.038293       1.515520       1.368579
      11.030000       1.051589       1.527160       1.344872
      11.040000       1.063375       1.536530       1.320994
      11.050000       1.073239       1.543268       1.296955
      11.060000       1.080940       1.546918       1.272979
      11.070000       1.086439       1.546997       1.249455
      11.080000       1.089878       1.543104       1.226846
      11.090000       1.091551       1.535045       1.205599
      11.100000       1.091849       1.522928       1.186075
      11.110000       1.091215       1.507197       1.168505
      11.120000       1.090087       1.488559       1.152976
      11.130000       1.088868       1.467835       1.139424
      11.140000       1.087915       1.445772       1.127626
      11.150000       1.087561       1.422923       1.117193
      11.160000       1.088144       1.399629       1.107582
      11.170000       1.090015       1.376109       1.098116
      11.180000       1.093489       1.352606       1.088037
      11.190000       1.098770       1.329494       1.076580
      11.200000       1.105854       1.307324       1.063053
      11.210000       1.114462       1.286802       1.046923
      11.220000       1.124026       1.268697       1.027897
      11.230000       1.133746       1.253734       1.005978
      11.240000       1.142685       1.242468       0.981494
      11.250000       1.149895       1.235168       0.955066
      11.260000       1.154540       1.231750       0.927527
      11.270000       1.155980       1.231782       0.899817
      11.280000       1.153831       1.234582       0.872873
      11.290000       1.147969       1.239395       0.847548
      11.300000       1.138511       1.245583       0.824558
      11.310000       1.125746       1.252748       0.804450
      11.320000       1.110056       1.260732       0.787594
      11.330000       1.091850       1.269500       0.774179
      11.340000       1.071535       1.278957       0.764211
      11.350000       1.049517       1.288780       0.757514
      11.360000       1.026202       1.298304       0.753732
      11.370000       1.002003       1.306522       0.752332
      11.380000       0.977328       1.312185       0.752632
      11.390000       0.952576       1.314028       0.753847
      11.400000       0.928134       1.311036       0.755174
      11.410000       0.904396       1.302691       0.755887
      11.420000       0.881772       1.289094       0.755438
      11.430000       0.860685       1.270928       0.753514
      11.440000       0.841547       1.249315       0.750051
      11.450000       0.824718       1.225609       0.745192
      11.460000       0.810461       1.201190       0.739199
      11.470000       0.798900       1.177318       0.732359
      11.480000       0.789989       1.155049       0.724904
      11.490000       0.783493       1.135237       0.716972
      11.500000       0.779006       1.118573       0.708623
      11.510000       0.776003       1.105625       0.699896
      11.520000       0.773924       1.096814       0.690869
      11.530000       0.772284       1.092329       0.681692
      11.540000       0.770764       1.092005       0.672595
      11.550000       0.769258       1.095207       0.663852
      11.560000       0.767847       1.100792       0.655736
      11.570000       0.766710       1.107176       0.648479
      11.580000       0.766013       1.112554       0.642247
      11.590000       0.765813       1.115237       0.637136
      11.600000       0.766004       1.114042       0.633177
      11.610000       0.766333       1.108588       0.630342
      11.620000       0.766461       1.099396       0.628554
      11.630000       0.766065       1.087737       0.627682
      11.640000       0.764927       1.075302       0.627553
      11.650000       0.762991       1.063828       0.627977
      11.660000       0.760352       1.054794       0.628781
      11.670000       0.757191       1.049235       0.629852
      11.680000       0.753694       1.047686       0.631163
      11.690000       0.749989       1.050204       0.632771
      11.700000       0.746122       1.056447       0.634785
      11.710000       0.742076       1.065792       0.637319
      11.720000       0.737816       1.077465       0.640451
      11.730000       0.733330       1.090660       0.644188
      11.740000       0.728651       1.104634       0.648466
      11.750000       0.723865       1.118753       0.653180
      11.760000       0.719110       1.132504       0.658221
      11.770000       0.714579       1.145486       0.663521
      11.780000       0.710517       1.157383       0.669067
      11.790000       0.707214       1.167920       0.674895
      11.800000       0.704968       1.176830       0.681067
      11.810000       0.704027       1.183831       0.687637
      11.820000       0.704538       1.188645       0.694633
      11.830000       0.706505       1.191052       0.702036
      11.840000       0.709799       1.190973       0.709777
      11.850000       0.714195       1.188538       0.717751
      11.860000       0.719438       1.184118       0.725837
      11.870000       0.725291       1.178286       0.733937
      11.880000       0.731560       1.171714       0.742005
      11.890000       0.738081       1.165031       0.750055
      11.900000       0.744676       1.158684       0.758145
      11.910000       0.751121       1.152838       0.766349
      11.920000       0.757113       1.147339       0.774724
      11.930000       0.762281       1.141739       0.783310
      11.940000       0.766204       1.135370       0.792146
      11.950000       0.768467       1.127458       0.801319
      11.960000       0.768724       1.117267       0.811002
      11.970000       0.766771       1.104249       0.821471
      11.980000       0.762607       1.088175       0.833076
      11.990000       0.756471       1.069192       0.846172
      12.000000       0.748833       1.047811       0.861032
      12.010000       0.740325       1.024806       0.877770
      12.020000       0.731627       1.001061       0.896300
      12.030000       0.723336       0.977405       0.916354
      12.040000       0.715863       0.954483       0.937530
      12.050000       0.709384       0.932697       0.959365
      12.060000       0.703872       0.912228       0.981394
      12.070000       0.699170       0.893116       1.003192
      12.080000       0.695094       0.875342       1.024402
      12.090000       0.691518       0.858912       1.044769
      12.100000       0.688412       0.843887       1.064174
      12.110000       0.685826       0.830404       1.082653
      12.120000       0.683832       0.818654       1.100400
      12.130000       0.682454       0.808844       1.117722
      12.140000       0.681619       0.801136       1.134983
      12.150000       0.681133       0.795574       1.152535
      12.160000       0.680703       0.792033       1.170671
      12.170000       0.679971       0.790189       1.189598
      12.180000       0.678576       0.789529       1.209424
      12.190000       0.676223       0.789402       1.230167
      12.200000       0.672745       0.789103       1.251739
      12.210000       0.668146       0.787968       1.273951
      12.220000       0.662599       0.785475       1.296510
      12.230000       0.656418       0.781321       1.319039
      12.240000       0.649992       0.775466       1.341106
      12.250000       0.643723       0.768139       1.362275
      12.260000       0.637956       0.759778       1.382145
      12.270000       0.632934       0.750932       1.400404
      12.280000       0.628777       0.742145       1.416870
      12.290000       0.625495       0.733865       1.431535
      12.300000       0.623040       0.726418       1.444590
      12.310000       0.621349       0.720038       1.456439
      12.320000       0.620378       0.714922       1.467660
      12.330000       0.620105       0.711283       1.478940
      12.340000       0.620517       0.709384       1.490963
      12.350000       0.621607       0.709534       1.504306
      12.360000       0.623395       0.712082       1.519373
      12.370000       0.625958       0.717389       1.536385
      12.380000       0.629460       0.725822       1.555412
      12.390000       0.634152       0.737734       1.576438
      12.400000       0.640339       0.753450       1.599411
      12.410000       0.648325       0.773216       1.624284
      12.420000       0.658339       0.797143       1.651037
      12.430000       0.670474       0.825130       1.679676
      12.440000       0.684642       0.856800       1.710226
      12.450000       0.700547       0.891459       1.742708
      12.460000       0.717684       0.928085       1.777126
      12.470000       0.735369       0.965357       1.813468
      12.480000       0.752793       1.001704       1.851701
      12.490000       0.769096       1.035395       1.891764
      12.500000       0.783453       1.064671       1.933515
      12.510000       0.795134       1.087918       1.976640
      12.520000       0.803554       1.103866       2.020546
      12.530000       0.808290       1.111766       2.064258
      12.540000       0.809081       1.111473       2.106368
      12.550000       0.805849       1.103438       2.145066
      12.560000       0.798712       1.088607       2.178264
      12.570000       0.788010       1.068255       2.203815
      12.580000       0.774304       1.043813       2.219803
      12.590000       0.758333       1.016697       2.224880
      12.600000       0.740930       0.988180       2.218556
      12.610000       0.722904       0.959316       2.201365
      12.620000       0.704941       0.930913       2.174824
      12.630000       0.687523       0.903551       2.141188
      12.640000       0.670916       0.877628       2.103092
      12.650000       0.655202       0.853406       2.063179
      12.660000       0.640352       0.831063       2.023834
      12.670000       0.626310       0.810711       1.987036
      12.680000       0.613045       0.792392       1.954323
      12.690000       0.600574       0.776049       1.926836
      12.700000       0.588942       0.761492       1.905387
      12.710000       0.578194       0.748390       1.890524
      12.720000       0.568349       0.736293       1.882556
      12.730000       0.559408       0.724700       1.881532
      12.740000       0.551385       0.713157       1.887191
      12.750000       0.544328       0.701361       1.898893
      12.760000       0.538337       0.689230       1.915583
      12.770000       0.533532       0.676916       1.935802
      12.780000       0.530011       0.664745       1.957749
      12.790000       0.527793       0.653112       1.979371
      12.800000       0.526782       0.642392       1.998467
      12.810000       0.526764       0.632873       2.012796
      12.820000       0.527430       0.624738       2.020206
      12.830000       0.528431       0.618083       2.018828
      12.840000       0.529442       0.612940       2.007324
      12.850000       0.530214       0.609302       1.985141
      12.860000       0.530607       0.607147       1.952643
      12.870000       0.530584       0.606442       1.911065
      12.880000       0.530188       0.607155       1.862262
      12.890000       0.529510       0.609252       1.808380
      12.900000       0.528656       0.612699       1.751544
      12.910000       0.527724       0.617451       1.693637
      12.920000       0.526792       0.623420       1.636200
      12.930000       0.525895       0.630445       1.580409
      12.940000       0.525020       0.638260       1.527114
      12.950000       0.524103       0.646495       1.476894
      12.960000       0.523041       0.654713       1.430116
      12.970000       0.521710       0.662474       1.386988
      12.980000       0.519981       0.669415       1.347588
      12.990000       0.517725       0.675311       1.311892
      13.000000       0.514827       0.680101       1.279783
      13.010000       0.511194       0.683870       1.251076
      13.020000       0.506763       0.686797       1.225536
      13.030000       0.501505       0.689092       1.202905
      13.040000       0.495430       0.690941       1.182930
      13.050000       0.488592       0.692481       1.165382
      13.060000       0.481103       0.693798       1.150056
      13.070000       0.473157       0.694948       1.136771
      13.080000       0.465026       0.695982       1.125367
      13.090000       0.457045       0.696960       1.115699
      13.100000       0.449559       0.697944       1.107649
      13.110000       0.442864       0.698974       1.101137
      13.120000       0.437159       0.700045       1.096135
      13.130000       0.432528       0.701091       1.092666
      13.140000       0.428942       0.701972       1.090799
      13.150000       0.426284       0.702474       1.090635
      13.160000       0.424373       0.702302       1.092280
      13.170000       0.422986       0.701086       1.095823
      13.180000       0.421883       0.698411       1.101308
      13.190000       0.420830       0.693870       1.108700
      13.200000       0.419624       0.687148       1.117869
      13.210000       0.418107       0.678089       1.128577
      13.220000       0.416181       0.666747       1.140481
      13.230000       0.413808       0.653387       1.153152
      13.240000       0.411017       0.638471       1.166100
      13.250000       0.407898       0.622617       1.178801
      13.260000       0.404592       0.606543       1.190730
      13.270000       0.401278       0.590997       1.201383
      13.280000       0.398154       0.576681       1.210267
      13.290000       0.395425       0.564187       1.216877
      13.300000       0.393291       0.553964       1.220665
      13.310000       0.391946       0.546323       1.221054
      13.320000       0.391560       0.541456       1.217500
      13.330000       0.392268       0.539480       1.209601
      13.340000       0.394149       0.540464       1.197226
      13.350000       0.397210       0.544452       1.180602
      13.360000       0.401377       0.551486       1.160316
      13.370000       0.406500       0.561604       1.137248
      13.380000       0.412366       0.574834       1.112424
      13.390000       0.418727       0.591174       1.086865
      13.400000       0.425332       0.610540       1.061447
      13.410000       0.431959       0.632730       1.036803
      13.420000       0.438435       0.657373       1.013279
      13.430000       0.444638       0.683911       0.990946
      13.440000       0.450484       0.711607       0.969655
      13.450000       0.455922       0.739572       0.949113
      13.460000       0.460913       0.766812       0.928988
      13.470000       0.465431       0.792289       0.908981
      13.480000       0.469453       0.814998       0.888896
      13.490000       0.472971       0.834074       0.868666
      13.500000       0.476013       0.848916       0.848354
      13.510000       0.478672       0.859291       0.828135
      13.520000       0.481126       0.865395       0.808265
      13.530000       0.483626       0.867814       0.789044
      13.540000       0.486453       0.867413       0.770787
      13.550000       0.489848       0.865160       0.753784
      13.560000       0.493954       0.861947       0.738286
      13.570000       0.498792       0.858446       0.724485
      13.580000       0.504274       0.855029       0.712515
      13.590000       0.510240       0.851765       0.702463
      13.600000       0.516489       0.848483       0.694377
      13.610000       0.522794       0.844885       0.688288
      13.620000       0.528912       0.840674       0.684212
      13.630000       0.534591       0.835664       0.682161
      13.640000       0.539590       0.829841       0.682121
      13.650000       0.543711       0.823364       0.684037
      13.660000       0.546828       0.816496       0.687779
      13.670000       0.548880       0.809511       0.693124
      13.680000       0.549852       0.802608       0.699743
      13.690000       0.549730       0.795873       0.707217
      13.700000       0.548464       0.789289       0.715070
      13.710000       0.545935       0.782787       0.722824
      13.720000       0.541960       0.776303       0.730063
      13.730000       0.536304       0.769816       0.736487
      13.740000       0.528740       0.763354       0.741953
      13.750000       0.519116       0.756988       0.746466
      13.760000       0.507432       0.750813       0.750147
      13.770000       0.493881       0.744936       0.753183
      13.780000       0.478853       0.739462       0.755777
      13.790000       0.462889       0.734483       0.758120
      13.800000       0.446600       0.730056       0.760372
      13.810000       0.430587       0.726194       0.762648
      13.820000       0.415365       0.722856       0.765000
      13.830000       0.401315       0.719949       0.767395
      13.840000       0.388660       0.717332       0.769701
      13.850000       0.377469       0.714822       0.771682
      13.860000       0.367687       0.712198       0.773022
      13.870000       0.359168       0.709213       0.773360
      13.880000       0.351720       0.705626       0.772333
      13.890000       0.345142       0.701233       0.769616
      13.900000       0.339250       0.695915       0.764948
      13.910000       0.333886       0.689663       0.758174
      13.920000       0.328929       0.682594       0.749281
      13.930000       0.324295       0.674934       0.738441
      13.940000       0.319943       0.666981       0.726040
      13.950000       0.315873       0.659057       0.712652
      13.960000       0.312117       0.651454       0.698975
      13.970000       0.308724       0.644394       0.685730
      13.980000       0.305737       0.637998       0.673566
      13.990000       0.303178       0.632265       0.662991
      14.000000       0.301050       0.627076       0.654346
      14.010000       0.299337       0.622230       0.647815
      14.020000       0.298017       0.617509       0.643446
      14.030000       0.297077       0.612758       0.641167
      14.040000       0.296514       0.607935       0.640806
      14.050000       0.296330       0.603112       0.642105
      14.060000       0.296524       0.598442       0.644742
      14.070000       0.297074       0.594098       0.648356
      14.080000       0.297933       0.590236       0.652584
      14.090000       0.299026       0.586971       0.657087
      14.100000       0.300258       0.584365       0.661572
      14.110000       0.301528       0.582424       0.665808
      14.120000       0.302738       0.581086       0.669621
      14.130000       0.303797       0.580224       0.672895
      14.140000       0.304631       0.579670       0.675565
      14.150000       0.305175       0.579259       0.677618
      14.160000       0.305371       0.578895       0.679093
      14.170000       0.305166       0.578600       0.680093
      14.180000       0.304511       0.578530       0.680780
      14.190000       0.303371       0.578959       0.681355
      14.200000       0.301745       0.580225       0.682024
      14.210000       0.299683       0.582656       0.682951
      14.220000       0.297295       0.586506       0.684218
      14.230000       0.294750       0.591907       0.685797
      14.240000       0.292253       0.598850       0.687554
      14.250000       0.290017       0.607200       0.689260
      14.260000       0.288228       0.616733       0.690624
      14.270000       0.287021       0.627185       0.691328
      14.280000       0.286465       0.638303       0.691065
      14.290000       0.286559       0.649868       0.689594
      14.300000       0.287244       0.661702       0.686783
      14.310000       0.288418       0.673626       0.682630
      14.320000       0.289947       0.685417       0.677268
      14.330000       0.291682       0.696750       0.670935
      14.340000       0.293467       0.707180       0.663934
      14.350000       0.295154       0.716167       0.656603
      14.360000       0.296619       0.723159       0.649292
      14.370000       0.297769       0.727701       0.642346
      14.380000       0.298545       0.729547       0.636078
      14.390000       0.298917       0.728736       0.630736
      14.400000       0.298870       0.725609       0.626472
      14.410000       0.298390       0.720754       0.623319
      14.420000       0.297464       0.714892       0.621198
      14.430000       0.296101       0.708738       0.619951
      14.440000       0.294348       0.702881       0.619388
      14.450000       0.292310       0.697709       0.619337
      14.460000       0.290146       0.693394       0.619671
      14.470000       0.288042       0.689902       0.620316
      14.480000       0.286172       0.687025       0.621237
      14.490000       0.284657       0.684418       0.622424
      14.500000       0.283548       0.681658       0.623859
      14.510000       0.282827       0.678333       0.625488
      14.520000       0.282432       0.674154       0.627190
      14.530000       0.282283       0.669048       0.628768
      14.540000       0.282307       0.663202       0.629951
      14.550000       0.282445       0.657017       0.630416
      14.560000       0.282650       0.650999       0.629822
      14.570000       0.282878       0.645621       0.627848
      14.580000       0.283081       0.641209       0.624232
      14.590000       0.283209       0.637880       0.618813
      14.600000       0.283213       0.635542       0.611567
      14.610000       0.283049       0.633941       0.602624
      14.620000       0.282685       0.632729       0.592269
      14.630000       0.282112       0.631543       0.580921
      14.640000       0.281352       0.630063       0.569087
      14.650000       0.280465       0.628060       0.557313
      14.660000       0.279543       0.625409       0.546124
      14.670000       0.278695       0.622094       0.535966
      14.680000       0.278035       0.618182       0.527169
      14.690000       0.277659       0.613792       0.519918
      14.700000       0.277633       0.609052       0.514261
      14.710000       0.277982       0.604081       0.510121
      14.720000       0.278696       0.598988       0.507335
      14.730000       0.279737       0.593892       0.505689
      14.740000       0.281053       0.588916       0.504964
      14.750000       0.282591       0.584168       0.504960
      14.760000       0.284284       0.579690       0.505520
      14.770000       0.286052       0.575421       0.506520
      14.780000       0.287788       0.571200       0.507852
      14.790000       0.289368       0.566806       0.509385
      14.800000       0.290671       0.562029       0.510939
      14.810000       0.291609       0.556727       0.512281
      14.820000       0.292166       0.550873       0.513135
      14.830000       0.292411       0.544564       0.513225
      14.840000       0.292487       0.538016       0.512319
      14.850000       0.292586       0.531538       0.510266
      14.860000       0.292892       0.525492       0.507019
      14.870000       0.293553       0.520249       0.502649
      14.880000       0.294650       0.516144       0.497342
      14.890000       0.296203       0.513443       0.491392
      14.900000       0.298172       0.512316       0.485180
      14.910000       0.300462       0.512817       0.479136
      14.920000       0.302922       0.514891       0.473696
      14.930000       0.305348       0.518378       0.469249
      14.940000       0.307495       0.523036       0.466104
      14.950000       0.309099       0.528560       0.464461
      14.960000       0.309900       0.534605       0.464400
      14.970000       0.309662       0.540804       0.465878
      14.980000       0.308191       0.546799       0.468732
      14.990000       0.305350       0.552279       0.472688
      15.000000       0.301094       0.557023       0.477382
      15.010000       0.295481       0.560915       0.482382
      15.020000       0.288688       0.563946       0.487221
      15.030000       0.280987       0.566199       0.491441
      15.040000       0.272716       0.567830       0.494632
      15.050000       0.264228       0.569059       0.496475
      15.060000       0.255848       0.570162       0.496767
      15.070000       0.247847       0.571448       0.495449
      15.080000       0.240420       0.573218       0.492607
      15.090000       0.233688       0.575702       0.488457
      15.100000       0.227694       0.579002       0.483311
      15.110000       0.222424       0.583056       0.477523
      15.120000       0.217815       0.587636       0.471434
      15.130000       0.213779       0.592384       0.465334
      15.140000       0.210220       0.596842       0.459441
      15.150000       0.207043       0.600496       0.453897
      15.160000       0.204168       0.602819       0.448781
      15.170000       0.201526       0.603325       0.444117
      15.180000       0.199062       0.601653       0.439895
      15.190000       0.196738       0.597645       0.436089
      15.200000       0.194534       0.591395       0.432678
      15.210000       0.192447       0.583245       0.429663
      15.220000       0.190496       0.573706       0.427078
      15.230000       0.188708       0.563352       0.424974
      15.240000       0.187116       0.552719       0.423393
      15.250000       0.185753       0.542237       0.422335
      15.260000       0.184646       0.532202       0.421726
      15.270000       0.183811       0.522792       0.421400
      15.280000       0.183256       0.514098       0.421110
      15.290000       0.182975       0.506161       0.420551
      15.300000       0.182944       0.499005       0.419416
      15.310000       0.183131       0.492657       0.417452
      15.320000       0.183486       0.487157       0.414516
      15.330000       0.183955       0.482554       0.410602
      15.340000       0.184476       0.478899       0.405835
      15.350000       0.184989       0.476234       0.400426
      15.360000       0.185449       0.474571       0.394624
      15.370000       0.185833       0.473867       0.388669
      15.380000       0.186145       0.474005       0.382761
      15.390000       0.186420       0.474781       0.377062
      15.400000       0.186715       0.475916       0.371700
      15.410000       0.187099       0.477081       0.366773
      15.420000       0.187627       0.477939       0.362358
      15.430000       0.188325       0.478197       0.358503
      15.440000       0.189172       0.477649       0.355224
      15.450000       0.190107       0.476200       0.352509
      15.460000       0.191030       0.473866       0.350319
      15.470000       0.191830       0.470765       0.348598
      15.480000       0.192402       0.467086       0.347286
      15.490000       0.192668       0.463071       0.346322
      15.500000       0.192591       0.458992       0.345656
      15.510000       0.192178       0.455122       0.345246
      15.520000       0.191481       0.451705       0.345060
      15.530000       0.190581       0.448926       0.345062
      15.540000       0.189574       0.446894       0.345198
      15.550000       0.188554       0.445635       0.345393
      15.560000       0.187598       0.445106       0.345550
      15.570000       0.186756       0.445212       0.345563
      15.580000       0.186051       0.445833       0.345342
      15.590000       0.185479       0.446846       0.344824
      15.600000       0.185019       0.448145       0.343990
      15.610000       0.184638       0.449650       0.342861
      15.620000       0.184304       0.451301       0.341487
      15.630000       0.183988       0.453050       0.339922
      15.640000       0.183672       0.454840       0.338200
      15.650000       0.183354       0.456597       0.336320
      15.660000       0.183049       0.458225       0.334246
      15.670000       0.182785       0.459605       0.331920
      15.680000       0.182592       0.460616       0.329286
      15.690000       0.182484       0.461147       0.326306
      15.700000       0.182449       0.461114       0.322974
      15.710000       0.182444       0.460464       0.319311
      15.720000       0.182409       0.459173       0.315358
      15.730000       0.182285       0.457237       0.311167
      15.740000       0.182043       0.454656       0.306797
      15.750000       0.181700       0.451429       0.302309
      15.760000       0.181325       0.447555       0.297774
      15.770000       0.181024       0.443055       0.293280
      15.780000       0.180916       0.438000       0.288933
      15.790000       0.181112       0.432534       0.284852
      15.800000       0.181691       0.426891       0.281148
      15.810000       0.182690       0.421365       0.277906
      15.820000       0.184097       0.416279       0.275158
      15.830000       0.185850       0.411928       0.272885
      15.840000       0.187846       0.408533       0.271019
      15.850000       0.189955       0.406210       0.269462
      15.860000       0.192032       0.404947       0.268109
      15.870000       0.193945       0.404618       0.266877
      15.880000       0.195597       0.405000       0.265722
      15.890000       0.196950       0.405834       0.264645
      15.900000       0.198031       0.406875       0.263686
      15.910000       0.198926       0.407949       0.262902
      15.920000       0.199765       0.408969       0.262352
      15.930000       0.200681       0.409926       0.262075
      15.940000       0.201782       0.410853       0.262090
      15.950000       0.203129       0.411798       0.262398
      15.960000       0.204723       0.412794       0.262994
      15.970000       0.206523       0.413855       0.263875
      15.980000       0.208462       0.414975       0.265041
      15.990000       0.210474       0.416127       0.266484
      16.000000       0.212509       0.417265       0.268164
      16.010000       0.214537       0.418328       0.269984
      16.020000       0.216539       0.419253       0.271783
      16.030000       0.218501       0.419984       0.273332
      16.040000       0.220399       0.420488       0.274370
      16.050000       0.222204       0.420761       0.274645
      16.060000       0.223887       0.420830       0.273962
      16.070000       0.225440       0.420751       0.272228
      16.080000       0.226882       0.420602       0.269464
      16.090000       0.228263       0.420471       0.265796
      16.100000       0.229657       0.420431       0.261425
      16.110000       0.231131       0.420529       0.256595
      16.120000       0.232726       0.420769       0.251555
      16.130000       0.234434       0.421111       0.246543
      16.140000       0.236204       0.421467       0.241765
      16.150000       0.237950       0.421711       0.237387
      16.160000       0.239578       0.421692       0.233528
      16.170000       0.241006       0.421261       0.230257
      16.180000       0.242165       0.420301       0.227594
      16.190000       0.243006       0.418751       0.225517
      16.200000       0.243482       0.416626       0.223973
      16.210000       0.243552       0.414009       0.222894
      16.220000       0.243171       0.411026       0.222208
      16.230000       0.242285       0.407820       0.221858
      16.240000       0.240833       0.404507       0.221816
      16.250000       0.238745       0.401164       0.222085
      16.260000       0.235959       0.397813       0.222700
      16.270000       0.232441       0.394431       0.223718
      16.280000       0.228206       0.390963       0.225200
      16.290000       0.223336       0.387335       0.227192
      16.300000       0.217975       0.383478       0.229709
      16.310000       0.212310       0.379351       0.232713
      16.320000       0.206542       0.374967       0.236116
      16.330000       0.200867       0.370401       0.239769
      16.340000       0.195448       0.365785       0.243481
      16.350000       0.190404       0.361275       0.247032
      16.360000       0.185805       0.357011       0.250199
      16.370000       0.181668       0.353082       0.252774
      16.380000       0.177968       0.349510       0.254592
      16.390000       0.174653       0.346262       0.255545
      16.400000       0.171662       0.343289       0.255586
      16.410000       0.168944       0.340554       0.254739
      16.420000       0.166471       0.338064       0.253081
      16.430000       0.164236       0.335870       0.250733
      16.440000       0.162251       0.334045       0.247836
      16.450000       0.160539       0.332660       0.244538
      16.460000       0.159122       0.331755       0.240972
      16.470000       0.158016       0.331322       0.237255
      16.480000       0.157219       0.331295       0.233483
      16.490000       0.156705       0.331557       0.229734
      16.500000       0.156431       0.331955       0.226071
      16.510000       0.156341       0.332342       0.222543
      16.520000       0.156382       0.332618       0.219189
      16.530000       0.156511       0.332765       0.216030
      16.540000       0.156697       0.332858       0.213066
      16.550000       0.156904       0.333044       0.210283
      16.560000       0.157079       0.333487       0.207653
      16.570000       0.157133       0.334311       0.205144
      16.580000       0.156950       0.335551       0.202728
      16.590000       0.156404       0.337137       0.200377
      16.600000       0.155390       0.338901       0.198064
      16.610000       0.153851       0.340612       0.195760
      16.620000       0.151798       0.342019       0.193432
      16.630000       0.149310       0.342888       0.191052
      16.640000       0.146515       0.343031       0.188608
      16.650000       0.143570       0.342319       0.186119
      16.660000       0.140630       0.340693       0.183640
      16.670000       0.137835       0.338158       0.181264
      16.680000       0.135298       0.334777       0.179102
      16.690000       0.133101       0.330649       0.177269
      16.700000       0.131293       0.325894       0.175859
      16.710000       0.129897       0.320638       0.174927
      16.720000       0.128909       0.315001       0.174479
      16.730000       0.128301       0.309100       0.174475
      16.740000       0.128023       0.303034       0.174834
      16.750000       0.128005       0.296893       0.175461
      16.760000       0.128170       0.290752       0.176262
      16.770000       0.128444       0.284686       0.177171
      16.780000       0.128770       0.278776       0.178154
      16.790000       0.129115       0.273108       0.179211
      16.800000       0.129469       0.267779       0.180369
      16.810000       0.129836       0.262883       0.181671
      16.820000       0.130226       0.258509       0.183171
      16.830000       0.130651       0.254738       0.184931
      16.840000       0.131121       0.251636       0.187016
      16.850000       0.131656       0.249254       0.189489
      16.860000       0.132280       0.247636       0.192402
      16.870000       0.133023       0.246814       0.195789
      16.880000       0.133909       0.246815       0.199660
      16.890000       0.134946       0.247660       0.204001
      16.900000       0.136114       0.249355       0.208770
      16.910000       0.137368       0.251886       0.213899
      16.920000       0.138635       0.255207       0.219291
      16.930000       0.139830       0.259225       0.224826
      16.940000       0.140868       0.263797       0.230365
      16.950000       0.141678       0.268731       0.235765
      16.960000       0.142207       0.273803       0.240893
      16.970000       0.142433       0.278780       0.245642
      16.980000       0.142358       0.283455       0.249934
      16.990000       0.142004       0.287653       0.253720
      17.000000       0.141411       0.291228       0.256976
      17.010000       0.140624       0.294044       0.259695
      17.020000       0.139684       0.295942       0.261892
      17.030000       0.138624       0.296736       0.263602
      17.040000       0.137458       0.296221       0.264878
      17.050000       0.136188       0.294205       0.265795
      17.060000       0.134805       0.290564       0.266434
      17.070000       0.133310       0.285296       0.266878
      17.080000       0.131721       0.278557       0.267203
      17.090000       0.130092       0.270666       0.267480
      17.100000       0.128507       0.262057       0.267769
      17.110000       0.127074       0.253219       0.268118
      17.120000       0.125905       0.244614       0.268558
      17.130000       0.125098       0.236624       0.269093
      17.140000       0.124728       0.229524       0.269699
      17.150000       0.124828       0.223477       0.270327
      17.160000       0.125392       0.218546       0.270916
      17.170000       0.126372       0.214723       0.271415
      17.180000       0.127686       0.211950       0.271795
      17.190000       0.129228       0.210134       0.272056
      17.200000       0.130893       0.209164       0.272223
      17.210000       0.132597       0.208907       0.272317
      17.220000       0.134288       0.209224       0.272343
      17.230000       0.135954       0.209965       0.272266
      17.240000       0.137608       0.210989       0.272012
      17.250000       0.139269       0.212173       0.271481
      17.260000       0.140948       0.213436       0.270565
      17.270000       0.142634       0.214754       0.269174
      17.280000       0.144296       0.216160       0.267255
      17.290000       0.145891       0.217742       0.264810
      17.300000       0.147377       0.219610       0.261897
      17.310000       0.148729       0.221876       0.258625
      17.320000       0.149946       0.224614       0.255125
      17.330000       0.151058       0.227847       0.251529
      17.340000       0.152107       0.231530       0.247937
      17.350000       0.153137       0.235550       0.244411
      17.360000       0.154175       0.239727       0.240971
      17.370000       0.155218       0.243827       0.237608
      17.380000       0.156231       0.247584       0.234310
      17.390000       0.157166       0.250723       0.231066
      17.400000       0.157969       0.253005       0.227872
      17.410000       0.158600       0.254252       0.224730
      17.420000       0.159035       0.254372       0.221644
      17.430000       0.159269       0.253356       0.218619
      17.440000       0.159308       0.251267       0.215664
      17.450000       0.159161       0.248216       0.212798
      17.460000       0.158830       0.244338       0.210050
      17.470000       0.158312       0.239780       0.207463
      17.480000       0.157589       0.234694       0.205095
      17.490000       0.156638       0.229240       0.203013
      17.500000       0.155437       0.223596       0.201284
      17.510000       0.153991       0.217957       0.199960
      17.520000       0.152333       0.212534       0.199064
      17.530000       0.150539       0.207535       0.198584
      17.540000       0.148712       0.203143       0.198476
      17.550000       0.146967       0.199500       0.198670
      17.560000       0.145404       0.196694       0.199090
      17.570000       0.144084       0.194761       0.199672
      17.580000       0.143011       0.193684       0.200372
      17.590000       0.142134       0.193400       0.201173
      17.600000       0.141350       0.193814       0.202071
      17.610000       0.140527       0.194799       0.203067
      17.620000       0.139527       0.196209       0.204151
      17.630000       0.138232       0.197884       0.205298
      17.640000       0.136565       0.199666       0.206462
      17.650000       0.134500       0.201410       0.207580
      17.660000       0.132060       0.203009       0.208575
      17.670000       0.129311       0.204408       0.209359
      17.680000       0.126346       0.205612       0.209846
      17.690000       0.123268       0.206685       0.209971
      17.700000       0.120177       0.207728       0.209702
      17.710000       0.117157       0.208856       0.209059
      17.720000       0.114271       0.210172       0.208114
      17.730000       0.111558       0.211758       0.206984
      17.740000       0.109043       0.213658       0.205811
      17.750000       0.106735       0.215882       0.204742
      17.760000       0.104637       0.218405       0.203907
      17.770000       0.102747       0.221158       0.203407
      17.780000       0.101052       0.224028       0.203305
      17.790000       0.099530       0.226856       0.203631
      17.800000       0.098147       0.229439       0.204379
      17.810000       0.096864       0.231551       0.205528
      17.820000       0.095649       0.232981       0.207041
      17.830000       0.094477       0.233567       0.208882
      17.840000       0.093349       0.233233       0.211009
      17.850000       0.092281       0.232000       0.213382
      17.860000       0.091306       0.229976       0.215951
      17.870000       0.090464       0.227339       0.218664
      17.880000       0.089801       0.224301       0.221462
      17.890000       0.089359       0.221088       0.224292
      17.900000       0.089180       0.217912       0.227107
      17.910000       0.089296       0.214953       0.229869
      17.920000       0.089734       0.212336       0.232554
      17.930000       0.090502       0.210119       0.235139
      17.940000       0.091587       0.208285       0.237603
      17.950000       0.092944       0.206755       0.239914
      17.960000       0.094499       0.205408       0.242024
      17.970000       0.096140       0.204118       0.243872
      17.980000       0.097730       0.202775       0.245386
      17.990000       0.099120       0.201309       0.246495
      18.000000       0.100171       0.199689       0.247148
      18.010000       0.100777       0.197928       0.247324
      18.020000       0.100886       0.196066       0.247050
      18.030000       0.100512       0.194168       0.246396
      18.040000       0.099731       0.192307       0.245469
      18.050000       0.098666       0.190556       0.244400
      18.060000       0.097460       0.188974       0.243321
      18.070000       0.096253       0.187601       0.242347
      18.080000       0.095162       0.186460       0.241565
      18.090000       0.094269       0.185569       0.241019
      18.100000       0.093623       0.184955       0.240708
      18.110000       0.093243       0.184662       0.240593
      18.120000       0.093122       0.184748       0.240603
      18.130000       0.093240       0.185271       0.240659
      18.140000       0.093565       0.186266       0.240692
      18.150000       0.094066       0.187729       0.240667
      18.160000       0.094717       0.189603       0.240594
      18.170000       0.095496       0.191772       0.240524
      18.180000       0.096387       0.194072       0.240544
      18.190000       0.097372       0.196297       0.240754
      18.200000       0.098427       0.198224       0.241248
      18.210000       0.099518       0.199645       0.242093
      18.220000       0.100607       0.200403       0.243315
      18.230000       0.101654       0.200417       0.244901
      18.240000       0.102631       0.199697       0.246794
      18.250000       0.103527       0.198326       0.248899
      18.260000       0.104360       0.196440       0.251095
      18.270000       0.105171       0.194187       0.253231
      18.280000       0.106022       0.191708       0.255139
      18.290000       0.106984       0.189125       0.256641
      18.300000       0.108125       0.186539       0.257569
      18.310000       0.109500       0.184037       0.257782
      18.320000       0.111136       0.181690       0.257192
      18.330000       0.113028       0.179544       0.255782
      18.340000       0.115135       0.177617       0.253614
      18.350000       0.117379       0.175894       0.250819
      18.360000       0.119651       0.174327       0.247581
      18.370000       0.121825       0.172850       0.244102
      18.380000       0.123770       0.171393       0.240578
      18.390000       0.125362       0.169895       0.237170
      18.400000       0.126504       0.168315       0.233996
      18.410000       0.127133       0.166649       0.231124
      18.420000       0.127231       0.164923       0.228589
      18.430000       0.126827       0.163200       0.226398
      18.440000       0.125989       0.161561       0.224544
      18.450000       0.124810       0.160093       0.223011
      18.460000       0.123389       0.158870       0.221775
      18.470000       0.121813       0.157935       0.220804
      18.480000       0.120145       0.157292       0.220051
      18.490000       0.118418       0.156901       0.219460
      18.500000       0.116639       0.156685       0.218966
      18.510000       0.114789       0.156551       0.218507
      18.520000       0.112832       0.156412       0.218031
      18.530000       0.110731       0.156213       0.217502
      18.540000       0.108455       0.155941       0.216900
      18.550000       0.106002       0.155620       0.216213
      18.560000       0.103398       0.155294       0.215429
      18.570000       0.100703       0.155012       0.214535
      18.580000       0.098000       0.154803       0.213515
      18.590000       0.095383       0.154677       0.212362
      18.600000       0.092942       0.154620       0.211078
      18.610000       0.090751       0.154604       0.209684
      18.620000       0.088864       0.154605       0.208222
      18.630000       0.087311       0.154611       0.206744
      18.640000       0.086102       0.154635       0.205313
      18.650000       0.085230       0.154708       0.203988
      18.660000       0.084671       0.154868       0.202822
      18.670000       0.084393       0.155149       0.201854
      18.680000       0.084355       0.155558       0.201114
      18.690000       0.084511       0.156073       0.200619
      18.700000       0.084813       0.156645       0.200372
      18.710000       0.085218       0.157212       0.200359
      18.720000       0.085691       0.157713       0.200548
      18.730000       0.086201       0.158100       0.200890
      18.740000       0.086725       0.158348       0.201331
      18.750000       0.087241       0.158453       0.201827
      18.760000       0.087729       0.158436       0.202358
      18.770000       0.088175       0.158328       0.202934
      18.780000       0.088568       0.158159       0.203591
      18.790000       0.088904       0.157952       0.204376
      18.800000       0.089180       0.157714       0.205326
      18.810000       0.089392       0.157435       0.206448
      18.820000       0.089539       0.157093       0.207707
      18.830000       0.089621       0.156659       0.209029
      18.840000       0.089640       0.156097       0.210311
      18.850000       0.089602       0.155372       0.211439
      18.860000       0.089512       0.154449       0.212319
      18.870000       0.089376       0.153306       0.212893
      18.880000       0.089201       0.151941       0.213148
      18.890000       0.088990       0.150380       0.213117
      18.900000       0.088742       0.148670       0.212861
      18.910000       0.088452       0.146871       0.212453
      18.920000       0.088105       0.145041       0.211967
      18.930000       0.087682       0.143224       0.211468
      18.940000       0.087162       0.141443       0.211006
      18.950000       0.086528       0.139696       0.210613
      18.960000       0.085771       0.137959       0.210295
      18.970000       0.084898       0.136191       0.210030
      18.980000       0.083934       0.134350       0.209767
      18.990000       0.082920       0.132399       0.209438
      19.000000       0.081909       0.130316       0.208972
      19.010000       0.080959       0.128101       0.208312
      19.020000       0.080117       0.125776       0.207428
      19.030000       0.079418       0.123375       0.206323
      19.040000       0.078876       0.120945       0.205032
      19.050000       0.078491       0.118531       0.203621
      19.060000       0.078253       0.116176       0.202177
      19.070000       0.078155       0.113918       0.200794
      19.080000       0.078199       0.111795       0.199553
      19.090000       0.078395       0.109843       0.198506
      19.100000       0.078759       0.108100       0.197672
      19.110000       0.079298       0.106598       0.197035
      19.120000       0.080005       0.105352       0.196555
      19.130000       0.080850       0.104367       0.196186
      19.140000       0.081782       0.103625       0.195891
      19.150000       0.082740       0.103101       0.195655
      19.160000       0.083662       0.102764       0.195501
      19.170000       0.084496       0.102587       0.195485
      19.180000       0.085205       0.102549       0.195692
      19.190000       0.085771       0.102639       0.196216
      19.200000       0.086183       0.102848       0.197140
      19.210000       0.086432       0.103167       0.198512
      19.220000       0.086506       0.103573       0.200337
      19.230000       0.086392       0.104026       0.202567
      19.240000       0.086078       0.104467       0.205111
      19.250000       0.085562       0.104828       0.207845
      19.260000       0.084855       0.105049       0.210629
      19.270000       0.083985       0.105098       0.213327
      19.280000       0.082995       0.104982       0.215828
      19.290000       0.081935       0.104752       0.218053
      19.300000       0.080862       0.104491       0.219961
      19.310000       0.079833       0.104292       0.221541
      19.320000       0.078898       0.104241       0.222805
      19.330000       0.078097       0.104396       0.223773
      19.340000       0.077451       0.104780       0.224472
      19.350000       0.076966       0.105374       0.224933
      19.360000       0.076628       0.106129       0.225195
      19.370000       0.076413       0.106975       0.225301
      19.380000       0.076293       0.107846       0.225295
      19.390000       0.076243       0.108694       0.225210
      19.400000       0.076247       0.109498       0.225064
      19.410000       0.076299       0.110266       0.224853
      19.420000       0.076402       0.111020       0.224555
      19.430000       0.076566       0.111783       0.224143
      19.440000       0.076797       0.112560       0.223591
      19.450000       0.077102       0.113335       0.222883
      19.460000       0.077483       0.114074       0.222008
      19.470000       0.077938       0.114734       0.220952
      19.480000       0.078467       0.115272       0.219686
      19.490000       0.079066       0.115659       0.218161
      19.500000       0.079734       0.115883       0.216318
      19.510000       0.080472       0.115956       0.214099
      19.520000       0.081282       0.115910       0.211470
      19.530000       0.082167       0.115793       0.208434
      19.540000       0.083129       0.115654       0.205036
      19.550000       0.084160       0.115530       0.201358
      19.560000       0.085239       0.115436       0.197517
      19.570000       0.086332       0.115359       0.193642
      19.580000       0.087387       0.115268       0.189871
      19.590000       0.088339       0.115122       0.186332
      19.600000       0.089111       0.114883       0.183135
      19.610000       0.089625       0.114519       0.180359
      19.620000       0.089812       0.114011       0.178049
      19.630000       0.089629       0.113352       0.176215
      19.640000       0.089068       0.112541       0.174838
      19.650000       0.088160       0.111589       0.173880
      19.660000       0.086968       0.110513       0.173295
      19.670000       0.085575       0.109332       0.173035
      19.680000       0.084063       0.108060       0.173052
      19.690000       0.082508       0.106700       0.173306
      19.700000       0.080968       0.105245       0.173754
      19.710000       0.079488       0.103679       0.174354
      19.720000       0.078099       0.101987       0.175058
      19.730000       0.076821       0.100157       0.175813
      19.740000       0.075666       0.098197       0.176563
      19.750000       0.074641       0.096131       0.177259
      19.760000       0.073743       0.094004       0.177859
      19.770000       0.072971       0.091876       0.178337
      19.780000       0.072317       0.089814       0.178693
      19.790000       0.071776       0.087881       0.178949
      19.800000       0.071342       0.086131       0.179152
      19.810000       0.071006       0.084606       0.179365
      19.820000       0.070764       0.083327       0.179650
      19.830000       0.070612       0.082303       0.180056
      19.840000       0.070552       0.081530       0.180612
      19.850000       0.070591       0.080996       0.181324
      19.860000       0.070744       0.080689       0.182186
      19.870000       0.071030       0.080599       0.183186
      19.880000       0.071464       0.080717       0.184312
      19.890000       0.072054       0.081037       0.185547
      19.900000       0.072802       0.081552       0.186869
      19.910000       0.073700       0.082252       0.188239
      19.920000       0.074736       0.083121       0.189606
      19.930000       0.075894       0.084140       0.190908
      19.940000       0.077159       0.085286       0.192077
      19.950000       0.078514       0.086532       0.193054
      19.960000       0.079939       0.087846       0.193787
      19.970000       0.081415       0.089193       0.194241
      19.980000       0.082918       0.090528       0.194392
      19.990000       0.084427       0.091797       0.194225
      20.000000       0.085922       0.092939       0.193740
