  # energy grid [eV]     epsi_x  epsi_y  epsi_z
       0.000000            NaN            NaN            NaN
       0.010000       0.000090       0.000045       0.000133
       0.020000       0.000180       0.000090       0.000267
       0.030000       0.000271       0.000135       0.000401
       0.040000       0.000361       0.000181       0.000535
       0.050000       0.000451       0.000226       0.000669
       0.060000       0.000541       0.000271       0.000804
       0.070000       0.000632       0.000316       0.000940
       0.080000       0.000722       0.000361       0.001077
       0.090000       0.000813       0.000407       0.001214
       0.100000       0.000903       0.000452       0.001353
       0.110000       0.000993       0.000497       0.001493
       0.120000       0.001084       0.000542       0.001634
       0.130000       0.001175       0.000588       0.001776
       0.140000       0.001265       0.000633       0.001921
       0.150000       0.001356       0.000678       0.002067
       0.160000       0.001447       0.000724       0.002215
       0.170000       0.001538       0.000769       0.002365
       0.180000       0.001629       0.000814       0.002518
       0.190000       0.001720       0.000860       0.002673
       0.200000       0.001811       0.000905       0.002831
       0.210000       0.001902       0.000951       0.002992
       0.220000       0.001993       0.000997       0.003157
       0.230000       0.002085       0.001042       0.003324
       0.240000       0.002176       0.001088       0.003496
       0.250000       0.002268       0.001133       0.003672
       0.260000       0.002359       0.001179       0.003853
       0.270000       0.002451       0.001225       0.004038
       0.280000       0.002543       0.001271       0.004229
       0.290000       0.002636       0.001317       0.004425
       0.300000       0.002728       0.001363       0.004628
       0.310000       0.002820       0.001409       0.004837
       0.320000       0.002913       0.001455       0.005054
       0.330000       0.003006       0.001501       0.005279
       0.340000       0.003098       0.001547       0.005513
       0.350000       0.003192       0.001593       0.005756
       0.360000       0.003285       0.001639       0.006009
       0.370000       0.003378       0.001686       0.006274
       0.380000       0.003472       0.001732       0.006552
       0.390000       0.003566       0.001778       0.006843
       0.400000       0.003659       0.001825       0.007149
       0.410000       0.003754       0.001872       0.007472
       0.420000       0.003848       0.001918       0.007813
       0.430000       0.003943       0.001965       0.008175
       0.440000       0.004037       0.002012       0.008558
       0.450000       0.004132       0.002059       0.008967
       0.460000       0.004228       0.002106       0.009403
       0.470000       0.004323       0.002153       0.009871
       0.480000       0.004419       0.002200       0.010372
       0.490000       0.004515       0.002247       0.010912
       0.500000       0.004611       0.002295       0.011496
       0.510000       0.004707       0.002342       0.012128
       0.520000       0.004804       0.002390       0.012815
       0.530000       0.004901       0.002437       0.013565
       0.540000       0.004998       0.002485       0.014385
       0.550000       0.005096       0.002533       0.015285
       0.560000       0.005194       0.002581       0.016275
       0.570000       0.005292       0.002629       0.017370
       0.580000       0.005391       0.002677       0.018582
       0.590000       0.005489       0.002725       0.019928
       0.600000       0.005589       0.002774       0.021427
       0.610000       0.005688       0.002822       0.023100
       0.620000       0.005788       0.002871       0.024969
       0.630000       0.005888       0.002920       0.027057
       0.640000       0.005988       0.002968       0.029389
       0.650000       0.006089       0.003017       0.031987
       0.660000       0.006191       0.003067       0.034868
       0.670000       0.006292       0.003116       0.038036
       0.680000       0.006394       0.003165       0.041480
       0.690000       0.006497       0.003215       0.045159
       0.700000       0.006600       0.003264       0.048994
       0.710000       0.006703       0.003314       0.052854
       0.720000       0.006807       0.003364       0.056554
       0.730000       0.006911       0.003414       0.059860
       0.740000       0.007015       0.003464       0.062510
       0.750000       0.007120       0.003515       0.064263
       0.760000       0.007224       0.003565       0.064944
       0.770000       0.007330       0.003616       0.064492
       0.780000       0.007435       0.003667       0.062975
       0.790000       0.007541       0.003718       0.060571
       0.800000       0.007647       0.003769       0.057525
       0.810000       0.007753       0.003820       0.054098
       0.820000       0.007860       0.003872       0.050523
       0.830000       0.007968       0.003923       0.046981
       0.840000       0.008076       0.003975       0.043602
       0.850000       0.008184       0.004027       0.040462
       0.860000       0.008293       0.004079       0.037602
       0.870000       0.008403       0.004132       0.035032
       0.880000       0.008513       0.004184       0.032747
       0.890000       0.008624       0.004237       0.030730
       0.900000       0.008735       0.004290       0.028959
       0.910000       0.008847       0.004343       0.027410
       0.920000       0.008959       0.004396       0.026060
       0.930000       0.009072       0.004450       0.024888
       0.940000       0.009186       0.004504       0.023872
       0.950000       0.009300       0.004558       0.022995
       0.960000       0.009415       0.004612       0.022242
       0.970000       0.009530       0.004666       0.021597
       0.980000       0.009646       0.004721       0.021050
       0.990000       0.009763       0.004776       0.020590
       1.000000       0.009880       0.004831       0.020208
       1.010000       0.009998       0.004886       0.019897
       1.020000       0.010117       0.004942       0.019650
       1.030000       0.010236       0.004997       0.019462
       1.040000       0.010357       0.005054       0.019328
       1.050000       0.010477       0.005110       0.019245
       1.060000       0.010599       0.005166       0.019209
       1.070000       0.010721       0.005223       0.019219
       1.080000       0.010844       0.005280       0.019271
       1.090000       0.010968       0.005337       0.019366
       1.100000       0.011092       0.005395       0.019501
       1.110000       0.011217       0.005453       0.019677
       1.120000       0.011343       0.005511       0.019893
       1.130000       0.011470       0.005569       0.020150
       1.140000       0.011598       0.005628       0.020449
       1.150000       0.011726       0.005687       0.020791
       1.160000       0.011856       0.005746       0.021177
       1.170000       0.011986       0.005806       0.021610
       1.180000       0.012117       0.005866       0.022092
       1.190000       0.012249       0.005926       0.022628
       1.200000       0.012382       0.005986       0.023220
       1.210000       0.012515       0.006047       0.023873
       1.220000       0.012650       0.006108       0.024593
       1.230000       0.012786       0.006170       0.025386
       1.240000       0.012922       0.006232       0.026260
       1.250000       0.013060       0.006294       0.027223
       1.260000       0.013199       0.006356       0.028284
       1.270000       0.013338       0.006419       0.029456
       1.280000       0.013479       0.006482       0.030751
       1.290000       0.013621       0.006546       0.032185
       1.300000       0.013763       0.006610       0.033775
       1.310000       0.013907       0.006674       0.035542
       1.320000       0.014052       0.006739       0.037510
       1.330000       0.014199       0.006804       0.039704
       1.340000       0.014346       0.006869       0.042157
       1.350000       0.014494       0.006935       0.044902
       1.360000       0.014644       0.007002       0.047979
       1.370000       0.014795       0.007068       0.051429
       1.380000       0.014947       0.007136       0.055297
       1.390000       0.015101       0.007203       0.059629
       1.400000       0.015256       0.007271       0.064466
       1.410000       0.015412       0.007340       0.069840
       1.420000       0.015569       0.007409       0.075766
       1.430000       0.015728       0.007478       0.082224
       1.440000       0.015888       0.007548       0.089150
       1.450000       0.016050       0.007618       0.096412
       1.460000       0.016213       0.007689       0.103797
       1.470000       0.016378       0.007760       0.111001
       1.480000       0.016544       0.007832       0.117644
       1.490000       0.016711       0.007905       0.123302
       1.500000       0.016880       0.007978       0.127561
       1.510000       0.017051       0.008051       0.130084
       1.520000       0.017223       0.008125       0.130674
       1.530000       0.017397       0.008199       0.129306
       1.540000       0.017573       0.008274       0.126125
       1.550000       0.017751       0.008350       0.121423
       1.560000       0.017930       0.008426       0.115579
       1.570000       0.018111       0.008503       0.109006
       1.580000       0.018293       0.008581       0.102093
       1.590000       0.018478       0.008659       0.095166
       1.600000       0.018665       0.008737       0.088476
       1.610000       0.018853       0.008817       0.082189
       1.620000       0.019044       0.008897       0.076401
       1.630000       0.019236       0.008978       0.071154
       1.640000       0.019431       0.009059       0.066451
       1.650000       0.019628       0.009141       0.062271
       1.660000       0.019827       0.009224       0.058578
       1.670000       0.020028       0.009307       0.055329
       1.680000       0.020232       0.009391       0.052480
       1.690000       0.020437       0.009476       0.049990
       1.700000       0.020646       0.009562       0.047818
       1.710000       0.020856       0.009649       0.045928
       1.720000       0.021069       0.009736       0.044290
       1.730000       0.021285       0.009824       0.042875
       1.740000       0.021503       0.009913       0.041658
       1.750000       0.021724       0.010003       0.040619
       1.760000       0.021948       0.010094       0.039741
       1.770000       0.022174       0.010186       0.039006
       1.780000       0.022404       0.010278       0.038404
       1.790000       0.022636       0.010372       0.037922
       1.800000       0.022871       0.010466       0.037552
       1.810000       0.023109       0.010561       0.037286
       1.820000       0.023351       0.010658       0.037118
       1.830000       0.023595       0.010755       0.037043
       1.840000       0.023843       0.010854       0.037058
       1.850000       0.024094       0.010953       0.037160
       1.860000       0.024349       0.011054       0.037347
       1.870000       0.024608       0.011156       0.037620
       1.880000       0.024870       0.011259       0.037978
       1.890000       0.025135       0.011363       0.038423
       1.900000       0.025405       0.011468       0.038957
       1.910000       0.025678       0.011574       0.039584
       1.920000       0.025956       0.011682       0.040309
       1.930000       0.026238       0.011791       0.041138
       1.940000       0.026524       0.011902       0.042077
       1.950000       0.026814       0.012013       0.043135
       1.960000       0.027109       0.012127       0.044322
       1.970000       0.027409       0.012241       0.045651
       1.980000       0.027713       0.012357       0.047136
       1.990000       0.028023       0.012475       0.048792
       2.000000       0.028337       0.012594       0.050640
       2.010000       0.028657       0.012715       0.052702
       2.020000       0.028981       0.012837       0.055003
       2.030000       0.029312       0.012961       0.057574
       2.040000       0.029648       0.013087       0.060450
       2.050000       0.029990       0.013214       0.063669
       2.060000       0.030338       0.013344       0.067275
       2.070000       0.030693       0.013475       0.071319
       2.080000       0.031054       0.013608       0.075855
       2.090000       0.031421       0.013743       0.080940
       2.100000       0.031796       0.013881       0.086633
       2.110000       0.032177       0.014020       0.092989
       2.120000       0.032566       0.014162       0.100051
       2.130000       0.032962       0.014305       0.107843
       2.140000       0.033367       0.014451       0.116351
       2.150000       0.033779       0.014600       0.125507
       2.160000       0.034200       0.014751       0.135173
       2.170000       0.034629       0.014905       0.145123
       2.180000       0.035068       0.015061       0.155041
       2.190000       0.035516       0.015220       0.164539
       2.200000       0.035973       0.015381       0.173188
       2.210000       0.036441       0.015546       0.180577
       2.220000       0.036919       0.015714       0.186361
       2.230000       0.037408       0.015885       0.190303
       2.240000       0.037908       0.016059       0.192290
       2.250000       0.038419       0.016236       0.192329
       2.260000       0.038943       0.016417       0.190523
       2.270000       0.039480       0.016601       0.187044
       2.280000       0.040030       0.016790       0.182107
       2.290000       0.040593       0.016982       0.175953
       2.300000       0.041171       0.017178       0.168832
       2.310000       0.041764       0.017378       0.161000
       2.320000       0.042372       0.017583       0.152709
       2.330000       0.042997       0.017793       0.144208
       2.340000       0.043639       0.018007       0.135726
       2.350000       0.044298       0.018226       0.127470
       2.360000       0.044976       0.018450       0.119607
       2.370000       0.045673       0.018679       0.112263
       2.380000       0.046391       0.018915       0.105513
       2.390000       0.047131       0.019156       0.099396
       2.400000       0.047893       0.019403       0.093912
       2.410000       0.048678       0.019656       0.089041
       2.420000       0.049488       0.019917       0.084746
       2.430000       0.050325       0.020184       0.080983
       2.440000       0.051189       0.020459       0.077705
       2.450000       0.052081       0.020741       0.074865
       2.460000       0.053005       0.021032       0.072421
       2.470000       0.053961       0.021331       0.070333
       2.480000       0.054951       0.021639       0.068566
       2.490000       0.055977       0.021957       0.067089
       2.500000       0.057041       0.022284       0.065875
       2.510000       0.058146       0.022623       0.064903
       2.520000       0.059294       0.022972       0.064154
       2.530000       0.060488       0.023333       0.063612
       2.540000       0.061730       0.023706       0.063265
       2.550000       0.063025       0.024093       0.063104
       2.560000       0.064375       0.024493       0.063122
       2.570000       0.065785       0.024909       0.063314
       2.580000       0.067258       0.025340       0.063677
       2.590000       0.068798       0.025788       0.064213
       2.600000       0.070412       0.026254       0.064924
       2.610000       0.072105       0.026739       0.065814
       2.620000       0.073882       0.027244       0.066891
       2.630000       0.075750       0.027771       0.068163
       2.640000       0.077717       0.028321       0.069644
       2.650000       0.079791       0.028897       0.071349
       2.660000       0.081980       0.029499       0.073297
       2.670000       0.084296       0.030131       0.075509
       2.680000       0.086749       0.030793       0.078013
       2.690000       0.089352       0.031489       0.080840
       2.700000       0.092118       0.032222       0.084026
       2.710000       0.095064       0.032994       0.087612
       2.720000       0.098208       0.033809       0.091647
       2.730000       0.101567       0.034670       0.096185
       2.740000       0.105165       0.035582       0.101284
       2.750000       0.109026       0.036550       0.107011
       2.760000       0.113175       0.037578       0.113431
       2.770000       0.117641       0.038673       0.120610
       2.780000       0.122454       0.039841       0.128607
       2.790000       0.127647       0.041090       0.137460
       2.800000       0.133248       0.042427       0.147176
       2.810000       0.139287       0.043863       0.157714
       2.820000       0.145786       0.045408       0.168961
       2.830000       0.152761       0.047074       0.180720
       2.840000       0.160214       0.048876       0.192701
       2.850000       0.168141       0.050829       0.204533
       2.860000       0.176529       0.052952       0.215796
       2.870000       0.185369       0.055266       0.226070
       2.880000       0.194675       0.057794       0.234989
       2.890000       0.204500       0.060565       0.242281
       2.900000       0.214947       0.063610       0.247794
       2.910000       0.226179       0.066964       0.251486
       2.920000       0.238410       0.070670       0.253411
       2.930000       0.251890       0.074775       0.253691
       2.940000       0.266892       0.079330       0.252489
       2.950000       0.283704       0.084396       0.249987
       2.960000       0.302624       0.090034       0.246372
       2.970000       0.323957       0.096313       0.241821
       2.980000       0.348016       0.103299       0.236500
       2.990000       0.375117       0.111054       0.230559
       3.000000       0.405559       0.119622       0.224132
       3.010000       0.439609       0.129021       0.217336
       3.020000       0.477453       0.139214       0.210275
       3.030000       0.519142       0.150094       0.203041
       3.040000       0.564520       0.161449       0.195718
       3.050000       0.613138       0.172944       0.188387
       3.060000       0.664183       0.184114       0.181125
       3.070000       0.716429       0.194396       0.174012
       3.080000       0.768237       0.203198       0.167134
       3.090000       0.817605       0.210004       0.160577
       3.100000       0.862244       0.214484       0.154425
       3.110000       0.899689       0.216562       0.148754
       3.120000       0.927439       0.216421       0.143622
       3.130000       0.943229       0.214444       0.139064
       3.140000       0.945412       0.211123       0.135090
       3.150000       0.933406       0.206986       0.131691
       3.160000       0.907979       0.202545       0.128842
       3.170000       0.871205       0.198271       0.126515
       3.180000       0.826068       0.194577       0.124685
       3.190000       0.775881       0.191808       0.123337
       3.200000       0.723736       0.190230       0.122463
       3.210000       0.672152       0.190034       0.122065
       3.220000       0.622941       0.191335       0.122150
       3.230000       0.577241       0.194169       0.122731
       3.240000       0.535646       0.198490       0.123824
       3.250000       0.498343       0.204155       0.125447
       3.260000       0.465254       0.210899       0.127624
       3.270000       0.436131       0.218313       0.130385
       3.280000       0.410638       0.225832       0.133766
       3.290000       0.388394       0.232753       0.137811
       3.300000       0.369019       0.238304       0.142574
       3.310000       0.352150       0.241765       0.148116
       3.320000       0.337470       0.242617       0.154509
       3.330000       0.324714       0.240665       0.161831
       3.340000       0.313676       0.236093       0.170161
       3.350000       0.304204       0.229405       0.179581
       3.360000       0.296189       0.221299       0.190157
       3.370000       0.289549       0.212518       0.201934
       3.380000       0.284224       0.203730       0.214911
       3.390000       0.280161       0.195467       0.229026
       3.400000       0.277320       0.188111       0.244129
       3.410000       0.275666       0.181911       0.259966
       3.420000       0.275176       0.177012       0.276175
       3.430000       0.275836       0.173486       0.292299
       3.440000       0.277645       0.171356       0.307828
       3.450000       0.280614       0.170615       0.322257
       3.460000       0.284767       0.171228       0.335145
       3.470000       0.290141       0.173132       0.346166
       3.480000       0.296786       0.176224       0.355126
       3.490000       0.304764       0.180345       0.361965
       3.500000       0.314144       0.185254       0.366730
       3.510000       0.325008       0.190615       0.369548
       3.520000       0.337445       0.195986       0.370597
       3.530000       0.351557       0.200843       0.370083
       3.540000       0.367462       0.204638       0.368220
       3.550000       0.385302       0.206894       0.365220
       3.560000       0.405243       0.207307       0.361281
       3.570000       0.427472       0.205822       0.356583
       3.580000       0.452173       0.202642       0.351284
       3.590000       0.479489       0.198163       0.345525
       3.600000       0.509459       0.192875       0.339425
       3.610000       0.541942       0.187256       0.333088
       3.620000       0.576539       0.181701       0.326606
       3.630000       0.612511       0.176496       0.320058
       3.640000       0.648747       0.171820       0.313515
       3.650000       0.683807       0.167778       0.307040
       3.660000       0.716073       0.164431       0.300692
       3.670000       0.744037       0.161823       0.294523
       3.680000       0.766656       0.159999       0.288583
       3.690000       0.783660       0.159005       0.282918
       3.700000       0.795675       0.158882       0.277570
       3.710000       0.804101       0.159664       0.272576
       3.720000       0.810781       0.161364       0.267967
       3.730000       0.817602       0.163966       0.263767
       3.740000       0.826156       0.167419       0.259987
       3.750000       0.837515       0.171625       0.256628
       3.760000       0.852156       0.176434       0.253677
       3.770000       0.869985       0.181644       0.251110
       3.780000       0.890472       0.187016       0.248900
       3.790000       0.912879       0.192308       0.247030
       3.800000       0.936530       0.197331       0.245504
       3.810000       0.961084       0.201996       0.244355
       3.820000       0.986681       0.206352       0.243656
       3.830000       1.013903       0.210582       0.243512
       3.840000       1.043538       0.214962       0.244053
       3.850000       1.076221       0.219798       0.245427
       3.860000       1.112053       0.225359       0.247785
       3.870000       1.150297       0.231827       0.251281
       3.880000       1.189221       0.239258       0.256060
       3.890000       1.226132       0.247558       0.262260
       3.900000       1.257662       0.256477       0.269998
       3.910000       1.280280       0.265612       0.279368
       3.920000       1.290951       0.274430       0.290417
       3.930000       1.287743       0.282324       0.303132
       3.940000       1.270202       0.288683       0.317412
       3.950000       1.239386       0.292994       0.333046
       3.960000       1.197598       0.294939       0.349693
       3.970000       1.147911       0.294464       0.366884
       3.980000       1.093668       0.291805       0.384053
       3.990000       1.038033       0.287452       0.400592
       4.000000       0.983689       0.282061       0.415922
       4.010000       0.932704       0.276343       0.429568
       4.020000       0.886514       0.270972       0.441204
       4.030000       0.846008       0.266513       0.450668
       4.040000       0.811651       0.263405       0.457953
       4.050000       0.783602       0.261963       0.463173
       4.060000       0.761831       0.262395       0.466523
       4.070000       0.746188       0.264827       0.468245
       4.080000       0.736456       0.269317       0.468587
       4.090000       0.732376       0.275858       0.467794
       4.100000       0.733642       0.284370       0.466086
       4.110000       0.739889       0.294684       0.463662
       4.120000       0.750667       0.306516       0.460694
       4.130000       0.765434       0.319449       0.457333
       4.140000       0.783562       0.332935       0.453710
       4.150000       0.804383       0.346329       0.449938
       4.160000       0.827280       0.358960       0.446119
       4.170000       0.851768       0.370234       0.442339
       4.180000       0.877557       0.379731       0.438672
       4.190000       0.904528       0.387264       0.435180
       4.200000       0.932643       0.392872       0.431906
       4.210000       0.961813       0.396743       0.428877
       4.220000       0.991768       0.399103       0.426095
       4.230000       1.021986       0.400107       0.423544
       4.240000       1.051680       0.399779       0.421184
       4.250000       1.079850       0.398017       0.418967
       4.260000       1.105392       0.394646       0.416846
       4.270000       1.127243       0.389512       0.414793
       4.280000       1.144553       0.382559       0.412809
       4.290000       1.156856       0.373888       0.410938
       4.300000       1.164202       0.363760       0.409263
       4.310000       1.167199       0.352563       0.407905
       4.320000       1.166949       0.340754       0.407017
       4.330000       1.164888       0.328787       0.406772
       4.340000       1.162578       0.317074       0.407365
       4.350000       1.161502       0.305957       0.408997
       4.360000       1.162874       0.295706       0.411881
       4.370000       1.167487       0.286523       0.416229
       4.380000       1.175605       0.278548       0.422244
       4.390000       1.186921       0.271869       0.430100
       4.400000       1.200602       0.266533       0.439923
       4.410000       1.215430       0.262561       0.451748
       4.420000       1.230019       0.259964       0.465486
       4.430000       1.243057       0.258761       0.480892
       4.440000       1.253540       0.258988       0.497549
       4.450000       1.260965       0.260693       0.514892
       4.460000       1.265434       0.263935       0.532254
       4.470000       1.267634       0.268776       0.548944
       4.480000       1.268675       0.275268       0.564326
       4.490000       1.269801       0.283448       0.577877
       4.500000       1.272100       0.293335       0.589228
       4.510000       1.276283       0.304924       0.598178
       4.520000       1.282642       0.318192       0.604697
       4.530000       1.291162       0.333102       0.608905
       4.540000       1.301759       0.349608       0.611043
       4.550000       1.314514       0.367648       0.611433
       4.560000       1.329779       0.387114       0.610425
       4.570000       1.348088       0.407794       0.608362
       4.580000       1.369895       0.429306       0.605551
       4.590000       1.395235       0.451039       0.602251
       4.600000       1.423455       0.472140       0.598675
       4.610000       1.453070       0.491564       0.594990
       4.620000       1.481801       0.508193       0.591333
       4.630000       1.506755       0.520994       0.587817
       4.640000       1.524736       0.529184       0.584533
       4.650000       1.532637       0.532352       0.581567
       4.660000       1.527911       0.530530       0.578993
       4.670000       1.509065       0.524205       0.576885
       4.680000       1.476037       0.514261       0.575314
       4.690000       1.430301       0.501860       0.574349
       4.700000       1.374616       0.488281       0.574061
       4.710000       1.312484       0.474754       0.574518
       4.720000       1.247528       0.462326       0.575782
       4.730000       1.182982       0.451787       0.577909
       4.740000       1.121401       0.443647       0.580941
       4.750000       1.064578       0.438151       0.584909
       4.760000       1.013600       0.435310       0.589827
       4.770000       0.968981       0.434948       0.595702
       4.780000       0.930810       0.436747       0.602538
       4.790000       0.898885       0.440320       0.610352
       4.800000       0.872832       0.445287       0.619176
       4.810000       0.852191       0.451360       0.629059
       4.820000       0.836484       0.458390       0.640045
       4.830000       0.825250       0.466365       0.652154
       4.840000       0.818062       0.475345       0.665342
       4.850000       0.814537       0.485361       0.679468
       4.860000       0.814332       0.496310       0.694276
       4.870000       0.817129       0.507887       0.709398
       4.880000       0.822615       0.519573       0.724387
       4.890000       0.830473       0.530669       0.738781
       4.900000       0.840389       0.540397       0.752166
       4.910000       0.852103       0.548027       0.764227
       4.920000       0.865480       0.553048       0.774763
       4.930000       0.880586       0.555302       0.783685
       4.940000       0.897705       0.555061       0.790987
       4.950000       0.917295       0.552986       0.796732
       4.960000       0.939870       0.549978       0.801038
       4.970000       0.965853       0.546983       0.804070
       4.980000       0.995432       0.544808       0.806038
       4.990000       1.028450       0.544002       0.807198
       5.000000       1.064353       0.544799       0.807842
       5.010000       1.102210       0.547117       0.808279
       5.020000       1.140789       0.550578       0.808825
       5.030000       1.178688       0.554547       0.809777
       5.040000       1.214466       0.558187       0.811408
       5.050000       1.246789       0.560561       0.813953
       5.060000       1.274566       0.560789       0.817626
       5.070000       1.297117       0.558233       0.822613
       5.080000       1.314327       0.552655       0.829089
       5.090000       1.326747       0.544289       0.837219
       5.100000       1.335569       0.533789       0.847162
       5.110000       1.342444       0.522093       0.859069
       5.120000       1.349183       0.510242       0.873069
       5.130000       1.357397       0.499225       0.889261
       5.140000       1.368189       0.489864       0.907681
       5.150000       1.381968       0.482760       0.928271
       5.160000       1.398437       0.478281       0.950844
       5.170000       1.416761       0.476565       0.975041
       5.180000       1.435864       0.477536       1.000318
       5.190000       1.454758       0.480914       1.025961
       5.200000       1.472780       0.486225       1.051152
       5.210000       1.489654       0.492820       1.075078
       5.220000       1.505345       0.499922       1.097060
       5.230000       1.519822       0.506700       1.116671
       5.240000       1.532823       0.512388       1.133790
       5.250000       1.543779       0.516408       1.148604
       5.260000       1.551940       0.518479       1.161545
       5.270000       1.556679       0.518654       1.173196
       5.280000       1.557842       0.517302       1.184197
       5.290000       1.555984       0.515026       1.195156
       5.300000       1.552368       0.512558       1.206600
       5.310000       1.548693       0.510645       1.218944
       5.320000       1.546680       0.509950       1.232493
       5.330000       1.547624       0.510974       1.247458
       5.340000       1.552045       0.514019       1.263990
       5.350000       1.559470       0.519179       1.282208
       5.360000       1.568415       0.526365       1.302213
       5.370000       1.576572       0.535354       1.324093
       5.380000       1.581237       0.545864       1.347912
       5.390000       1.579920       0.557630       1.373695
       5.400000       1.570980       0.570466       1.401418
       5.410000       1.554067       0.584304       1.431013
       5.420000       1.530198       0.599180       1.462369
       5.430000       1.501460       0.615175       1.495333
       5.440000       1.470473       0.632336       1.529690
       5.450000       1.439855       0.650599       1.565132
       5.460000       1.411829       0.669759       1.601220
       5.470000       1.388060       0.689520       1.637384
       5.480000       1.369663       0.709598       1.672996
       5.490000       1.357321       0.729849       1.707506
       5.500000       1.351419       0.750337       1.740634
       5.510000       1.352135       0.771295       1.772523
       5.520000       1.359468       0.792972       1.803792
       5.530000       1.373221       0.815433       1.835457
       5.540000       1.392973       0.838384       1.868771
       5.550000       1.418078       0.861119       1.905030
       5.560000       1.447722       0.882606       1.945423
       5.570000       1.481043       0.901730       1.990943
       5.580000       1.517302       0.917591       2.042353
       5.590000       1.556030       0.929759       2.100174
       5.600000       1.597120       0.938373       2.164687
       5.610000       1.640832       0.944045       2.235920
       5.620000       1.687735       0.947652       2.313646
       5.630000       1.738660       0.950102       2.397386
       5.640000       1.794669       0.952171       2.486442
       5.650000       1.857064       0.954434       2.579961
       5.660000       1.927392       0.957277       2.677046
       5.670000       2.007420       0.960945       2.776880
       5.680000       2.099099       0.965591       2.878820
       5.690000       2.204490       0.971298       2.982401
       5.700000       2.325696       0.978067       3.087178
       5.710000       2.464785       0.985773       3.192451
       5.720000       2.623699       0.994137       3.296934
       5.730000       2.804155       1.002766       3.398541
       5.740000       3.007474       1.011277       3.494424
       5.750000       3.234358       1.019495       3.581303
       5.760000       3.484567       1.027627       3.656039
       5.770000       3.756540       1.036339       3.716223
       5.780000       4.046996       1.046672       3.760604
       5.790000       4.350622       1.059829       3.789192
       5.800000       4.659936       1.076909       3.803094
       5.810000       4.965445       1.098684       3.804181
       5.820000       5.256147       1.125419       3.794694
       5.830000       5.520381       1.156778       3.776873
       5.840000       5.746959       1.191771       3.752701
       5.850000       5.926411       1.228753       3.723852
       5.860000       6.052150       1.265515       3.691861
       5.870000       6.121341       1.299506       3.658360
       5.880000       6.135309       1.328180       3.625182
       5.890000       6.099372       1.349407       3.594187
       5.900000       6.022098       1.361822       3.566864
       5.910000       5.914062       1.364994       3.543918
       5.920000       5.786322       1.359402       3.525073
       5.930000       5.648946       1.346279       3.509240
       5.940000       5.509890       1.327397       3.495004
       5.950000       5.374420       1.304826       3.481254
       5.960000       5.245086       1.280693       3.467690
       5.970000       5.122148       1.256954       3.454985
       5.980000       5.004232       1.235224       3.444595
       5.990000       4.889040       1.216688       3.438300
       6.000000       4.773948       1.202081       3.437691
       6.010000       4.656453       1.191726       3.443733
       6.020000       4.534532       1.185606       3.456458
       6.030000       4.406936       1.183478       3.474829
       6.040000       4.273437       1.185023       3.496803
       6.050000       4.134932       1.190003       3.519660
       6.060000       3.993375       1.198374       3.540597
       6.070000       3.851507       1.210283       3.557453
       6.080000       3.712474       1.225956       3.569316
       6.090000       3.579425       1.245533       3.576760
       6.100000       3.455193       1.268886       3.581621
       6.110000       3.342133       1.295498       3.586455
       6.120000       3.242094       1.324392       3.593914
       6.130000       3.156449       1.354114       3.606241
       6.140000       3.086086       1.382809       3.624954
       6.150000       3.031331       1.408415       3.650686
       6.160000       2.991841       1.429008       3.683133
       6.170000       2.966546       1.443220       3.721071
       6.180000       2.953670       1.450599       3.762424
       6.190000       2.950845       1.451754       3.804416
       6.200000       2.955254       1.448210       3.843846
       6.210000       2.963785       1.442047       3.877497
       6.220000       2.973133       1.435443       3.902628
       6.230000       2.979877       1.430274       3.917420
       6.240000       2.980539       1.427865       3.921210
       6.250000       2.971719       1.428911       3.914405
       6.260000       2.950356       1.433581       3.898163
       6.270000       2.914149       1.441697       3.874021
       6.280000       2.862059       1.452926       3.843648
       6.290000       2.794711       1.466856       3.808765
       6.300000       2.714506       1.482932       3.771130
       6.310000       2.625320       1.500305       3.732472
       6.320000       2.531852       1.517733       3.694346
       6.330000       2.438858       1.533647       3.657984
       6.340000       2.350492       1.546423       3.624227
       6.350000       2.269928       1.554774       3.593548
       6.360000       2.199265       1.558066       3.566104
       6.370000       2.139628       1.556424       3.541738
       6.380000       2.091369       1.550587       3.519890
       6.390000       2.054292       1.541639       3.499477
       6.400000       2.027852       1.530775       3.478847
       6.410000       2.011318       1.519198       3.455906
       6.420000       2.003868       1.508127       3.428453
       6.430000       2.004625       1.498807       3.394651
       6.440000       2.012654       1.492443       3.353453
       6.450000       2.027006       1.490057       3.304827
       6.460000       2.046838       1.492335       3.249661
       6.470000       2.071625       1.499538       3.189452
       6.480000       2.101363       1.511514       3.125931
       6.490000       2.136665       1.527782       3.060787
       6.500000       2.178669       1.547625       2.995540
       6.510000       2.228768       1.570141       2.931540
       6.520000       2.288266       1.594249       2.870001
       6.530000       2.358055       1.618712       2.811999
       6.540000       2.438402       1.642224       2.758419
       6.550000       2.528838       1.663589       2.709863
       6.560000       2.628125       1.681925       2.666603
       6.570000       2.734224       1.696820       2.628613
       6.580000       2.844242       1.708358       2.595705
       6.590000       2.954358       1.717010       2.567683
       6.600000       3.059811       1.723433       2.544459
       6.610000       3.155020       1.728262       2.526029
       6.620000       3.233936       1.731979       2.512335
       6.630000       3.290629       1.734876       2.503050
       6.640000       3.320069       1.737074       2.497356
       6.650000       3.318950       1.738531       2.493772
       6.660000       3.286366       1.739000       2.490095
       6.670000       3.224130       1.737974       2.483527
       6.680000       3.136557       1.734695       2.471066
       6.690000       3.029730       1.728283       2.450112
       6.700000       2.910455       1.717968       2.419125
       6.710000       2.785259       1.703373       2.378067
       6.720000       2.659715       1.684743       2.328430
       6.730000       2.538167       1.663040       2.272844
       6.740000       2.423752       1.639860       2.214454
       6.750000       2.318521       1.617154       2.156291
       6.760000       2.223568       1.596877       2.100812
       6.770000       2.139130       1.580644       2.049661
       6.780000       2.064725       1.569511       2.003614
       6.790000       1.999360       1.563920       1.962682
       6.800000       1.941807       1.563788       1.926302
       6.810000       1.890887       1.568701       1.893602
       6.820000       1.845678       1.578141       1.863688
       6.830000       1.805576       1.591678       1.835927
       6.840000       1.770238       1.609080       1.810146
       6.850000       1.739474       1.630299       1.786674
       6.860000       1.713163       1.655326       1.766204
       6.870000       1.691239       1.683960       1.749528
       6.880000       1.673742       1.715577       1.737235
       6.890000       1.660876       1.748972       1.729511
       6.900000       1.653048       1.782336       1.726073
       6.910000       1.650845       1.813390       1.726264
       6.920000       1.654957       1.839651       1.729212
       6.930000       1.666042       1.858782       1.733990
       6.940000       1.684606       1.868955       1.739698
       6.950000       1.710890       1.869140       1.745443
       6.960000       1.744813       1.859287       1.750275
       6.970000       1.785955       1.840366       1.753117
       6.980000       1.833598       1.814234       1.752770
       6.990000       1.886799       1.783332       1.748016
       7.000000       1.944523       1.750230       1.737799
       7.010000       2.005793       1.717185       1.721447
       7.020000       2.069817       1.685818       1.698872
       7.030000       2.136065       1.657020       1.670691
       7.040000       2.204241       1.631052       1.638199
       7.050000       2.274185       1.607768       1.603210
       7.060000       2.345720       1.586841       1.567787
       7.070000       2.418482       1.567959       1.533968
       7.080000       2.491762       1.550967       1.503527
       7.090000       2.564391       1.535969       1.477814
       7.100000       2.634691       1.523385       1.457634
       7.110000       2.700517       1.513913       1.443170
       7.120000       2.759427       1.508396       1.433933
       7.130000       2.808986       1.507624       1.428781
       7.140000       2.847155       1.512142       1.426018
       7.150000       2.872662       1.522140       1.423578
       7.160000       2.885193       1.537431       1.419288
       7.170000       2.885330       1.557491       1.411163
       7.180000       2.874278       1.581515       1.397679
       7.190000       2.853566       1.608490       1.377987
       7.200000       2.824925       1.637273       1.352033
       7.210000       2.790336       1.666717       1.320586
       7.220000       2.752144       1.695800       1.285129
       7.230000       2.713016       1.723692       1.247639
       7.240000       2.675675       1.749729       1.210282
       7.250000       2.642481       1.773286       1.175105
       7.260000       2.615051       1.793705       1.143807
       7.270000       2.594069       1.810363       1.117635
       7.280000       2.579330       1.822918       1.097373
       7.290000       2.569986       1.831636       1.083417
       7.300000       2.564858       1.837605       1.075870
       7.310000       2.562743       1.842690       1.074640
       7.320000       2.562659       1.849222       1.079504
       7.330000       2.563998       1.859543       1.090143
       7.340000       2.566588       1.875570       1.106148
       7.350000       2.570644       1.898500       1.127015
       7.360000       2.576600       1.928703       1.152135
       7.370000       2.584854       1.965766       1.180756
       7.380000       2.595498       2.008625       1.211915
       7.390000       2.608116       2.055733       1.244337
       7.400000       2.621720       2.105213       1.276340
       7.410000       2.634842       2.154991       1.305828
       7.420000       2.645763       2.202934       1.330419
       7.430000       2.652843       2.246997       1.347731
       7.440000       2.654887       2.285392       1.355772
       7.450000       2.651454       2.316769       1.353315
       7.460000       2.643003       2.340355       1.340161
       7.470000       2.630819       2.356043       1.317187
       7.480000       2.616731       2.364386       1.286173
       7.490000       2.602715       2.366513       1.249445
       7.500000       2.590497       2.363971       1.209450
       7.510000       2.581286       2.358522       1.168374
       7.520000       2.575711       2.351912       1.127919
       7.530000       2.573979       2.345649       1.089240
       7.540000       2.576170       2.340800       1.053013
       7.550000       2.582520       2.337868       1.019569
       7.560000       2.593570       2.336773       0.989036
       7.570000       2.610117       2.336953       0.961455
       7.580000       2.633015       2.337565       0.936845
       7.590000       2.662916       2.337736       0.915221
       7.600000       2.700026       2.336756       0.896577
       7.610000       2.743913       2.334155       0.880856
       7.620000       2.793374       2.329624       0.867945
       7.630000       2.846394       2.322846       0.857703
       7.640000       2.900230       2.313358       0.850005
       7.650000       2.951664       2.300557       0.844785
       7.660000       2.997369       2.283846       0.842043
       7.670000       3.034308       2.262856       0.841831
       7.680000       3.059991       2.237611       0.844216
       7.690000       3.072534       2.208597       0.849261
       7.700000       3.070575       2.176732       0.856996
       7.710000       3.053221       2.143299       0.867403
       7.720000       3.020183       2.109866       0.880376
       7.730000       2.972081       2.078161       0.895687
       7.740000       2.910740       2.049896       0.912940
       7.750000       2.839230       2.026537       0.931555
       7.760000       2.761522       2.009084       0.950758
       7.770000       2.681873       1.997918       0.969625
       7.780000       2.604171       1.992773       0.987175
       7.790000       2.531479       1.992805       1.002525
       7.800000       2.465849       1.996771       1.015055
       7.810000       2.408347       2.003249       1.024531
       7.820000       2.359162       2.010882       1.031121
       7.830000       2.317735       2.018597       1.035305
       7.840000       2.282876       2.025770       1.037719
       7.850000       2.252937       2.032285       1.038990
       7.860000       2.226062       2.038502       1.039584
       7.870000       2.200525       2.045137       1.039681
       7.880000       2.175076       2.053117       1.039107
       7.890000       2.149188       2.063428       1.037329
       7.900000       2.123121       2.076964       1.033560
       7.910000       2.097787       2.094361       1.026936
       7.920000       2.074505       2.115837       1.016735
       7.930000       2.054727       2.141100       1.002575
       7.940000       2.039829       2.169378       0.984512
       7.950000       2.030966       2.199550       0.963048
       7.960000       2.028976       2.230325       0.939038
       7.970000       2.034315       2.260393       0.913553
       7.980000       2.046980       2.288529       0.887730
       7.990000       2.066433       2.313653       0.862646
       8.000000       2.091529       2.334877       0.839223
       8.010000       2.120504       2.351531       0.818181
       8.020000       2.151077       2.363172       0.800018
       8.030000       2.180702       2.369576       0.785021
       8.040000       2.206948       2.370765       0.773282
       8.050000       2.227929       2.367067       0.764725
       8.060000       2.242653       2.359173       0.759133
       8.070000       2.251160       2.348104       0.756203
       8.080000       2.254403       2.335061       0.755608
       8.090000       2.253902       2.321209       0.757077
       8.100000       2.251332       2.307526       0.760442
       8.110000       2.248197       2.294803       0.765661
       8.120000       2.245668       2.283788       0.772792
       8.130000       2.244567       2.275362       0.781936
       8.140000       2.245399       2.270617       0.793144
       8.150000       2.248370       2.270776       0.806329
       8.160000       2.253396       2.276990       0.821177
       8.170000       2.260121       2.290139       0.837110
       8.180000       2.268010       2.310708       0.853302
       8.190000       2.276527       2.338815       0.868775
       8.200000       2.285362       2.374326       0.882557
       8.210000       2.294620       2.416975       0.893849
       8.220000       2.304899       2.466392       0.902158
       8.230000       2.317217       2.522007       0.907344
       8.240000       2.332788       2.582900       0.909561
       8.250000       2.352731       2.647687       0.909151
       8.260000       2.377797       2.714516       0.906508
       8.270000       2.408228       2.781177       0.901976
       8.280000       2.443761       2.845318       0.895803
       8.290000       2.483763       2.904709       0.888166
       8.300000       2.527396       2.957518       0.879243
       8.310000       2.573724       3.002547       0.869325
       8.320000       2.621728       3.039389       0.858886
       8.330000       2.670229       3.068485       0.848580
       8.340000       2.717757       3.091076       0.839163
       8.350000       2.762435       3.108999       0.831354
       8.360000       2.801951       3.124380       0.825708
       8.370000       2.833732       3.139250       0.822529
       8.380000       2.855354       3.155208       0.821863
       8.390000       2.865136       3.173194       0.823548
       8.400000       2.862714       3.193425       0.827297
       8.410000       2.849320       3.215477       0.832770
       8.420000       2.827606       3.238452       0.839613
       8.430000       2.801050       3.261157       0.847449
       8.440000       2.773161       3.282243       0.855868
       8.450000       2.746748       3.300259       0.864423
       8.460000       2.723429       3.313682       0.872640
       8.470000       2.703467       3.320964       0.880066
       8.480000       2.685942       3.320667       0.886296
       8.490000       2.669187       3.311684       0.891016
       8.500000       2.651342       3.293508       0.894015
       8.510000       2.630859       3.266451       0.895195
       8.520000       2.606799       3.231693       0.894566
       8.530000       2.578871       3.191113       0.892244
       8.540000       2.547286       3.146941       0.888452
       8.550000       2.512564       3.101403       0.883504
       8.560000       2.475410       3.056481       0.877781
       8.570000       2.436723       3.013900       0.871695
       8.580000       2.397679       2.975238       0.865659
       8.590000       2.359791       2.942066       0.860062
       8.600000       2.324846       2.915989       0.855272
       8.610000       2.294680       2.898554       0.851629
       8.620000       2.270870       2.891049       0.849445
       8.630000       2.254426       2.894267       0.848992
       8.640000       2.245593       2.908303       0.850481
       8.650000       2.243845       2.932451       0.854025
       8.660000       2.248052       2.965231       0.859582
       8.670000       2.256789       3.004520       0.866910
       8.680000       2.268661       3.047769       0.875547
       8.690000       2.282550       3.092315       0.884867
       8.700000       2.297715       3.135735       0.894207
       8.710000       2.313774       3.176183       0.903025
       8.720000       2.330639       3.212536       0.911034
       8.730000       2.348449       3.244299       0.918246
       8.740000       2.367535       3.271322       0.924902
       8.750000       2.388372       3.293497       0.931315
       8.760000       2.411532       3.310623       0.937705
       8.770000       2.437638       3.322496       0.944082
       8.780000       2.467303       3.329104       0.950214
       8.790000       2.501069       3.330781       0.955695
       8.800000       2.539305       3.328187       0.960072
       8.810000       2.582088       3.322135       0.962989
       8.820000       2.629092       3.313361       0.964306
       8.830000       2.679502       3.302360       0.964146
       8.840000       2.732016       3.289312       0.962883
       8.850000       2.784935       3.274140       0.961055
       8.860000       2.836389       3.256675       0.959255
       8.870000       2.884692       3.236919       0.958014
       8.880000       2.928729       3.215331       0.957718
       8.890000       2.968240       3.193005       0.958586
       8.900000       3.003851       3.171629       0.960702
       8.910000       3.036803       3.153212       0.964097
       8.920000       3.068494       3.139683       0.968816
       8.930000       3.100021       3.132564       0.974970
       8.940000       3.131910       3.132813       0.982720
       8.950000       3.164109       3.140844       0.992216
       8.960000       3.196166       3.156607       1.003526
       8.970000       3.227502       3.179652       1.016567
       8.980000       3.257628       3.209119       1.031090
       8.990000       3.286266       3.243693       1.046679
       9.000000       3.313374       3.281589       1.062801
       9.010000       3.339135       3.320607       1.078874
       9.020000       3.363919       3.358252       1.094367
       9.030000       3.388204       3.391910       1.108903
       9.040000       3.412422       3.419047       1.122335
       9.050000       3.436718       3.437434       1.134757
       9.060000       3.460684       3.445407       1.146458
       9.070000       3.483176       3.442111       1.157823
       9.080000       3.502306       3.427675       1.169238
       9.090000       3.515655       3.403205       1.181017
       9.100000       3.520700       3.370573       1.193390
       9.110000       3.515382       3.332093       1.206515
       9.120000       3.498632       3.290200       1.220517
       9.130000       3.470710       3.247209       1.235500
       9.140000       3.433240       3.205138       1.251511
       9.150000       3.388925       3.165569       1.268485
       9.160000       3.341067       3.129542       1.286194
       9.170000       3.293012       3.097508       1.304265
       9.180000       3.247702       3.069374       1.322268
       9.190000       3.207423       3.044632       1.339873
       9.200000       3.173784       3.022524       1.356972
       9.210000       3.147841       3.002219       1.373737
       9.220000       3.130223       2.982938       1.390571
       9.230000       3.121151       2.964030       1.407979
       9.240000       3.120340       2.945024       1.426441
       9.250000       3.126882       2.925689       1.446317
       9.260000       3.139246       2.906102       1.467814
       9.270000       3.155460       2.886683       1.491007
       9.280000       3.173455       2.868139       1.515873
       9.290000       3.191418       2.851289       1.542332
       9.300000       3.208010       2.836782       1.570268
       9.310000       3.222375       2.824805       1.599545
       9.320000       3.233976       2.814886       1.630010
       9.330000       3.242414       2.805868       1.661506
       9.340000       3.247327       2.796080       1.693889
       9.350000       3.248418       2.783613       1.727052
       9.360000       3.245572       2.766626       1.760941
       9.370000       3.239032       2.743611       1.795561
       9.380000       3.229554       2.713597       1.830965
       9.390000       3.218483       2.676275       1.867245
       9.400000       3.207635       2.632054       1.904539
       9.410000       3.198955       2.582003       1.943047
       9.420000       3.194001       2.527696       1.983043
       9.430000       3.193427       2.470976       2.024879
       9.440000       3.196644       2.413700       2.068965
       9.450000       3.201772       2.357518       2.115724
       9.460000       3.205899       2.303735       2.165531
       9.470000       3.205565       2.253298       2.218652
       9.480000       3.197352       2.206888       2.275210
       9.490000       3.178468       2.165047       2.335191
       9.500000       3.147266       2.128271       2.398494
       9.510000       3.103626       2.096998       2.464985
       9.520000       3.049118       2.071546       2.534530
       9.530000       2.986863       2.052059       2.606985
       9.540000       2.921084       2.038514       2.682195
       9.550000       2.856441       2.030810       2.760007
       9.560000       2.797348       2.028886       2.840327
       9.570000       2.747413       2.032800       2.923166
       9.580000       2.709107       2.042764       3.008632
       9.590000       2.683653       2.059084       3.096857
       9.600000       2.671064       2.082046       3.187884
       9.610000       2.670275       2.111743       3.281596
       9.620000       2.679312       2.147905       3.377729
       9.630000       2.695518       2.189778       3.475998
       9.640000       2.715838       2.236071       3.576265
       9.650000       2.737206       2.285005       3.678680
       9.660000       2.756974       2.334463       3.783741
       9.670000       2.773313       2.382253       3.892249
       9.680000       2.785442       2.426420       4.005235
       9.690000       2.793625       2.465515       4.123902
       9.700000       2.798929       2.498718       4.249589
       9.710000       2.802845       2.525756       4.383685
       9.720000       2.806871       2.546662       4.527396
       9.730000       2.812144       2.561465       4.681340
       9.740000       2.819195       2.569954       4.845040
       9.750000       2.827838       2.571584       5.016464
       9.760000       2.837232       2.565579       5.191756
       9.770000       2.846093       2.551152       5.365285
       9.780000       2.853032       2.527753       5.530078
       9.790000       2.856919       2.495238       5.678612
       9.800000       2.857174       2.453913       5.803858
       9.810000       2.853871       2.404496       5.900344
       9.820000       2.847621       2.348096       5.964936
       9.830000       2.839267       2.286201       5.997088
       9.840000       2.829496       2.220668       5.998490
       9.850000       2.818518       2.153607       5.972258
       9.860000       2.805911       2.087145       5.922064
       9.870000       2.790710       2.023110       5.851548
       9.880000       2.771721       1.962756       5.764251
       9.890000       2.747984       1.906650       5.663925
       9.900000       2.719196       1.854777       5.554889
       9.910000       2.685905       1.806834       5.442043
       9.920000       2.649347       1.762580       5.330405
       9.930000       2.611013       1.722122       5.224274
       9.940000       2.572129       1.686020       5.126357
       9.950000       2.533311       1.655220       5.037197
       9.960000       2.494494       1.630867       4.955104
       9.970000       2.455109       1.614093       4.876678
       9.980000       2.414371       1.605841       4.797782
       9.990000       2.371513       1.606731       4.714741
      10.000000       2.325962       1.616954       4.625437
      10.010000       2.277442       1.636199       4.529968
      10.020000       2.226067       1.663579       4.430677
      10.030000       2.172379       1.697615       4.331574
      10.040000       2.117290       1.736282       4.237378
      10.050000       2.061913       1.777175       4.152489
      10.060000       2.007338       1.817782       4.080147
      10.070000       1.954432       1.855806       4.021906
      10.080000       1.903734       1.889463       3.977446
      10.090000       1.855433       1.917660       3.944692
      10.100000       1.809421       1.940028       3.920178
      10.110000       1.765417       1.956839       3.899587
      10.120000       1.723115       1.968881       3.878358
      10.130000       1.682353       1.977345       3.852257
      10.140000       1.643213       1.983737       3.817817
      10.150000       1.606032       1.989771       3.772603
      10.160000       1.571297       1.997194       3.715332
      10.170000       1.539497       2.007539       3.645892
      10.180000       1.510958       2.021872       3.565276
      10.190000       1.485753       2.040612       3.475441
      10.200000       1.463672       2.063474       3.379069
      10.210000       1.444274       2.089519       3.279255
      10.220000       1.426998       2.117273       3.179171
      10.230000       1.411272       2.144854       3.081744
      10.240000       1.396609       2.170094       2.989418
      10.250000       1.382617       2.190661       2.904010
      10.260000       1.368940       2.204238       2.826695
      10.270000       1.355182       2.208774       2.758076
      10.280000       1.340866       2.202798       2.698302
      10.290000       1.325495       2.185691       2.647182
      10.300000       1.308702       2.157814       2.604246
      10.310000       1.290422       2.120458       2.568765
      10.320000       1.270998       2.075626       2.539724
      10.330000       1.251173       2.025733       2.515774
      10.340000       1.231980       1.973309       2.495216
      10.350000       1.214580       1.920747       2.476067
      10.360000       1.200100       1.870114       2.456233
      10.370000       1.189497       1.823031       2.433775
      10.380000       1.183460       1.780631       2.407195
      10.390000       1.182344       1.743586       2.375660
      10.400000       1.186128       1.712167       2.339087
      10.410000       1.194401       1.686319       2.298088
      10.420000       1.206389       1.665730       2.253786
      10.430000       1.221038       1.649899       2.207561
      10.440000       1.237162       1.638194       2.160797
      10.450000       1.253647       1.629891       2.114709
      10.460000       1.269667       1.624165       2.070286
      10.470000       1.284828       1.620063       2.028330
      10.480000       1.299198       1.616502       1.989546
      10.490000       1.313202       1.612348       1.954603
      10.500000       1.327444       1.606588       1.924134
      10.510000       1.342512       1.598535       1.898682
      10.520000       1.358835       1.587988       1.878623
      10.530000       1.376593       1.575266       1.864113
      10.540000       1.395683       1.561105       1.855071
      10.550000       1.415732       1.546455       1.851217
      10.560000       1.436175       1.532237       1.852119
      10.570000       1.456378       1.519131       1.857244
      10.580000       1.475806       1.507419       1.865973
      10.590000       1.494198       1.496904       1.877591
      10.600000       1.511673       1.486958       1.891260
      10.610000       1.528735       1.476694       1.906013
      10.620000       1.546141       1.465246       1.920783
      10.630000       1.564664       1.452038       1.934486
      10.640000       1.584807       1.436932       1.946127
      10.650000       1.606562       1.420198       1.954918
      10.660000       1.629259       1.402342       1.960384
      10.670000       1.651588       1.383914       1.962433
      10.680000       1.671791       1.365372       1.961390
      10.690000       1.688002       1.347064       1.957966
      10.700000       1.698628       1.329290       1.953176
      10.710000       1.702651       1.312396       1.948198
      10.720000       1.699749       1.296857       1.944242
      10.730000       1.690223       1.283274       1.942434
      10.740000       1.674776       1.272294       1.943752
      10.750000       1.654249       1.264466       1.948978
      10.760000       1.629394       1.260089       1.958644
      10.770000       1.600748       1.259116       1.972960
      10.780000       1.568626       1.261157       1.991734
      10.790000       1.533230       1.265605       2.014312
      10.800000       1.494845       1.271828       2.039562
      10.810000       1.454036       1.279380       2.065919
      10.820000       1.411764       1.288125       2.091527
      10.830000       1.369341       1.298248       2.114465
      10.840000       1.328252       1.310145       2.133014
      10.850000       1.289905       1.324252       2.145905
      10.860000       1.255422       1.340873       2.152473
      10.870000       1.225514       1.360037       2.152678
      10.880000       1.200432       1.381421       2.146979
      10.890000       1.180002       1.404319       2.136133
      10.900000       1.163691       1.427685       2.120969
      10.910000       1.150728       1.450221       2.102239
      10.920000       1.140250       1.470551       2.080577
      10.930000       1.131476       1.487428       2.056546
      10.940000       1.123840       1.499958       2.030694
      10.950000       1.117056       1.507743       2.003582
      10.960000       1.111066       1.510893       1.975763
      10.970000       1.105905       1.509897       1.947734
      10.980000       1.101537       1.505424       1.919918
      10.990000       1.097725       1.498127       1.892673
      11.000000       1.093997       1.488512       1.866325
      11.010000       1.089711       1.476896       1.841198
      11.020000       1.084191       1.463443       1.817607
      11.030000       1.076885       1.448228       1.795794
      11.040000       1.067476       1.431321       1.775821
      11.050000       1.055926       1.412834       1.757454
      11.060000       1.042449       1.392933       1.740096
      11.070000       1.027441       1.371847       1.722808
      11.080000       1.011396       1.349921       1.704434
      11.090000       0.994817       1.327715       1.683828
      11.100000       0.978143       1.306093       1.660127
      11.110000       0.961710       1.286237       1.632989
      11.120000       0.945754       1.269540       1.602731
      11.130000       0.930463       1.257402       1.570280
      11.140000       0.916068       1.250998       1.536985
      11.150000       0.902911       1.251082       1.504345
      11.160000       0.891469       1.257835       1.473746
      11.170000       0.882304       1.270796       1.446290
      11.180000       0.875971       1.288843       1.422707
      11.190000       0.872929       1.310259       1.403353
      11.200000       0.873478       1.332884       1.388256
      11.210000       0.877751       1.354351       1.377197
      11.220000       0.885727       1.372392       1.369807
      11.230000       0.897263       1.385167       1.365640
      11.240000       0.912121       1.391539       1.364227
      11.250000       0.929979       1.391228       1.365090
      11.260000       0.950411       1.384756       1.367729
      11.270000       0.972841       1.373196       1.371604
      11.280000       0.996486       1.357808       1.376116
      11.290000       1.020325       1.339691       1.380619
      11.300000       1.043156       1.319574       1.384458
      11.310000       1.063757       1.297802       1.387044
      11.320000       1.081136       1.274480       1.387941
      11.330000       1.094788       1.249676       1.386929
      11.340000       1.104852       1.223607       1.384027
      11.350000       1.112094       1.196710       1.379452
      11.360000       1.117725       1.169600       1.373547
      11.370000       1.123121       1.142957       1.366684
      11.380000       1.129557       1.117407       1.359192
      11.390000       1.138006       1.093454       1.351304
      11.400000       1.149036       1.071472       1.343129
      11.410000       1.162782       1.051737       1.334658
      11.420000       1.178966       1.034461       1.325801
      11.430000       1.196919       1.019803       1.316456
      11.440000       1.215631       1.007856       1.306610
      11.450000       1.233824       0.998622       1.296417
      11.460000       1.250095       0.991978       1.286214
      11.470000       1.263126       0.987651       1.276447
      11.480000       1.271919       0.985203       1.267525
      11.490000       1.275964       0.984030       1.259655
      11.500000       1.275288       0.983418       1.252736
      11.510000       1.270376       0.982643       1.246362
      11.520000       1.262010       0.981118       1.239935
      11.530000       1.251108       0.978528       1.232844
      11.540000       1.238585       0.974909       1.224637
      11.550000       1.225267       0.970635       1.215139
      11.560000       1.211832       0.966344       1.204477
      11.570000       1.198768       0.962813       1.193020
      11.580000       1.186358       0.960828       1.181272
      11.590000       1.174718       0.961048       1.169772
      11.600000       1.163875       0.963892       1.159022
      11.610000       1.153894       0.969447       1.149458
      11.620000       1.144967       0.977435       1.141454
      11.630000       1.137440       0.987253       1.135328
      11.640000       1.131739       0.998079       1.131350
      11.650000       1.128238       1.009034       1.129711
      11.660000       1.127108       1.019348       1.130483
      11.670000       1.128233       1.028489       1.133560
      11.680000       1.131210       1.036210       1.138623
      11.690000       1.135460       1.042512       1.145122
      11.700000       1.140401       1.047539       1.152322
      11.710000       1.145594       1.051462       1.159378
      11.720000       1.150802       1.054381       1.165425
      11.730000       1.155919       1.056304       1.169676
      11.740000       1.160829       1.057164       1.171492
      11.750000       1.165269       1.056878       1.170438
      11.760000       1.168769       1.055382       1.166344
      11.770000       1.170698       1.052648       1.159335
      11.780000       1.170362       1.048666       1.149856
      11.790000       1.167129       1.043427       1.138622
      11.800000       1.160528       1.036897       1.126510
      11.810000       1.150335       1.029035       1.114417
      11.820000       1.136629       1.019825       1.103119
      11.830000       1.119805       1.009323       1.093184
      11.840000       1.100518       0.997677       1.084956
      11.850000       1.079561       0.985107       1.078566
      11.860000       1.057709       0.971851       1.073976
      11.870000       1.035594       0.958118       1.071006
      11.880000       1.013642       0.944086       1.069363
      11.890000       0.992108       0.929957       1.068681
      11.900000       0.971160       0.916031       1.068577
      11.910000       0.950990       0.902753       1.068728
      11.920000       0.931879       0.890688       1.068960
      11.930000       0.914202       0.880411       1.069319
      11.940000       0.898365       0.872374       1.070079
      11.950000       0.884709       0.866778       1.071697
      11.960000       0.873415       0.863506       1.074714
      11.970000       0.864444       0.862111       1.079655
      11.980000       0.857529       0.861873       1.086940
      11.990000       0.852219       0.861896       1.096845
      12.000000       0.847956       0.861243       1.109500
      12.010000       0.844168       0.859091       1.124903
      12.020000       0.840360       0.854888       1.142960
      12.030000       0.836163       0.848476       1.163520
      12.040000       0.831354       0.840142       1.186419
      12.050000       0.825813       0.830587       1.211520
      12.060000       0.819467       0.820804       1.238725
      12.070000       0.812246       0.811899       1.267957
      12.080000       0.804078       0.804906       1.299102
      12.090000       0.794950       0.800631       1.331944
      12.100000       0.784982       0.799549       1.366119
      12.110000       0.774476       0.801760       1.401128
      12.120000       0.763899       0.807008       1.436413
      12.130000       0.753805       0.814741       1.471473
      12.140000       0.744731       0.824219       1.505972
      12.150000       0.737112       0.834628       1.539766
      12.160000       0.731238       0.845171       1.572847
      12.170000       0.727246       0.855106       1.605207
      12.180000       0.725147       0.863731       1.636678
      12.190000       0.724870       0.870367       1.666811
      12.200000       0.726324       0.874385       1.694854
      12.210000       0.729451       0.875290       1.719822
      12.220000       0.734257       0.872830       1.740654
      12.230000       0.740801       0.867068       1.756401
      12.240000       0.749147       0.858397       1.766394
      12.250000       0.759293       0.847488       1.770372
      12.260000       0.771094       0.835220       1.768508
      12.270000       0.784186       0.822584       1.761369
      12.280000       0.797958       0.810583       1.749810
      12.290000       0.811557       0.800126       1.734846
      12.300000       0.823983       0.791929       1.717540
      12.310000       0.834249       0.786452       1.698908
      12.320000       0.841588       0.783893       1.679830
      12.330000       0.845633       0.784216       1.660975
      12.340000       0.846502       0.787202       1.642734
      12.350000       0.844747       0.792494       1.625213
      12.360000       0.841189       0.799613       1.608299
      12.370000       0.836713       0.807965       1.591804
      12.380000       0.832083       0.816860       1.575642
      12.390000       0.827839       0.825562       1.559952
      12.400000       0.824263       0.833351       1.545110
      12.410000       0.821419       0.839595       1.531622
      12.420000       0.819218       0.843796       1.519963
      12.430000       0.817488       0.845611       1.510452
      12.440000       0.816021       0.844856       1.503196
      12.450000       0.814599       0.841491       1.498141
      12.460000       0.812986       0.835635       1.495161
      12.470000       0.810924       0.827565       1.494162
      12.480000       0.808142       0.817718       1.495156
      12.490000       0.804388       0.806651       1.498277
      12.500000       0.799488       0.794959       1.503742
      12.510000       0.793403       0.783170       1.511767
      12.520000       0.786274       0.771655       1.522476
      12.530000       0.778417       0.760593       1.535841
      12.540000       0.770283       0.750006       1.551666
      12.550000       0.762394       0.739836       1.569609
      12.560000       0.755272       0.730044       1.589222
      12.570000       0.749389       0.720667       1.609969
      12.580000       0.745133       0.711815       1.631248
      12.590000       0.742793       0.703635       1.652414
      12.600000       0.742541       0.696243       1.672823
      12.610000       0.744421       0.689669       1.691912
      12.620000       0.748321       0.683823       1.709257
      12.630000       0.753964       0.678497       1.724603
      12.640000       0.760911       0.673393       1.737840
      12.650000       0.768609       0.668178       1.748927
      12.660000       0.776459       0.662531       1.757788
      12.670000       0.783919       0.656166       1.764228
      12.680000       0.790585       0.648835       1.767898
      12.690000       0.796249       0.640327       1.768344
      12.700000       0.800889       0.630478       1.765133
      12.710000       0.804637       0.619201       1.758014
      12.720000       0.807701       0.606527       1.747052
      12.730000       0.810280       0.592634       1.732667
      12.740000       0.812497       0.577844       1.715579
      12.750000       0.814352       0.562595       1.696669
      12.760000       0.815743       0.547389       1.676834
      12.770000       0.816527       0.532740       1.656883
      12.780000       0.816613       0.519117       1.637482
      12.790000       0.816040       0.506914       1.619155
      12.800000       0.815021       0.496432       1.602310
      12.810000       0.813919       0.487872       1.587274
      12.820000       0.813180       0.481349       1.574301
      12.830000       0.813246       0.476891       1.563564
      12.840000       0.814461       0.474448       1.555111
      12.850000       0.817000       0.473894       1.548827
      12.860000       0.820839       0.475047       1.544421
      12.870000       0.825768       0.477687       1.541445
      12.880000       0.831469       0.481599       1.539331
      12.890000       0.837593       0.486619       1.537432
      12.900000       0.843831       0.492669       1.535055
      12.910000       0.849925       0.499780       1.531496
      12.920000       0.855627       0.508084       1.526085
      12.930000       0.860644       0.517778       1.518251
      12.940000       0.864592       0.529071       1.507590
      12.950000       0.866990       0.542118       1.493916
      12.960000       0.867302       0.556979       1.477283
      12.970000       0.865006       0.573593       1.457972
      12.980000       0.859707       0.591773       1.436469
      12.990000       0.851241       0.611225       1.413429
      13.000000       0.839735       0.631557       1.389648
      13.010000       0.825601       0.652285       1.366014
      13.020000       0.809448       0.672830       1.343444
      13.030000       0.791947       0.692504       1.322789
      13.040000       0.773714       0.710540       1.304760
      13.050000       0.755223       0.726154       1.289871
      13.060000       0.736791       0.738655       1.278422
      13.070000       0.718612       0.747556       1.270516
      13.080000       0.700826       0.752671       1.266085
      13.090000       0.683598       0.754145       1.264923
      13.100000       0.667170       0.752411       1.266726
      13.110000       0.651870       0.748078       1.271106
      13.120000       0.638069       0.741785       1.277598
      13.130000       0.626113       0.734082       1.285642
      13.140000       0.616253       0.725363       1.294562
      13.150000       0.608582       0.715886       1.303553
      13.160000       0.603006       0.705825       1.311697
      13.170000       0.599228       0.695338       1.318023
      13.180000       0.596772       0.684591       1.321611
      13.190000       0.595023       0.673758       1.321720
      13.200000       0.593302       0.662985       1.317912
      13.210000       0.590952       0.652374       1.310142
      13.220000       0.587428       0.641968       1.298772
      13.230000       0.582362       0.631753       1.284522
      13.240000       0.575617       0.621652       1.268353
      13.250000       0.567287       0.611521       1.251319
      13.260000       0.557671       0.601142       1.234412
      13.270000       0.547224       0.590251       1.218424
      13.280000       0.536489       0.578599       1.203847
      13.290000       0.526020       0.566042       1.190818
      13.300000       0.516322       0.552612       1.179124
      13.310000       0.507788       0.538539       1.168270
      13.320000       0.500664       0.524215       1.157606
      13.330000       0.495021       0.510105       1.146498
      13.340000       0.490760       0.496659       1.134497
      13.350000       0.487647       0.484240       1.121440
      13.360000       0.485370       0.473085       1.107465
      13.370000       0.483616       0.463300       1.092920
      13.380000       0.482154       0.454875       1.078243
      13.390000       0.480882       0.447729       1.063839
      13.400000       0.479834       0.441756       1.050021
      13.410000       0.479145       0.436868       1.036987
      13.420000       0.479004       0.433015       1.024856
      13.430000       0.479592       0.430185       1.013714
      13.440000       0.481058       0.428387       1.003666
      13.450000       0.483495       0.427634       0.994867
      13.460000       0.486956       0.427939       0.987520
      13.470000       0.491470       0.429316       0.981823
      13.480000       0.497059       0.431783       0.977904
      13.490000       0.503744       0.435345       0.975725
      13.500000       0.511517       0.439978       0.975014
      13.510000       0.520307       0.445606       0.975223
      13.520000       0.529936       0.452094       0.975554
      13.530000       0.540084       0.459251       0.975054
      13.540000       0.550279       0.466831       0.972802
      13.550000       0.559921       0.474537       0.968113
      13.560000       0.568330       0.482016       0.960719
      13.570000       0.574817       0.488865       0.950837
      13.580000       0.578766       0.494668       0.939106
      13.590000       0.579712       0.499060       0.926430
      13.600000       0.577414       0.501810       0.913793
      13.610000       0.571913       0.502876       0.902104
      13.620000       0.563545       0.502409       0.892099
      13.630000       0.552898       0.500704       0.884299
      13.640000       0.540712       0.498108       0.878980
      13.650000       0.527749       0.494933       0.876171
      13.660000       0.514689       0.491403       0.875650
      13.670000       0.502076       0.487638       0.876966
      13.680000       0.490306       0.483688       0.879472
      13.690000       0.479656       0.479563       0.882402
      13.700000       0.470303       0.475270       0.884964
      13.710000       0.462347       0.470826       0.886460
      13.720000       0.455806       0.466261       0.886395
      13.730000       0.450626       0.461623       0.884560
      13.740000       0.446685       0.456973       0.881045
      13.750000       0.443803       0.452385       0.876204
      13.760000       0.441764       0.447942       0.870561
      13.770000       0.440333       0.443717       0.864704
      13.780000       0.439283       0.439761       0.859187
      13.790000       0.438425       0.436097       0.854460
      13.800000       0.437646       0.432719       0.850820
      13.810000       0.436941       0.429599       0.848392
      13.820000       0.436418       0.426690       0.847113
      13.830000       0.436283       0.423926       0.846747
      13.840000       0.436795       0.421240       0.846918
      13.850000       0.438215       0.418587       0.847174
      13.860000       0.440773       0.415982       0.847083
      13.870000       0.444633       0.413520       0.846328
      13.880000       0.449868       0.411367       0.844781
      13.890000       0.456432       0.409717       0.842510
      13.900000       0.464129       0.408745       0.839741
      13.910000       0.472594       0.408552       0.836776
      13.920000       0.481315       0.409151       0.833912
      13.930000       0.489693       0.410482       0.831378
      13.940000       0.497146       0.412451       0.829299
      13.950000       0.503223       0.414975       0.827691
      13.960000       0.507685       0.418020       0.826485
      13.970000       0.510539       0.421613       0.825571
      13.980000       0.511989       0.425837       0.824860
      13.990000       0.512360       0.430800       0.824347
      14.000000       0.512014       0.436586       0.824147
      14.010000       0.511294       0.443203       0.824499
      14.020000       0.510496       0.450546       0.825719
      14.030000       0.509864       0.458377       0.828137
      14.040000       0.509577       0.466344       0.832028
      14.050000       0.509732       0.474033       0.837568
      14.060000       0.510346       0.481027       0.844796
      14.070000       0.511365       0.486968       0.853602
      14.080000       0.512711       0.491580       0.863714
      14.090000       0.514320       0.494682       0.874709
      14.100000       0.516166       0.496182       0.886037
      14.110000       0.518256       0.496078       0.897067
      14.120000       0.520594       0.494453       0.907139
      14.130000       0.523141       0.491451       0.915607
      14.140000       0.525796       0.487235       0.921892
      14.150000       0.528398       0.481941       0.925538
      14.160000       0.530764       0.475656       0.926273
      14.170000       0.532723       0.468441       0.924071
      14.180000       0.534136       0.460374       0.919165
      14.190000       0.534894       0.451593       0.912016
      14.200000       0.534893       0.442304       0.903221
      14.210000       0.534034       0.432753       0.893410
      14.220000       0.532221       0.423170       0.883158
      14.230000       0.529391       0.413724       0.872946
      14.240000       0.525542       0.404502       0.863152
      14.250000       0.520762       0.395523       0.854077
      14.260000       0.515248       0.386769       0.845953
      14.270000       0.509308       0.378236       0.838958
      14.280000       0.503340       0.369964       0.833208
      14.290000       0.497777       0.362056       0.828770
      14.300000       0.493027       0.354655       0.825667
      14.310000       0.489408       0.347911       0.823891
      14.320000       0.487100       0.341937       0.823400
      14.330000       0.486114       0.336774       0.824103
      14.340000       0.486274       0.332380       0.825836
      14.350000       0.487213       0.328636       0.828336
      14.360000       0.488398       0.325376       0.831232
      14.370000       0.489182       0.322422       0.834048
      14.380000       0.488898       0.319625       0.836231
      14.390000       0.486961       0.316906       0.837218
      14.400000       0.482977       0.314280       0.836505
      14.410000       0.476802       0.311865       0.833736
      14.420000       0.468561       0.309852       0.828759
      14.430000       0.458602       0.308466       0.821644
      14.440000       0.447421       0.307913       0.812660
      14.450000       0.435566       0.308341       0.802221
      14.460000       0.423551       0.309816       0.790823
      14.470000       0.411806       0.312317       0.778976
      14.480000       0.400657       0.315756       0.767156
      14.490000       0.390340       0.320006       0.755775
      14.500000       0.381015       0.324938       0.745159
      14.510000       0.372782       0.330451       0.735547
      14.520000       0.365680       0.336486       0.727091
      14.530000       0.359688       0.343006       0.719854
      14.540000       0.354723       0.349978       0.713808
      14.550000       0.350652       0.357339       0.708832
      14.560000       0.347322       0.364991       0.704717
      14.570000       0.344590       0.372791       0.701199
      14.580000       0.342354       0.380576       0.697999
      14.590000       0.340574       0.388166       0.694890
      14.600000       0.339263       0.395379       0.691729
      14.610000       0.338473       0.402038       0.688468
      14.620000       0.338269       0.407975       0.685130
      14.630000       0.338704       0.413045       0.681765
      14.640000       0.339806       0.417138       0.678414
      14.650000       0.341566       0.420201       0.675083
      14.660000       0.343934       0.422257       0.671735
      14.670000       0.346800       0.423416       0.668299
      14.680000       0.349995       0.423864       0.664699
      14.690000       0.353289       0.423841       0.660884
      14.700000       0.356413       0.423605       0.656855
      14.710000       0.359095       0.423402       0.652676
      14.720000       0.361114       0.423453       0.648455
      14.730000       0.362335       0.423949       0.644316
      14.740000       0.362727       0.425070       0.640362
      14.750000       0.362351       0.426984       0.636653
      14.760000       0.361329       0.429841       0.633224
      14.770000       0.359794       0.433743       0.630116
      14.780000       0.357861       0.438716       0.627409
      14.790000       0.355600       0.444686       0.625235
      14.800000       0.353047       0.451468       0.623759
      14.810000       0.350217       0.458782       0.623140
      14.820000       0.347131       0.466262       0.623486
      14.830000       0.343824       0.473483       0.624839
      14.840000       0.340356       0.479980       0.627165
      14.850000       0.336809       0.485284       0.630358
      14.860000       0.333292       0.488977       0.634246
      14.870000       0.329947       0.490761       0.638597
      14.880000       0.326935       0.490512       0.643120
      14.890000       0.324420       0.488310       0.647479
      14.900000       0.322533       0.484417       0.651306
      14.910000       0.321341       0.479233       0.654235
      14.920000       0.320821       0.473222       0.655940
      14.930000       0.320857       0.466856       0.656182
      14.940000       0.321257       0.460564       0.654860
      14.950000       0.321789       0.454694       0.652042
      14.960000       0.322235       0.449479       0.647959
      14.970000       0.322440       0.445016       0.642967
      14.980000       0.322342       0.441264       0.637472
      14.990000       0.321966       0.438072       0.631854
      15.000000       0.321387       0.435234       0.626405
      15.010000       0.320692       0.432558       0.621297
      15.020000       0.319954       0.429913       0.616574
      15.030000       0.319228       0.427257       0.612172
      15.040000       0.318564       0.424621       0.607943
      15.050000       0.318031       0.422073       0.603696
      15.060000       0.317725       0.419672       0.599227
      15.070000       0.317772       0.417443       0.594350
      15.080000       0.318315       0.415367       0.588910
      15.090000       0.319503       0.413405       0.582790
      15.100000       0.321465       0.411513       0.575922
      15.110000       0.324295       0.409663       0.568290
      15.120000       0.328023       0.407844       0.559926
      15.130000       0.332587       0.406055       0.550911
      15.140000       0.337808       0.404307       0.541350
      15.150000       0.343384       0.402623       0.531369
      15.160000       0.348918       0.401054       0.521096
      15.170000       0.353973       0.399695       0.510652
      15.180000       0.358161       0.398687       0.500148
      15.190000       0.361228       0.398212       0.489681
      15.200000       0.363108       0.398472       0.479335
      15.210000       0.363921       0.399649       0.469200
      15.220000       0.363930       0.401872       0.459379
      15.230000       0.363462       0.405181       0.449993
      15.240000       0.362829       0.409510       0.441172
      15.250000       0.362269       0.414693       0.433024
      15.260000       0.361916       0.420485       0.425615
      15.270000       0.361797       0.426589       0.418948
      15.280000       0.361848       0.432687       0.412971
      15.290000       0.361948       0.438468       0.407595
      15.300000       0.361959       0.443654       0.402734
      15.310000       0.361752       0.448018       0.398327
      15.320000       0.361238       0.451408       0.394348
      15.330000       0.360367       0.453758       0.390799
      15.340000       0.359119       0.455087       0.387689
      15.350000       0.357498       0.455497       0.385008
      15.360000       0.355529       0.455167       0.382711
      15.370000       0.353269       0.454342       0.380722
      15.380000       0.350825       0.453314       0.378957
      15.390000       0.348344       0.452390       0.377350
      15.400000       0.345993       0.451850       0.375884
      15.410000       0.343934       0.451906       0.374603
      15.420000       0.342290       0.452671       0.373595
      15.430000       0.341138       0.454132       0.372965
      15.440000       0.340493       0.456144       0.372794
      15.450000       0.340306       0.458437       0.373107
      15.460000       0.340463       0.460642       0.373863
      15.470000       0.340790       0.462327       0.374967
      15.480000       0.341069       0.463059       0.376305
      15.490000       0.341071       0.462460       0.377788
      15.500000       0.340590       0.460271       0.379388
      15.510000       0.339493       0.456401       0.381154
      15.520000       0.337764       0.450954       0.383203
      15.530000       0.335522       0.444222       0.385706
      15.540000       0.333008       0.436642       0.388861
      15.550000       0.330533       0.428722       0.392870
      15.560000       0.328415       0.420956       0.397904
      15.570000       0.326914       0.413754       0.404078
      15.580000       0.326187       0.407397       0.411421
      15.590000       0.326276       0.402026       0.419852
      15.600000       0.327123       0.397649       0.429174
      15.610000       0.328600       0.394155       0.439080
      15.620000       0.330562       0.391341       0.449190
      15.630000       0.332888       0.388932       0.459101
      15.640000       0.335490       0.386630       0.468454
      15.650000       0.338308       0.384163       0.476991
      15.660000       0.341270       0.381340       0.484580
      15.670000       0.344257       0.378104       0.491199
      15.680000       0.347085       0.374537       0.496893
      15.690000       0.349509       0.370838       0.501716
      15.700000       0.351254       0.367268       0.505680
      15.710000       0.352053       0.364069       0.508745
      15.720000       0.351694       0.361409       0.510830
      15.730000       0.350055       0.359335       0.511840
      15.740000       0.347128       0.357767       0.511701
      15.750000       0.343021       0.356530       0.510384
      15.760000       0.337929       0.355401       0.507916
      15.770000       0.332095       0.354175       0.504372
      15.780000       0.325763       0.352723       0.499869
      15.790000       0.319151       0.351018       0.494546
      15.800000       0.312431       0.349131       0.488546
      15.810000       0.305738       0.347200       0.481994
      15.820000       0.299178       0.345389       0.474979
      15.830000       0.292838       0.343862       0.467545
      15.840000       0.286797       0.342758       0.459684
      15.850000       0.281129       0.342188       0.451357
      15.860000       0.275911       0.342221       0.442504
      15.870000       0.271214       0.342885       0.433078
      15.880000       0.267104       0.344157       0.423068
      15.890000       0.263624       0.345972       0.412520
      15.900000       0.260786       0.348221       0.401543
      15.910000       0.258557       0.350757       0.390311
      15.920000       0.256866       0.353398       0.379036
      15.930000       0.255617       0.355936       0.367945
      15.940000       0.254707       0.358154       0.357236
      15.950000       0.254050       0.359842       0.347063
      15.960000       0.253589       0.360823       0.337516
      15.970000       0.253307       0.360983       0.328628
      15.980000       0.253216       0.360292       0.320386
      15.990000       0.253342       0.358815       0.312745
      16.000000       0.253705       0.356709       0.305642
      16.010000       0.254299       0.354203       0.298999
      16.020000       0.255079       0.351560       0.292737
      16.030000       0.255960       0.349040       0.286781
      16.040000       0.256829       0.346863       0.281076
      16.050000       0.257566       0.345185       0.275595
      16.060000       0.258071       0.344088       0.270339
      16.070000       0.258277       0.343591       0.265332
      16.080000       0.258162       0.343663       0.260619
      16.090000       0.257741       0.344242       0.256249
      16.100000       0.257059       0.345257       0.252272
      16.110000       0.256177       0.346647       0.248729
      16.120000       0.255160       0.348364       0.245652
      16.130000       0.254059       0.350376       0.243064
      16.140000       0.252898       0.352657       0.240975
      16.150000       0.251665       0.355179       0.239388
      16.160000       0.250319       0.357902       0.238293
      16.170000       0.248807       0.360760       0.237670
      16.180000       0.247087       0.363658       0.237479
      16.190000       0.245152       0.366468       0.237667
      16.200000       0.243032       0.369032       0.238164
      16.210000       0.240796       0.371175       0.238895
      16.220000       0.238541       0.372713       0.239794
      16.230000       0.236378       0.373474       0.240812
      16.240000       0.234410       0.373321       0.241934
      16.250000       0.232717       0.372171       0.243171
      16.260000       0.231339       0.370016       0.244563
      16.270000       0.230267       0.366910       0.246168
      16.280000       0.229446       0.362957       0.248054
      16.290000       0.228778       0.358280       0.250290
      16.300000       0.228145       0.353004       0.252932
      16.310000       0.227428       0.347249       0.256011
      16.320000       0.226525       0.341137       0.259516
      16.330000       0.225373       0.334797       0.263387
      16.340000       0.223956       0.328368       0.267516
      16.350000       0.222309       0.322000       0.271757
      16.360000       0.220516       0.315843       0.275953
      16.370000       0.218701       0.310043       0.279955
      16.380000       0.217008       0.304732       0.283656
      16.390000       0.215573       0.300017       0.287001
      16.400000       0.214502       0.295961       0.289999
      16.410000       0.213843       0.292569       0.292714
      16.420000       0.213584       0.289768       0.295240
      16.430000       0.213661       0.287420       0.297682
      16.440000       0.213980       0.285342       0.300121
      16.450000       0.214456       0.283348       0.302604
      16.460000       0.215043       0.281291       0.305134
      16.470000       0.215747       0.279095       0.307677
      16.480000       0.216626       0.276755       0.310170
      16.490000       0.217753       0.274326       0.312539
      16.500000       0.219184       0.271897       0.314705
      16.510000       0.220924       0.269571       0.316601
      16.520000       0.222914       0.267442       0.318175
      16.530000       0.225037       0.265591       0.319385
      16.540000       0.227146       0.264084       0.320188
      16.550000       0.229102       0.262968       0.320519
      16.560000       0.230806       0.262271       0.320286
      16.570000       0.232219       0.261996       0.319377
      16.580000       0.233357       0.262119       0.317683
      16.590000       0.234285       0.262587       0.315131
      16.600000       0.235096       0.263330       0.311705
      16.610000       0.235896       0.264269       0.307459
      16.620000       0.236792       0.265337       0.302505
      16.630000       0.237882       0.266485       0.297004
      16.640000       0.239239       0.267698       0.291136
      16.650000       0.240913       0.268988       0.285094
      16.660000       0.242925       0.270390       0.279064
      16.670000       0.245273       0.271945       0.273219
      16.680000       0.247920       0.273670       0.267700
      16.690000       0.250795       0.275546       0.262611
      16.700000       0.253781       0.277515       0.258000
      16.710000       0.256715       0.279488       0.253870
      16.720000       0.259409       0.281375       0.250185
      16.730000       0.261671       0.283103       0.246894
      16.740000       0.263350       0.284628       0.243948
      16.750000       0.264360       0.285919       0.241316
      16.760000       0.264688       0.286937       0.238995
      16.770000       0.264388       0.287614       0.237005
      16.780000       0.263550       0.287842       0.235388
      16.790000       0.262280       0.287489       0.234193
      16.800000       0.260681       0.286426       0.233468
      16.810000       0.258837       0.284571       0.233244
      16.820000       0.256809       0.281924       0.233529
      16.830000       0.254626       0.278576       0.234298
      16.840000       0.252292       0.274703       0.235495
      16.850000       0.249795       0.270538       0.237046
      16.860000       0.247136       0.266332       0.238872
      16.870000       0.244356       0.262325       0.240909
      16.880000       0.241563       0.258720       0.243117
      16.890000       0.238929       0.255679       0.245488
      16.900000       0.236665       0.253313       0.248034
      16.910000       0.234974       0.251688       0.250776
      16.920000       0.234011       0.250826       0.253730
      16.930000       0.233846       0.250708       0.256897
      16.940000       0.234454       0.251281       0.260261
      16.950000       0.235730       0.252468       0.263790
      16.960000       0.237513       0.254180       0.267438
      16.970000       0.239628       0.256324       0.271139
      16.980000       0.241918       0.258803       0.274808
      16.990000       0.244265       0.261509       0.278346
      17.000000       0.246585       0.264312       0.281642
      17.010000       0.248792       0.267056       0.284591
      17.020000       0.250773       0.269570       0.287094
      17.030000       0.252368       0.271692       0.289076
      17.040000       0.253375       0.273303       0.290482
      17.050000       0.253581       0.274348       0.291284
      17.060000       0.252795       0.274837       0.291483
      17.070000       0.250876       0.274838       0.291111
      17.080000       0.247749       0.274450       0.290223
      17.090000       0.243418       0.273790       0.288897
      17.100000       0.237973       0.272977       0.287214
      17.110000       0.231589       0.272132       0.285255
      17.120000       0.224517       0.271369       0.283093
      17.130000       0.217057       0.270784       0.280786
      17.140000       0.209513       0.270438       0.278378
      17.150000       0.202161       0.270337       0.275902
      17.160000       0.195225       0.270431       0.273382
      17.170000       0.188862       0.270620       0.270842
      17.180000       0.183170       0.270777       0.268314
      17.190000       0.178195       0.270778       0.265842
      17.200000       0.173945       0.270524       0.263472
      17.210000       0.170400       0.269949       0.261256
      17.220000       0.167525       0.269026       0.259238
      17.230000       0.165284       0.267763       0.257462
      17.240000       0.163642       0.266207       0.255966
      17.250000       0.162575       0.264441       0.254790
      17.260000       0.162061       0.262570       0.253962
      17.270000       0.162074       0.260693       0.253495
      17.280000       0.162567       0.258877       0.253379
      17.290000       0.163462       0.257127       0.253583
      17.300000       0.164645       0.255394       0.254061
      17.310000       0.165967       0.253583       0.254770
      17.320000       0.167256       0.251585       0.255676
      17.330000       0.168330       0.249300       0.256764
      17.340000       0.169033       0.246665       0.258035
      17.350000       0.169256       0.243668       0.259492
      17.360000       0.168961       0.240353       0.261129
      17.370000       0.168185       0.236814       0.262916
      17.380000       0.167034       0.233174       0.264796
      17.390000       0.165661       0.229567       0.266692
      17.400000       0.164236       0.226122       0.268521
      17.410000       0.162924       0.222951       0.270210
      17.420000       0.161852       0.220148       0.271709
      17.430000       0.161094       0.217790       0.272994
      17.440000       0.160658       0.215931       0.274059
      17.450000       0.160488       0.214602       0.274908
      17.460000       0.160475       0.213807       0.275555
      17.470000       0.160488       0.213524       0.276016
      17.480000       0.160402       0.213714       0.276311
      17.490000       0.160129       0.214334       0.276455
      17.500000       0.159633       0.215346       0.276453
      17.510000       0.158934       0.216731       0.276298
      17.520000       0.158092       0.218488       0.275977
      17.530000       0.157187       0.220631       0.275471
      17.540000       0.156301       0.223182       0.274762
      17.550000       0.155505       0.226156       0.273833
      17.560000       0.154849       0.229549       0.272659
      17.570000       0.154354       0.233321       0.271215
      17.580000       0.154008       0.237380       0.269467
      17.590000       0.153768       0.241579       0.267382
      17.600000       0.153562       0.245716       0.264930
      17.610000       0.153307       0.249554       0.262092
      17.620000       0.152917       0.252842       0.258866
      17.630000       0.152326       0.255354       0.255279
      17.640000       0.151497       0.256923       0.251390
      17.650000       0.150443       0.257473       0.247288
      17.660000       0.149219       0.257037       0.243083
      17.670000       0.147916       0.255760       0.238886
      17.680000       0.146636       0.253864       0.234793
      17.690000       0.145478       0.251611       0.230871
      17.700000       0.144515       0.249244       0.227150
      17.710000       0.143787       0.246956       0.223633
      17.720000       0.143294       0.244862       0.220308
      17.730000       0.143007       0.243005       0.217172
      17.740000       0.142871       0.241372       0.214242
      17.750000       0.142826       0.239923       0.211566
      17.760000       0.142819       0.238614       0.209213
      17.770000       0.142815       0.237418       0.207260
      17.780000       0.142806       0.236335       0.205761
      17.790000       0.142805       0.235387       0.204735
      17.800000       0.142843       0.234615       0.204160
      17.810000       0.142953       0.234062       0.203981
      17.820000       0.143153       0.233765       0.204125
      17.830000       0.143433       0.233738       0.204529
      17.840000       0.143752       0.233959       0.205156
      17.850000       0.144043       0.234368       0.206006
      17.860000       0.144230       0.234876       0.207116
      17.870000       0.144262       0.235373       0.208541
      17.880000       0.144125       0.235748       0.210339
      17.890000       0.143857       0.235902       0.212553
      17.900000       0.143536       0.235757       0.215192
      17.910000       0.143265       0.235253       0.218236
      17.920000       0.143152       0.234343       0.221638
      17.930000       0.143285       0.232990       0.225345
      17.940000       0.143725       0.231160       0.229311
      17.950000       0.144497       0.228831       0.233507
      17.960000       0.145590       0.226005       0.237921
      17.970000       0.146966       0.222726       0.242542
      17.980000       0.148568       0.219084       0.247344
      17.990000       0.150323       0.215220       0.252259
      18.000000       0.152154       0.211304       0.257171
      18.010000       0.153978       0.207517       0.261911
      18.020000       0.155710       0.204025       0.266291
      18.030000       0.157265       0.200962       0.270136
      18.040000       0.158568       0.198420       0.273331
      18.050000       0.159560       0.196455       0.275844
      18.060000       0.160213       0.195093       0.277729
      18.070000       0.160530       0.194343       0.279102
      18.080000       0.160546       0.194207       0.280096
      18.090000       0.160327       0.194683       0.280830
      18.100000       0.159951       0.195761       0.281382
      18.110000       0.159501       0.197409       0.281792
      18.120000       0.159046       0.199562       0.282068
      18.130000       0.158626       0.202108       0.282211
      18.140000       0.158240       0.204877       0.282216
      18.150000       0.157849       0.207657       0.282085
      18.160000       0.157385       0.210209       0.281824
      18.170000       0.156776       0.212303       0.281434
      18.180000       0.155971       0.213753       0.280915
      18.190000       0.154955       0.214446       0.280256
      18.200000       0.153765       0.214360       0.279442
      18.210000       0.152476       0.213560       0.278465
      18.220000       0.151191       0.212173       0.277326
      18.230000       0.150024       0.210367       0.276043
      18.240000       0.149075       0.208317       0.274653
      18.250000       0.148424       0.206178       0.273202
      18.260000       0.148113       0.204072       0.271739
      18.270000       0.148151       0.202074       0.270301
      18.280000       0.148516       0.200210       0.268903
      18.290000       0.149167       0.198466       0.267529
      18.300000       0.150062       0.196800       0.266134
      18.310000       0.151167       0.195162       0.264662
      18.320000       0.152457       0.193517       0.263070
      18.330000       0.153914       0.191854       0.261349
      18.340000       0.155521       0.190199       0.259539
      18.350000       0.157250       0.188599       0.257728
      18.360000       0.159069       0.187115       0.256025
      18.370000       0.160938       0.185795       0.254534
      18.380000       0.162819       0.184664       0.253324
      18.390000       0.164670       0.183708       0.252411
      18.400000       0.166451       0.182883       0.251757
      18.410000       0.168121       0.182119       0.251278
      18.420000       0.169632       0.181336       0.250868
      18.430000       0.170925       0.180456       0.250425
      18.440000       0.171920       0.179420       0.249877
      18.450000       0.172527       0.178192       0.249203
      18.460000       0.172649       0.176774       0.248426
      18.470000       0.172208       0.175201       0.247609
      18.480000       0.171158       0.173541       0.246832
      18.490000       0.169508       0.171884       0.246171
      18.500000       0.167335       0.170329       0.245690
      18.510000       0.164776       0.168970       0.245435
      18.520000       0.162015       0.167889       0.245436
      18.530000       0.159250       0.167145       0.245707
      18.540000       0.156664       0.166769       0.246245
      18.550000       0.154398       0.166768       0.247024
      18.560000       0.152540       0.167127       0.247986
      18.570000       0.151125       0.167820       0.249043
      18.580000       0.150143       0.168819       0.250084
      18.590000       0.149550       0.170102       0.250988
      18.600000       0.149279       0.171652       0.251648
      18.610000       0.149241       0.173442       0.251989
      18.620000       0.149336       0.175415       0.251986
      18.630000       0.149450       0.177462       0.251661
      18.640000       0.149470       0.179415       0.251076
      18.650000       0.149293       0.181058       0.250311
      18.660000       0.148838       0.182154       0.249444
      18.670000       0.148061       0.182495       0.248528
      18.680000       0.146954       0.181946       0.247581
      18.690000       0.145542       0.180476       0.246584
      18.700000       0.143874       0.178164       0.245483
      18.710000       0.142008       0.175186       0.244203
      18.720000       0.139999       0.171772       0.242669
      18.730000       0.137895       0.168166       0.240825
      18.740000       0.135727       0.164587       0.238653
      18.750000       0.133513       0.161208       0.236182
      18.760000       0.131257       0.158145       0.233476
      18.770000       0.128952       0.155460       0.230634
      18.780000       0.126590       0.153170       0.227765
      18.790000       0.124170       0.151263       0.224979
      18.800000       0.121706       0.149707       0.222371
      18.810000       0.119228       0.148465       0.220008
      18.820000       0.116781       0.147495       0.217918
      18.830000       0.114417       0.146754       0.216087
      18.840000       0.112187       0.146194       0.214465
      18.850000       0.110135       0.145759       0.212986
      18.860000       0.108298       0.145397       0.211584
      18.870000       0.106707       0.145059       0.210220
      18.880000       0.105388       0.144718       0.208890
      18.890000       0.104361       0.144373       0.207623
      18.900000       0.103639       0.144044       0.206466
      18.910000       0.103222       0.143759       0.205469
      18.920000       0.103089       0.143539       0.204668
      18.930000       0.103197       0.143379       0.204071
      18.940000       0.103478       0.143249       0.203651
      18.950000       0.103846       0.143093       0.203354
      18.960000       0.104201       0.142846       0.203109
      18.970000       0.104446       0.142448       0.202849
      18.980000       0.104502       0.141860       0.202522
      18.990000       0.104321       0.141064       0.202110
      19.000000       0.103893       0.140066       0.201626
      19.010000       0.103242       0.138883       0.201108
      19.020000       0.102414       0.137541       0.200600
      19.030000       0.101469       0.136059       0.200142
      19.040000       0.100470       0.134455       0.199756
      19.050000       0.099476       0.132739       0.199440
      19.060000       0.098540       0.130926       0.199170
      19.070000       0.097703       0.129043       0.198909
      19.080000       0.096995       0.127125       0.198619
      19.090000       0.096434       0.125227       0.198268
      19.100000       0.096027       0.123415       0.197838
      19.110000       0.095769       0.121754       0.197332
      19.120000       0.095655       0.120309       0.196778
      19.130000       0.095678       0.119127       0.196217
      19.140000       0.095837       0.118240       0.195696
      19.150000       0.096138       0.117656       0.195252
      19.160000       0.096596       0.117361       0.194905
      19.170000       0.097235       0.117317       0.194653
      19.180000       0.098078       0.117462       0.194483
      19.190000       0.099141       0.117719       0.194384
      19.200000       0.100429       0.118001       0.194363
      19.210000       0.101927       0.118221       0.194446
      19.220000       0.103600       0.118306       0.194684
      19.230000       0.105394       0.118196       0.195141
      19.240000       0.107243       0.117860       0.195880
      19.250000       0.109074       0.117300       0.196951
      19.260000       0.110813       0.116552       0.198381
      19.270000       0.112389       0.115685       0.200165
      19.280000       0.113746       0.114788       0.202268
      19.290000       0.114843       0.113955       0.204622
      19.300000       0.115672       0.113265       0.207131
      19.310000       0.116256       0.112774       0.209666
      19.320000       0.116652       0.112501       0.212076
      19.330000       0.116935       0.112429       0.214193
      19.340000       0.117178       0.112503       0.215847
      19.350000       0.117436       0.112636       0.216884
      19.360000       0.117741       0.112720       0.217175
      19.370000       0.118105       0.112644       0.216632
      19.380000       0.118533       0.112316       0.215205
      19.390000       0.119032       0.111668       0.212891
      19.400000       0.119620       0.110675       0.209740
      19.410000       0.120314       0.109352       0.205858
      19.420000       0.121125       0.107747       0.201407
      19.430000       0.122042       0.105939       0.196591
      19.440000       0.123032       0.104017       0.191626
      19.450000       0.124041       0.102076       0.186721
      19.460000       0.125010       0.100200       0.182055
      19.470000       0.125881       0.098456       0.177765
      19.480000       0.126612       0.096895       0.173947
      19.490000       0.127170       0.095551       0.170660
      19.500000       0.127528       0.094442       0.167936
      19.510000       0.127656       0.093570       0.165783
      19.520000       0.127520       0.092924       0.164198
      19.530000       0.127084       0.092484       0.163169
      19.540000       0.126313       0.092218       0.162677
      19.550000       0.125176       0.092087       0.162697
      19.560000       0.123654       0.092054       0.163202
      19.570000       0.121748       0.092088       0.164160
      19.580000       0.119484       0.092176       0.165534
      19.590000       0.116919       0.092327       0.167277
      19.600000       0.114139       0.092567       0.169337
      19.610000       0.111244       0.092928       0.171656
      19.620000       0.108332       0.093434       0.174172
      19.630000       0.105488       0.094093       0.176821
      19.640000       0.102771       0.094883       0.179535
      19.650000       0.100216       0.095754       0.182247
      19.660000       0.097833       0.096632       0.184887
      19.670000       0.095618       0.097431       0.187389
      19.680000       0.093555       0.098072       0.189701
      19.690000       0.091628       0.098500       0.191784
      19.700000       0.089826       0.098698       0.193625
      19.710000       0.088151       0.098686       0.195235
      19.720000       0.086619       0.098515       0.196652
      19.730000       0.085255       0.098248       0.197939
      19.740000       0.084084       0.097951       0.199167
      19.750000       0.083122       0.097672       0.200409
      19.760000       0.082369       0.097447       0.201726
      19.770000       0.081813       0.097299       0.203158
      19.780000       0.081427       0.097241       0.204724
      19.790000       0.081180       0.097285       0.206422
      19.800000       0.081043       0.097437       0.208236
      19.810000       0.080997       0.097696       0.210137
      19.820000       0.081034       0.098049       0.212074
      19.830000       0.081159       0.098462       0.213984
      19.840000       0.081379       0.098882       0.215783
      19.850000       0.081701       0.099237       0.217379
      19.860000       0.082127       0.099449       0.218688
      19.870000       0.082647       0.099446       0.219650
      19.880000       0.083246       0.099181       0.220254
      19.890000       0.083899       0.098637       0.220546
      19.900000       0.084575       0.097836       0.220624
      19.910000       0.085239       0.096830       0.220619
      19.920000       0.085855       0.095690       0.220659
      19.930000       0.086386       0.094497       0.220845
      19.940000       0.086800       0.093322       0.221225
      19.950000       0.087075       0.092226       0.221804
      19.960000       0.087196       0.091249       0.222558
      19.970000       0.087165       0.090413       0.223463
      19.980000       0.086995       0.089720       0.224520
      19.990000       0.086712       0.089157       0.225763
      20.000000       0.086350       0.088698       0.227248
