  # energy grid [eV]     epsi_x  epsi_y  epsi_z
       0.000000            NaN            NaN            NaN
       0.010000       0.000163       0.000012       0.000220
       0.020000       0.000327       0.000024       0.000441
       0.030000       0.000490       0.000036       0.000662
       0.040000       0.000653       0.000048       0.000884
       0.050000       0.000817       0.000060       0.001107
       0.060000       0.000980       0.000072       0.001333
       0.070000       0.001143       0.000084       0.001560
       0.080000       0.001307       0.000096       0.001790
       0.090000       0.001470       0.000108       0.002023
       0.100000       0.001634       0.000120       0.002260
       0.110000       0.001798       0.000132       0.002500
       0.120000       0.001962       0.000145       0.002744
       0.130000       0.002126       0.000157       0.002994
       0.140000       0.002290       0.000169       0.003249
       0.150000       0.002454       0.000181       0.003510
       0.160000       0.002618       0.000193       0.003778
       0.170000       0.002782       0.000205       0.004054
       0.180000       0.002947       0.000217       0.004338
       0.190000       0.003112       0.000229       0.004631
       0.200000       0.003276       0.000241       0.004935
       0.210000       0.003441       0.000253       0.005250
       0.220000       0.003607       0.000265       0.005578
       0.230000       0.003772       0.000277       0.005920
       0.240000       0.003938       0.000289       0.006278
       0.250000       0.004103       0.000301       0.006654
       0.260000       0.004269       0.000314       0.007049
       0.270000       0.004435       0.000326       0.007466
       0.280000       0.004602       0.000338       0.007908
       0.290000       0.004769       0.000350       0.008377
       0.300000       0.004935       0.000362       0.008876
       0.310000       0.005103       0.000374       0.009411
       0.320000       0.005270       0.000386       0.009985
       0.330000       0.005438       0.000398       0.010603
       0.340000       0.005606       0.000410       0.011270
       0.350000       0.005774       0.000423       0.011995
       0.360000       0.005942       0.000435       0.012785
       0.370000       0.006111       0.000447       0.013647
       0.380000       0.006280       0.000459       0.014594
       0.390000       0.006450       0.000471       0.015635
       0.400000       0.006620       0.000483       0.016786
       0.410000       0.006790       0.000496       0.018059
       0.420000       0.006960       0.000508       0.019471
       0.430000       0.007131       0.000520       0.021041
       0.440000       0.007303       0.000532       0.022784
       0.450000       0.007474       0.000544       0.024719
       0.460000       0.007646       0.000557       0.026858
       0.470000       0.007819       0.000569       0.029209
       0.480000       0.007992       0.000581       0.031768
       0.490000       0.008165       0.000593       0.034512
       0.500000       0.008339       0.000606       0.037390
       0.510000       0.008513       0.000618       0.040320
       0.520000       0.008687       0.000630       0.043176
       0.530000       0.008862       0.000643       0.045794
       0.540000       0.009038       0.000655       0.047985
       0.550000       0.009214       0.000667       0.049563
       0.560000       0.009390       0.000679       0.050384
       0.570000       0.009567       0.000692       0.050377
       0.580000       0.009745       0.000704       0.049571
       0.590000       0.009923       0.000717       0.048080
       0.600000       0.010101       0.000729       0.046076
       0.610000       0.010280       0.000741       0.043753
       0.620000       0.010460       0.000754       0.041289
       0.630000       0.010640       0.000766       0.038828
       0.640000       0.010821       0.000778       0.036473
       0.650000       0.011002       0.000791       0.034289
       0.660000       0.011184       0.000803       0.032310
       0.670000       0.011367       0.000816       0.030549
       0.680000       0.011550       0.000828       0.029005
       0.690000       0.011734       0.000841       0.027666
       0.700000       0.011918       0.000853       0.026519
       0.710000       0.012103       0.000866       0.025546
       0.720000       0.012289       0.000878       0.024731
       0.730000       0.012476       0.000891       0.024060
       0.740000       0.012663       0.000903       0.023516
       0.750000       0.012851       0.000916       0.023089
       0.760000       0.013039       0.000928       0.022767
       0.770000       0.013229       0.000941       0.022542
       0.780000       0.013419       0.000954       0.022406
       0.790000       0.013610       0.000966       0.022353
       0.800000       0.013801       0.000979       0.022378
       0.810000       0.013994       0.000992       0.022478
       0.820000       0.014187       0.001004       0.022651
       0.830000       0.014381       0.001017       0.022894
       0.840000       0.014575       0.001030       0.023210
       0.850000       0.014771       0.001042       0.023597
       0.860000       0.014968       0.001055       0.024059
       0.870000       0.015165       0.001068       0.024598
       0.880000       0.015363       0.001080       0.025219
       0.890000       0.015562       0.001093       0.025927
       0.900000       0.015762       0.001106       0.026730
       0.910000       0.015963       0.001119       0.027636
       0.920000       0.016165       0.001132       0.028655
       0.930000       0.016368       0.001145       0.029800
       0.940000       0.016572       0.001157       0.031084
       0.950000       0.016776       0.001170       0.032525
       0.960000       0.016982       0.001183       0.034142
       0.970000       0.017189       0.001196       0.035957
       0.980000       0.017397       0.001209       0.037994
       0.990000       0.017606       0.001222       0.040280
       1.000000       0.017816       0.001235       0.042844
       1.010000       0.018027       0.001248       0.045714
       1.020000       0.018239       0.001261       0.048918
       1.030000       0.018452       0.001274       0.052473
       1.040000       0.018666       0.001287       0.056387
       1.050000       0.018882       0.001300       0.060643
       1.060000       0.019098       0.001313       0.065191
       1.070000       0.019316       0.001327       0.069932
       1.080000       0.019535       0.001340       0.074704
       1.090000       0.019755       0.001353       0.079280
       1.100000       0.019977       0.001366       0.083373
       1.110000       0.020200       0.001379       0.086667
       1.120000       0.020424       0.001392       0.088867
       1.130000       0.020649       0.001406       0.089767
       1.140000       0.020876       0.001419       0.089298
       1.150000       0.021104       0.001432       0.087548
       1.160000       0.021333       0.001446       0.084739
       1.170000       0.021564       0.001459       0.081172
       1.180000       0.021796       0.001472       0.077161
       1.190000       0.022030       0.001486       0.072990
       1.200000       0.022265       0.001499       0.068878
       1.210000       0.022501       0.001513       0.064979
       1.220000       0.022739       0.001526       0.061385
       1.230000       0.022979       0.001540       0.058144
       1.240000       0.023220       0.001553       0.055269
       1.250000       0.023462       0.001567       0.052753
       1.260000       0.023706       0.001580       0.050576
       1.270000       0.023952       0.001594       0.048712
       1.280000       0.024200       0.001608       0.047133
       1.290000       0.024449       0.001621       0.045814
       1.300000       0.024699       0.001635       0.044727
       1.310000       0.024952       0.001649       0.043850
       1.320000       0.025206       0.001663       0.043164
       1.330000       0.025462       0.001676       0.042650
       1.340000       0.025720       0.001690       0.042295
       1.350000       0.025980       0.001704       0.042086
       1.360000       0.026241       0.001718       0.042014
       1.370000       0.026505       0.001732       0.042070
       1.380000       0.026770       0.001746       0.042251
       1.390000       0.027037       0.001760       0.042551
       1.400000       0.027306       0.001774       0.042969
       1.410000       0.027577       0.001788       0.043505
       1.420000       0.027851       0.001802       0.044160
       1.430000       0.028126       0.001816       0.044938
       1.440000       0.028403       0.001830       0.045843
       1.450000       0.028683       0.001844       0.046882
       1.460000       0.028965       0.001858       0.048064
       1.470000       0.029249       0.001872       0.049401
       1.480000       0.029535       0.001887       0.050906
       1.490000       0.029823       0.001901       0.052595
       1.500000       0.030114       0.001915       0.054486
       1.510000       0.030407       0.001930       0.056604
       1.520000       0.030703       0.001944       0.058972
       1.530000       0.031001       0.001959       0.061620
       1.540000       0.031301       0.001973       0.064581
       1.550000       0.031604       0.001987       0.067889
       1.560000       0.031909       0.002002       0.071581
       1.570000       0.032217       0.002017       0.075694
       1.580000       0.032528       0.002031       0.080257
       1.590000       0.032841       0.002046       0.085289
       1.600000       0.033158       0.002060       0.090791
       1.610000       0.033476       0.002075       0.096727
       1.620000       0.033798       0.002090       0.103014
       1.630000       0.034123       0.002105       0.109500
       1.640000       0.034450       0.002120       0.115957
       1.650000       0.034781       0.002134       0.122076
       1.660000       0.035114       0.002149       0.127489
       1.670000       0.035451       0.002164       0.131819
       1.680000       0.035790       0.002179       0.134741
       1.690000       0.036133       0.002194       0.136068
       1.700000       0.036479       0.002209       0.135787
       1.710000       0.036829       0.002225       0.134072
       1.720000       0.037181       0.002240       0.131238
       1.730000       0.037537       0.002255       0.127671
       1.740000       0.037897       0.002270       0.123755
       1.750000       0.038260       0.002285       0.119821
       1.760000       0.038627       0.002301       0.116126
       1.770000       0.038997       0.002316       0.112844
       1.780000       0.039371       0.002332       0.110083
       1.790000       0.039749       0.002347       0.107902
       1.800000       0.040131       0.002363       0.106323
       1.810000       0.040517       0.002378       0.105349
       1.820000       0.040906       0.002394       0.104974
       1.830000       0.041300       0.002409       0.105185
       1.840000       0.041698       0.002425       0.105975
       1.850000       0.042100       0.002441       0.107338
       1.860000       0.042507       0.002457       0.109277
       1.870000       0.042918       0.002473       0.111800
       1.880000       0.043333       0.002488       0.114925
       1.890000       0.043753       0.002504       0.118674
       1.900000       0.044178       0.002520       0.123078
       1.910000       0.044607       0.002536       0.128169
       1.920000       0.045041       0.002553       0.133982
       1.930000       0.045480       0.002569       0.140547
       1.940000       0.045925       0.002585       0.147881
       1.950000       0.046374       0.002601       0.155981
       1.960000       0.046829       0.002617       0.164811
       1.970000       0.047288       0.002634       0.174294
       1.980000       0.047754       0.002650       0.184313
       1.990000       0.048225       0.002667       0.194713
       2.000000       0.048701       0.002683       0.205331
       2.010000       0.049184       0.002700       0.216032
       2.020000       0.049672       0.002717       0.226744
       2.030000       0.050167       0.002733       0.237476
       2.040000       0.050667       0.002750       0.248304
       2.050000       0.051174       0.002767       0.259316
       2.060000       0.051687       0.002784       0.270561
       2.070000       0.052207       0.002801       0.281995
       2.080000       0.052734       0.002818       0.293480
       2.090000       0.053267       0.002835       0.304822
       2.100000       0.053808       0.002852       0.315849
       2.110000       0.054356       0.002869       0.326485
       2.120000       0.054911       0.002886       0.336790
       2.130000       0.055473       0.002904       0.346943
       2.140000       0.056044       0.002921       0.357163
       2.150000       0.056622       0.002939       0.367612
       2.160000       0.057208       0.002956       0.378325
       2.170000       0.057802       0.002974       0.389176
       2.180000       0.058405       0.002991       0.399903
       2.190000       0.059016       0.003009       0.410159
       2.200000       0.059637       0.003027       0.419578
       2.210000       0.060266       0.003045       0.427835
       2.220000       0.060905       0.003063       0.434696
       2.230000       0.061553       0.003081       0.440043
       2.240000       0.062210       0.003099       0.443884
       2.250000       0.062878       0.003117       0.446348
       2.260000       0.063556       0.003135       0.447671
       2.270000       0.064245       0.003153       0.448173
       2.280000       0.064944       0.003172       0.448228
       2.290000       0.065654       0.003190       0.448212
       2.300000       0.066375       0.003209       0.448443
       2.310000       0.067109       0.003227       0.449133
       2.320000       0.067854       0.003246       0.450365
       2.330000       0.068611       0.003265       0.452099
       2.340000       0.069381       0.003284       0.454202
       2.350000       0.070164       0.003303       0.456486
       2.360000       0.070960       0.003322       0.458755
       2.370000       0.071769       0.003341       0.460851
       2.380000       0.072593       0.003360       0.462674
       2.390000       0.073431       0.003379       0.464201
       2.400000       0.074284       0.003399       0.465493
       2.410000       0.075153       0.003418       0.466708
       2.420000       0.076037       0.003438       0.468102
       2.430000       0.076937       0.003457       0.470003
       2.440000       0.077854       0.003477       0.472771
       2.450000       0.078788       0.003497       0.476722
       2.460000       0.079740       0.003517       0.482052
       2.470000       0.080710       0.003537       0.488764
       2.480000       0.081699       0.003557       0.496642
       2.490000       0.082707       0.003577       0.505268
       2.500000       0.083736       0.003598       0.514118
       2.510000       0.084785       0.003618       0.522708
       2.520000       0.085856       0.003639       0.530753
       2.530000       0.086949       0.003659       0.538273
       2.540000       0.088064       0.003680       0.545601
       2.550000       0.089204       0.003701       0.553279
       2.560000       0.090368       0.003722       0.561899
       2.570000       0.091557       0.003743       0.571947
       2.580000       0.092772       0.003764       0.583692
       2.590000       0.094015       0.003785       0.597168
       2.600000       0.095286       0.003807       0.612208
       2.610000       0.096586       0.003828       0.628520
       2.620000       0.097916       0.003850       0.645758
       2.630000       0.099278       0.003872       0.663555
       2.640000       0.100673       0.003894       0.681537
       2.650000       0.102102       0.003916       0.699300
       2.660000       0.103566       0.003938       0.716400
       2.670000       0.105066       0.003960       0.732343
       2.680000       0.106606       0.003982       0.746593
       2.690000       0.108185       0.004005       0.758583
       2.700000       0.109805       0.004028       0.767732
       2.710000       0.111469       0.004050       0.773458
       2.720000       0.113178       0.004073       0.775198
       2.730000       0.114935       0.004096       0.772458
       2.740000       0.116741       0.004120       0.764908
       2.750000       0.118598       0.004143       0.752494
       2.760000       0.120510       0.004167       0.735553
       2.770000       0.122478       0.004190       0.714840
       2.780000       0.124506       0.004214       0.691470
       2.790000       0.126596       0.004238       0.666757
       2.800000       0.128751       0.004262       0.642017
       2.810000       0.130975       0.004287       0.618379
       2.820000       0.133272       0.004311       0.596668
       2.830000       0.135645       0.004336       0.577358
       2.840000       0.138098       0.004361       0.560610
       2.850000       0.140636       0.004386       0.546345
       2.860000       0.143263       0.004411       0.534337
       2.870000       0.145986       0.004436       0.524280
       2.880000       0.148808       0.004462       0.515837
       2.890000       0.151737       0.004488       0.508662
       2.900000       0.154779       0.004514       0.502434
       2.910000       0.157940       0.004540       0.496882
       2.920000       0.161229       0.004567       0.491826
       2.930000       0.164654       0.004593       0.487171
       2.940000       0.168225       0.004620       0.482891
       2.950000       0.171950       0.004647       0.478969
       2.960000       0.175842       0.004675       0.475343
       2.970000       0.179912       0.004702       0.471876
       2.980000       0.184173       0.004730       0.468357
       2.990000       0.188641       0.004758       0.464540
       3.000000       0.193330       0.004787       0.460202
       3.010000       0.198260       0.004815       0.455210
       3.020000       0.203449       0.004844       0.449576
       3.030000       0.208920       0.004874       0.443489
       3.040000       0.214698       0.004903       0.437312
       3.050000       0.220809       0.004933       0.431541
       3.060000       0.227285       0.004964       0.426728
       3.070000       0.234160       0.004994       0.423402
       3.080000       0.241472       0.005025       0.421992
       3.090000       0.249265       0.005057       0.422773
       3.100000       0.257586       0.005089       0.425842
       3.110000       0.266490       0.005121       0.431109
       3.120000       0.276038       0.005154       0.438306
       3.130000       0.286295       0.005187       0.447020
       3.140000       0.297336       0.005221       0.456731
       3.150000       0.309240       0.005255       0.466860
       3.160000       0.322091       0.005290       0.476810
       3.170000       0.335976       0.005325       0.486008
       3.180000       0.350981       0.005362       0.493918
       3.190000       0.367189       0.005399       0.500068
       3.200000       0.384674       0.005436       0.504068
       3.210000       0.403497       0.005475       0.505641
       3.220000       0.423715       0.005515       0.504663
       3.230000       0.445387       0.005555       0.501195
       3.240000       0.468599       0.005597       0.495500
       3.250000       0.493497       0.005640       0.488021
       3.260000       0.520313       0.005684       0.479319
       3.270000       0.549385       0.005730       0.469991
       3.280000       0.581148       0.005778       0.460585
       3.290000       0.616107       0.005827       0.451545
       3.300000       0.654794       0.005879       0.443174
       3.310000       0.697708       0.005932       0.435641
       3.320000       0.745255       0.005988       0.428980
       3.330000       0.797666       0.006046       0.423109
       3.340000       0.854892       0.006107       0.417839
       3.350000       0.916469       0.006170       0.412897
       3.360000       0.981359       0.006234       0.407963
       3.370000       1.047799       0.006300       0.402730
       3.380000       1.113226       0.006366       0.396963
       3.390000       1.174367       0.006430       0.390557
       3.400000       1.227583       0.006492       0.383580
       3.410000       1.269494       0.006550       0.376277
       3.420000       1.297741       0.006604       0.369039
       3.430000       1.311645       0.006652       0.362337
       3.440000       1.312448       0.006696       0.356648
       3.450000       1.303046       0.006737       0.352391
       3.460000       1.287321       0.006776       0.349889
       3.470000       1.269385       0.006815       0.349346
       3.480000       1.252974       0.006855       0.350854
       3.490000       1.241118       0.006899       0.354398
       3.500000       1.236055       0.006946       0.359879
       3.510000       1.239298       0.006998       0.367130
       3.520000       1.251746       0.007055       0.375948
       3.530000       1.273787       0.007118       0.386112
       3.540000       1.305341       0.007186       0.397388
       3.550000       1.345846       0.007260       0.409515
       3.560000       1.394192       0.007340       0.422170
       3.570000       1.448654       0.007425       0.434940
       3.580000       1.506869       0.007515       0.447309
       3.590000       1.565952       0.007608       0.458689
       3.600000       1.622788       0.007705       0.468458
       3.610000       1.674506       0.007802       0.476027
       3.620000       1.719014       0.007897       0.480907
       3.630000       1.755441       0.007990       0.482770
       3.640000       1.784313       0.008080       0.481515
       3.650000       1.807402       0.008166       0.477303
       3.660000       1.827326       0.008249       0.470557
       3.670000       1.847029       0.008332       0.461912
       3.680000       1.869307       0.008418       0.452119
       3.690000       1.896479       0.008508       0.441929
       3.700000       1.930212       0.008605       0.432006
       3.710000       1.971416       0.008711       0.422869
       3.720000       2.020120       0.008827       0.414891
       3.730000       2.075307       0.008952       0.408325
       3.740000       2.134771       0.009086       0.403334
       3.750000       2.195136       0.009226       0.400008
       3.760000       2.252175       0.009370       0.398364
       3.770000       2.301490       0.009513       0.398345
       3.780000       2.339416       0.009654       0.399820
       3.790000       2.363870       0.009788       0.402597
       3.800000       2.374798       0.009915       0.406436
       3.810000       2.374002       0.010035       0.411064
       3.820000       2.364452       0.010149       0.416191
       3.830000       2.349370       0.010259       0.421537
       3.840000       2.331481       0.010369       0.426880
       3.850000       2.312678       0.010480       0.432106
       3.860000       2.294142       0.010595       0.437253
       3.870000       2.276739       0.010714       0.442516
       3.880000       2.261391       0.010840       0.448215
       3.890000       2.249196       0.010973       0.454720
       3.900000       2.241213       0.011116       0.462357
       3.910000       2.238041       0.011269       0.471314
       3.920000       2.239420       0.011430       0.481572
       3.930000       2.244073       0.011598       0.492868
       3.940000       2.249907       0.011770       0.504707
       3.950000       2.254581       0.011943       0.516420
       3.960000       2.256288       0.012116       0.527243
       3.970000       2.254476       0.012289       0.536412
       3.980000       2.250215       0.012465       0.543242
       3.990000       2.246068       0.012650       0.547197
       4.000000       2.245551       0.012851       0.547929
       4.010000       2.252434       0.013074       0.545308
       4.020000       2.270124       0.013326       0.539426
       4.030000       2.301247       0.013614       0.530607
       4.040000       2.347410       0.013941       0.519386
       4.050000       2.409082       0.014312       0.506473
       4.060000       2.485503       0.014726       0.492665
       4.070000       2.574617       0.015185       0.478753
       4.080000       2.673060       0.015686       0.465426
       4.090000       2.776266       0.016224       0.453216
       4.100000       2.878789       0.016792       0.442491
       4.110000       2.974850       0.017381       0.433488
       4.120000       3.059086       0.017978       0.426370
       4.130000       3.127340       0.018568       0.421272
       4.140000       3.177281       0.019136       0.418321
       4.150000       3.208648       0.019668       0.417637
       4.160000       3.223034       0.020155       0.419317
       4.170000       3.223266       0.020597       0.423417
       4.180000       3.212613       0.021002       0.429948
       4.190000       3.194050       0.021387       0.438873
       4.200000       3.169804       0.021769       0.450129
       4.210000       3.141288       0.022166       0.463634
       4.220000       3.109347       0.022589       0.479305
       4.230000       3.074624       0.023037       0.497039
       4.240000       3.037796       0.023498       0.516684
       4.250000       2.999539       0.023946       0.537979
       4.260000       2.960305       0.024351       0.560502
       4.270000       2.920092       0.024675       0.583636
       4.280000       2.878457       0.024892       0.606587
       4.290000       2.834798       0.024985       0.628436
       4.300000       2.788809       0.024959       0.648232
       4.310000       2.740853       0.024837       0.665083
       4.320000       2.692113       0.024651       0.678251
       4.330000       2.644502       0.024444       0.687229
       4.340000       2.600450       0.024252       0.691821
       4.350000       2.562649       0.024111       0.692191
       4.360000       2.533810       0.024047       0.688874
       4.370000       2.516406       0.024082       0.682724
       4.380000       2.512394       0.024230       0.674795
       4.390000       2.522951       0.024502       0.666182
       4.400000       2.548230       0.024902       0.657879
       4.410000       2.587172       0.025431       0.650694
       4.420000       2.637394       0.026080       0.645221
       4.430000       2.695214       0.026832       0.641873
       4.440000       2.755893       0.027661       0.640935
       4.450000       2.814146       0.028524       0.642610
       4.460000       2.864901       0.029367       0.647044
       4.470000       2.904125       0.030127       0.654319
       4.480000       2.929517       0.030737       0.664424
       4.490000       2.940840       0.031142       0.677223
       4.500000       2.939854       0.031310       0.692426
       4.510000       2.929828       0.031239       0.709572
       4.520000       2.914784       0.030960       0.728033
       4.530000       2.898613       0.030529       0.747027
       4.540000       2.884302       0.030011       0.765666
       4.550000       2.873456       0.029470       0.783026
       4.560000       2.866236       0.028961       0.798244
       4.570000       2.861671       0.028524       0.810622
       4.580000       2.858211       0.028190       0.819729
       4.590000       2.854296       0.027975       0.825486
       4.600000       2.848801       0.027892       0.828210
       4.610000       2.841291       0.027946       0.828594
       4.620000       2.832141       0.028141       0.827628
       4.630000       2.822568       0.028478       0.826455
       4.640000       2.814550       0.028961       0.826211
       4.650000       2.810608       0.029592       0.827899
       4.660000       2.813461       0.030377       0.832295
       4.670000       2.825596       0.031319       0.839902
       4.680000       2.848859       0.032420       0.850925
       4.690000       2.884142       0.033677       0.865257
       4.700000       2.931191       0.035080       0.882466
       4.710000       2.988541       0.036611       0.901794
       4.720000       3.053554       0.038239       0.922185
       4.730000       3.122596       0.039924       0.942344
       4.740000       3.191353       0.041615       0.960873
       4.750000       3.255312       0.043254       0.976455
       4.760000       3.310326       0.044771       0.988070
       4.770000       3.353176       0.046096       0.995179
       4.780000       3.382015       0.047154       0.997794
       4.790000       3.396560       0.047883       0.996389
       4.800000       3.397966       0.048243       0.991669
       4.810000       3.388440       0.048225       0.984275
       4.820000       3.370720       0.047855       0.974526
       4.830000       3.347614       0.047194       0.962292
       4.840000       3.321657       0.046328       0.947028
       4.850000       3.294865       0.045351       0.927978
       4.860000       3.268524       0.044359       0.904471
       4.870000       3.243034       0.043437       0.876239
       4.880000       3.217828       0.042652       0.843609
       4.890000       3.191506       0.042051       0.807517
       4.900000       3.162225       0.041661       0.769326
       4.910000       3.128320       0.041493       0.730547
       4.920000       3.088945       0.041541       0.692564
       4.930000       3.044450       0.041782       0.656468
       4.940000       2.996339       0.042180       0.622989
       4.950000       2.946882       0.042683       0.592534
       4.960000       2.898610       0.043226       0.565255
       4.970000       2.853942       0.043741       0.541123
       4.980000       2.814994       0.044162       0.519982
       4.990000       2.783536       0.044443       0.501575
       5.000000       2.760977       0.044568       0.485559
       5.010000       2.748291       0.044554       0.471531
       5.020000       2.745861       0.044448       0.459044
       5.030000       2.753299       0.044317       0.447638
       5.040000       2.769351       0.044233       0.436875
       5.050000       2.791993       0.044262       0.426369
       5.060000       2.818797       0.044456       0.415828
       5.070000       2.847495       0.044851       0.405079
       5.080000       2.876571       0.045464       0.394078
       5.090000       2.905627       0.046297       0.382904
       5.100000       2.935364       0.047331       0.371735
       5.110000       2.967210       0.048533       0.360810
       5.120000       3.002754       0.049850       0.350385
       5.130000       3.043211       0.051217       0.340696
       5.140000       3.089025       0.052559       0.331918
       5.150000       3.139625       0.053807       0.324152
       5.160000       3.193342       0.054903       0.317416
       5.170000       3.247490       0.055816       0.311648
       5.180000       3.298647       0.056540       0.306723
       5.190000       3.343112       0.057084       0.302473
       5.200000       3.377500       0.057462       0.298724
       5.210000       3.399384       0.057674       0.295330
       5.220000       3.407813       0.057706       0.292204
       5.230000       3.403591       0.057534       0.289330
       5.240000       3.389200       0.057141       0.286763
       5.250000       3.368397       0.056531       0.284598
       5.260000       3.345586       0.055739       0.282945
       5.270000       3.325160       0.054829       0.281899
       5.280000       3.310925       0.053884       0.281520
       5.290000       3.305666       0.052991       0.281827
       5.300000       3.310891       0.052226       0.282792
       5.310000       3.326745       0.051651       0.284343
       5.320000       3.352159       0.051310       0.286371
       5.330000       3.385228       0.051226       0.288746
       5.340000       3.423783       0.051411       0.291343
       5.350000       3.466016       0.051859       0.294068
       5.360000       3.510964       0.052553       0.296886
       5.370000       3.558651       0.053468       0.299831
       5.380000       3.609859       0.054565       0.302994
       5.390000       3.665660       0.055804       0.306504
       5.400000       3.726941       0.057139       0.310492
       5.410000       3.794127       0.058529       0.315062
       5.420000       3.867184       0.059940       0.320279
       5.430000       3.945895       0.061352       0.326156
       5.440000       4.030256       0.062768       0.332662
       5.450000       4.120840       0.064213       0.339739
       5.460000       4.218901       0.065732       0.347322
       5.470000       4.326149       0.067384       0.355377
       5.480000       4.444239       0.069226       0.363917
       5.490000       4.574241       0.071296       0.373022
       5.500000       4.716309       0.073596       0.382822
       5.510000       4.869717       0.076082       0.393478
       5.520000       5.033183       0.078656       0.405149
       5.530000       5.205310       0.081169       0.417973
       5.540000       5.384906       0.083431       0.432053
       5.550000       5.571097       0.085240       0.447470
       5.560000       5.763252       0.086416       0.464300
       5.570000       5.960803       0.086842       0.482647
       5.580000       6.163072       0.086486       0.502665
       5.590000       6.369202       0.085408       0.524575
       5.600000       6.578197       0.083745       0.548657
       5.610000       6.789029       0.081683       0.575230
       5.620000       7.000633       0.079419       0.604629
       5.630000       7.211686       0.077138       0.637192
       5.640000       7.420193       0.074994       0.673256
       5.650000       7.623109       0.073099       0.713158
       5.660000       7.816221       0.071526       0.757238
       5.670000       7.994467       0.070315       0.805805
       5.680000       8.152639       0.069475       0.859089
       5.690000       8.286296       0.068992       0.917146
       5.700000       8.392587       0.068830       0.979746
       5.710000       8.470727       0.068929       1.046258
       5.720000       8.521957       0.069209       1.115556
       5.730000       8.549016       0.069572       1.185975
       5.740000       8.555335       0.069915       1.255382
       5.750000       8.544287       0.070144       1.321391
       5.760000       8.518775       0.070195       1.381735
       5.770000       8.481245       0.070050       1.434728
       5.780000       8.433942       0.069736       1.479656
       5.790000       8.379101       0.069318       1.516956
       5.800000       8.318832       0.068886       1.548058
       5.810000       8.254700       0.068528       1.574930
       5.820000       8.187239       0.068324       1.599462
       5.830000       8.115712       0.068337       1.622908
       5.840000       8.038291       0.068614       1.645543
       5.850000       7.952563       0.069184       1.666667
       5.860000       7.856181       0.070066       1.684928
       5.870000       7.747481       0.071263       1.698886
       5.880000       7.626023       0.072769       1.707615
       5.890000       7.493021       0.074557       1.711146
       5.900000       7.351572       0.076586       1.710581
       5.910000       7.206535       0.078794       1.707847
       5.920000       7.063997       0.081107       1.705194
       5.930000       6.930417       0.083447       1.704601
       5.940000       6.811695       0.085751       1.707271
       5.950000       6.712407       0.087976       1.713346
       5.960000       6.635359       0.090114       1.721881
       5.970000       6.581447       0.092176       1.731101
       5.980000       6.549731       0.094179       1.738867
       5.990000       6.537617       0.096120       1.743279
       6.000000       6.541047       0.097971       1.743227
       6.010000       6.554729       0.099669       1.738728
       6.020000       6.572487       0.101137       1.730944
       6.030000       6.587837       0.102303       1.721893
       6.040000       6.594768       0.103119       1.713991
       6.050000       6.588530       0.103577       1.709538
       6.060000       6.566140       0.103708       1.710278
       6.070000       6.526453       0.103578       1.717071
       6.080000       6.469827       0.103271       1.729728
       6.090000       6.397620       0.102879       1.746998
       6.100000       6.311747       0.102478       1.766753
       6.110000       6.214457       0.102124       1.786362
       6.120000       6.108378       0.101848       1.803226
       6.130000       5.996695       0.101661       1.815375
       6.140000       5.883295       0.101564       1.821929
       6.150000       5.772648       0.101562       1.823270
       6.160000       5.669398       0.101663       1.820868
       6.170000       5.577715       0.101874       1.816873
       6.180000       5.500619       0.102197       1.813649
       6.190000       5.439481       0.102624       1.813421
       6.200000       5.393841       0.103146       1.818071
       6.210000       5.361604       0.103769       1.829061
       6.220000       5.339569       0.104522       1.847422
       6.230000       5.324159       0.105465       1.873739
       6.240000       5.312198       0.106681       1.908116
       6.250000       5.301524       0.108258       1.950120
       6.260000       5.291341       0.110275       1.998752
       6.270000       5.282246       0.112778       2.052552
       6.280000       5.275964       0.115767       2.109862
       6.290000       5.274876       0.119186       2.169211
       6.300000       5.281443       0.122912       2.229702
       6.310000       5.297618       0.126753       2.291210
       6.320000       5.324349       0.130454       2.354289
       6.330000       5.361205       0.133720       2.419825
       6.340000       5.406180       0.136256       2.488568
       6.350000       5.455695       0.137816       2.560712
       6.360000       5.504830       0.138254       2.635634
       6.370000       5.547822       0.137559       2.711846
       6.380000       5.578823       0.135856       2.787170
       6.390000       5.592833       0.133378       2.859079
       6.400000       5.586615       0.130417       2.925132
       6.410000       5.559324       0.127280       2.983342
       6.420000       5.512633       0.124241       3.032325
       6.430000       5.450328       0.121520       3.071210
       6.440000       5.377489       0.119281       3.099404
       6.450000       5.299549       0.117628       3.116393
       6.460000       5.221506       0.116621       3.121712
       6.470000       5.147458       0.116279       3.115069
       6.480000       5.080433       0.116594       3.096522
       6.490000       5.022418       0.117527       3.066578
       6.500000       4.974473       0.119006       3.026176
       6.510000       4.936964       0.120927       2.976605
       6.520000       4.909893       0.123144       2.919422
       6.530000       4.893313       0.125480       2.856439
       6.540000       4.887647       0.127736       2.789761
       6.550000       4.893795       0.129723       2.721791
       6.560000       4.912953       0.131291       2.655134
       6.570000       4.946214       0.132367       2.592378
       6.580000       4.994124       0.132968       2.535790
       6.590000       5.056342       0.133192       2.486988
       6.600000       5.131481       0.133192       2.446678
       6.610000       5.217114       0.133144       2.414538
       6.620000       5.309919       0.133209       2.389285
       6.630000       5.405982       0.133522       2.368938
       6.640000       5.501321       0.134177       2.351215
       6.650000       5.592596       0.135239       2.333981
       6.660000       5.677834       0.136750       2.315608
       6.670000       5.756842       0.138734       2.295162
       6.680000       5.831083       0.141202       2.272385
       6.690000       5.902973       0.144150       2.247529
       6.700000       5.974836       0.147551       2.221151
       6.710000       6.047871       0.151360       2.193952
       6.720000       6.121491       0.155517       2.166680
       6.730000       6.193279       0.159964       2.140063
       6.740000       6.259520       0.164663       2.114729
       6.750000       6.316124       0.169615       2.091089
       6.760000       6.359598       0.174859       2.069193
       6.770000       6.387791       0.180461       2.048630
       6.780000       6.400279       0.186487       2.028542
       6.790000       6.398375       0.192973       2.007801
       6.800000       6.384871       0.199910       1.985338
       6.810000       6.363601       0.207238       1.960502
       6.820000       6.338917       0.214869       1.933293
       6.830000       6.315097       0.222712       1.904393
       6.840000       6.295712       0.230712       1.874995
       6.850000       6.283002       0.238869       1.846524
       6.860000       6.277447       0.247234       1.820372
       6.870000       6.277697       0.255882       1.797689
       6.880000       6.280939       0.264871       1.779287
       6.890000       6.283589       0.274206       1.765631
       6.900000       6.282085       0.283823       1.756904
       6.910000       6.273530       0.293600       1.753095
       6.920000       6.256052       0.303392       1.754024
       6.930000       6.228876       0.313078       1.759293
       6.940000       6.192264       0.322605       1.768158
       6.950000       6.147457       0.332008       1.779433
       6.960000       6.096632       0.341400       1.791493
       6.970000       6.042770       0.350925       1.802422
       6.980000       5.989304       0.360693       1.810295
       6.990000       5.939529       0.370717       1.813477
       7.000000       5.895945       0.380866       1.810880
       7.010000       5.859765       0.390874       1.802083
       7.020000       5.830817       0.400378       1.787314
       7.030000       5.807864       0.409003       1.767310
       7.040000       5.789226       0.416455       1.743112
       7.050000       5.773423       0.422597       1.715852
       7.060000       5.759594       0.427492       1.686622
       7.070000       5.747546       0.431390       1.656455
       7.080000       5.737467       0.434671       1.626391
       7.090000       5.729480       0.437742       1.597545
       7.100000       5.723246       0.440939       1.571093
       7.110000       5.717722       0.444433       1.548157
       7.120000       5.711084       0.448177       1.529634
       7.130000       5.700806       0.451892       1.516053
       7.140000       5.683890       0.455121       1.507540
       7.150000       5.657253       0.457332       1.503882
       7.160000       5.618201       0.458074       1.504667
       7.170000       5.564863       0.457114       1.509430
       7.180000       5.496454       0.454523       1.517753
       7.190000       5.413307       0.450655       1.529298
       7.200000       5.316766       0.446060       1.543749
       7.210000       5.209017       0.441363       1.560700
       7.220000       5.092865       0.437168       1.579507
       7.230000       4.971409       0.434002       1.599184
       7.240000       4.847575       0.432300       1.618373
       7.250000       4.723607       0.432394       1.635420
       7.260000       4.600732       0.434493       1.648546
       7.270000       4.479154       0.438657       1.656075
       7.280000       4.358384       0.444762       1.656672
       7.290000       4.237739       0.452476       1.649560
       7.300000       4.116790       0.461258       1.634627
       7.310000       3.995634       0.470394       1.612429
       7.320000       3.874954       0.479070       1.584076
       7.330000       3.755902       0.486499       1.551086
       7.340000       3.639853       0.492045       1.515210
       7.350000       3.528116       0.495333       1.478268
       7.360000       3.421681       0.496301       1.441968
       7.370000       3.321047       0.495193       1.407739
       7.380000       3.226168       0.492503       1.376595
       7.390000       3.136534       0.488879       1.349106
       7.400000       3.051374       0.485005       1.325471
       7.410000       2.969965       0.481488       1.305680
       7.420000       2.891961       0.478756       1.289682
       7.430000       2.817657       0.477015       1.277500
       7.440000       2.748056       0.476257       1.269234
       7.450000       2.684741       0.476313       1.264984
       7.460000       2.629578       0.476958       1.264712
       7.470000       2.584355       0.478002       1.268133
       7.480000       2.550486       0.479360       1.274648
       7.490000       2.528806       0.481080       1.283365
       7.500000       2.519498       0.483322       1.293201
       7.510000       2.522111       0.486298       1.303045
       7.520000       2.535668       0.490207       1.311939
       7.530000       2.558839       0.495166       1.319232
       7.540000       2.590154       0.501157       1.324673
       7.550000       2.628231       0.508002       1.328420
       7.560000       2.671966       0.515346       1.330969
       7.570000       2.720609       0.522679       1.333025
       7.580000       2.773668       0.529375       1.335326
       7.590000       2.830653       0.534781       1.338477
       7.600000       2.890742       0.538322       1.342802
       7.610000       2.952487       0.539607       1.348271
       7.620000       3.013703       0.538507       1.354493
       7.630000       3.071539       0.535189       1.360813
       7.640000       3.122734       0.530103       1.366471
       7.650000       3.163975       0.523925       1.370790
       7.660000       3.192308       0.517458       1.373327
       7.670000       3.205612       0.511535       1.373924
       7.680000       3.203040       0.506920       1.372653
       7.690000       3.185314       0.504241       1.369700
       7.700000       3.154695       0.503952       1.365252
       7.710000       3.114559       0.506315       1.359442
       7.720000       3.068705       0.511408       1.352363
       7.730000       3.020643       0.519142       1.344120
       7.740000       2.973109       0.529289       1.334880
       7.750000       2.927933       0.541518       1.324880
       7.760000       2.886219       0.555441       1.314400
       7.770000       2.848642       0.570644       1.303743
       7.780000       2.815683       0.586716       1.293235
       7.790000       2.787658       0.603246       1.283252
       7.800000       2.764570       0.619818       1.274235
       7.810000       2.745935       0.635982       1.266664
       7.820000       2.730742       0.651248       1.260981
       7.830000       2.717615       0.665094       1.257491
       7.840000       2.705103       0.677026       1.256293
       7.850000       2.691925       0.686655       1.257276
       7.860000       2.677053       0.693784       1.260176
       7.870000       2.659640       0.698445       1.264667
       7.880000       2.638900       0.700869       1.270416
       7.890000       2.614091       0.701398       1.277084
       7.900000       2.584619       0.700361       1.284290
       7.910000       2.550231       0.697969       1.291560
       7.920000       2.511159       0.694250       1.298336
       7.930000       2.468145       0.689058       1.304030
       7.940000       2.422292       0.682149       1.308136
       7.950000       2.374812       0.673307       1.310315
       7.960000       2.326771       0.662475       1.310460
       7.970000       2.278930       0.649828       1.308712
       7.980000       2.231753       0.635770       1.305448
       7.990000       2.185527       0.620855       1.301265
       8.000000       2.140553       0.605676       1.296926
       8.010000       2.097307       0.590764       1.293280
       8.020000       2.056521       0.576527       1.291149
       8.030000       2.019173       0.563255       1.291214
       8.040000       1.986401       0.551170       1.293928
       8.050000       1.959362       0.540496       1.299457
       8.060000       1.939086       0.531494       1.307644
       8.070000       1.926331       0.524462       1.318001
       8.080000       1.921457       0.519694       1.329732
       8.090000       1.924332       0.517422       1.341795
       8.100000       1.934263       0.517768       1.353013
       8.110000       1.949985       0.520703       1.362204
       8.120000       1.969702       0.526040       1.368337
       8.130000       1.991232       0.533438       1.370673
       8.140000       2.012230       0.542427       1.368872
       8.150000       2.030449       0.552446       1.363043
       8.160000       2.043969       0.562901       1.353720
       8.170000       2.051322       0.573225       1.341788
       8.180000       2.051522       0.582954       1.328359
       8.190000       2.044037       0.591794       1.314649
       8.200000       2.028800       0.599643       1.301860
       8.210000       2.006284       0.606574       1.291063
       8.220000       1.977590       0.612772       1.283080
       8.230000       1.944421       0.618449       1.278368
       8.240000       1.908890       0.623798       1.276925
       8.250000       1.873156       0.628982       1.278267
       8.260000       1.839041       0.634157       1.281508
       8.270000       1.807760       0.639496       1.285562
       8.280000       1.779851       0.645182       1.289427
       8.290000       1.755298       0.651397       1.292454
       8.300000       1.733770       0.658302       1.294509
       8.310000       1.714871       0.666030       1.295959
       8.320000       1.698306       0.674684       1.297499
       8.330000       1.683929       0.684297       1.299910
       8.340000       1.671689       0.694777       1.303835
       8.350000       1.661523       0.705830       1.309628
       8.360000       1.653264       0.716928       1.317301
       8.370000       1.646596       0.727347       1.326551
       8.380000       1.641073       0.736288       1.336866
       8.390000       1.636223       0.743041       1.347667
       8.400000       1.631697       0.747159       1.358461
       8.410000       1.627437       0.748562       1.368959
       8.420000       1.623783       0.747568       1.379133
       8.430000       1.621447       0.744845       1.389199
       8.440000       1.621369       0.741298       1.399542
       8.450000       1.624473       0.737936       1.410603
       8.460000       1.631455       0.735729       1.422757
       8.470000       1.642659       0.735481       1.436220
       8.480000       1.658100       0.737728       1.450999
       8.490000       1.677584       0.742691       1.466891
       8.500000       1.700851       0.750250       1.483549
       8.510000       1.727644       0.759976       1.500563
       8.520000       1.757657       0.771188       1.517554
       8.530000       1.790402       0.783063       1.534248
       8.540000       1.825089       0.794777       1.550494
       8.550000       1.860624       0.805638       1.566243
       8.560000       1.895735       0.815169       1.581481
       8.570000       1.929168       0.823103       1.596165
       8.580000       1.959846       0.829307       1.610195
       8.590000       1.986923       0.833702       1.623447
       8.600000       2.009729       0.836211       1.635853
       8.610000       2.027691       0.836768       1.647473
       8.620000       2.040312       0.835377       1.658524
       8.630000       2.047254       0.832172       1.669349
       8.640000       2.048492       0.827445       1.680327
       8.650000       2.044452       0.821616       1.691764
       8.660000       2.036027       0.815140       1.703800
       8.670000       2.024420       0.808382       1.716369
       8.680000       2.010847       0.801500       1.729251
       8.690000       1.996224       0.794406       1.742200
       8.700000       1.980943       0.786812       1.755122
       8.710000       1.964839       0.778376       1.768215
       8.720000       1.947293       0.768877       1.781999
       8.730000       1.927432       0.758348       1.797234
       8.740000       1.904312       0.747133       1.814763
       8.750000       1.877098       0.735837       1.835355
       8.760000       1.845224       0.725237       1.859618
       8.770000       1.808555       0.716171       1.887972
       8.780000       1.767509       0.709430       1.920696
       8.790000       1.723047       0.705675       1.957973
       8.800000       1.676529       0.705380       1.999915
       8.810000       1.629457       0.708795       2.046544
       8.820000       1.583224       0.715949       2.097742
       8.830000       1.538939       0.726666       2.153220
       8.840000       1.497362       0.740603       2.212522
       8.850000       1.458917       0.757282       2.275061
       8.860000       1.423752       0.776100       2.340176
       8.870000       1.391814       0.796315       2.407174
       8.880000       1.362939       0.817013       2.475375
       8.890000       1.336927       0.837082       2.544158
       8.900000       1.313598       0.855265       2.613033
       8.910000       1.292830       0.870296       2.681691
       8.920000       1.274564       0.881123       2.750052
       8.930000       1.258784       0.887141       2.818268
       8.940000       1.245465       0.888354       2.886722
       8.950000       1.234523       0.885395       2.956000
       8.960000       1.225759       0.879413       3.026848
       8.970000       1.218845       0.871846       3.100109
       8.980000       1.213361       0.864159       3.176629
       8.990000       1.208867       0.857611       3.257139
       9.000000       1.205004       0.853090       3.342140
       9.010000       1.201569       0.851041       3.431811
       9.020000       1.198556       0.851491       3.526001
       9.030000       1.196138       0.854142       3.624318
       9.040000       1.194619       0.858521       3.726313
       9.050000       1.194371       0.864118       3.831693
       9.060000       1.195757       0.870486       3.940491
       9.070000       1.199060       0.877249       4.053148
       9.080000       1.204414       0.884028       4.170514
       9.090000       1.211782       0.890356       4.293795
       9.100000       1.220976       0.895634       4.424458
       9.110000       1.231735       0.899197       4.564118
       9.120000       1.243797       0.900483       4.714392
       9.130000       1.256945       0.899243       4.876775
       9.140000       1.271006       0.895679       5.052548
       9.150000       1.285801       0.890455       5.242760
       9.160000       1.301106       0.884553       5.448254
       9.170000       1.316638       0.879060       5.669700
       9.180000       1.332095       0.874951       5.907596
       9.190000       1.347232       0.872933       6.162198
       9.200000       1.361947       0.873376       6.433334
       9.210000       1.376345       0.876330       6.720121
       9.220000       1.390745       0.881591       7.020600
       9.230000       1.405637       0.888815       7.331337
       9.240000       1.421591       0.897643       7.647059
       9.250000       1.439166       0.907811       7.960395
       9.260000       1.458816       0.919249       8.261904
       9.270000       1.480806       0.932120       8.540567
       9.280000       1.505111       0.946808       8.784904
       9.290000       1.531324       0.963819       8.984558
       9.300000       1.558579       0.983619       9.131969
       9.310000       1.585524       1.006440       9.223534
       9.320000       1.610368       1.032108       9.259884
       9.330000       1.631037       1.059925       9.245234
       9.340000       1.645433       1.088661       9.186162
       9.350000       1.651771       1.116647       9.090341
       9.360000       1.648912       1.141982       8.965594
       9.370000       1.636593       1.162823       8.819355
       9.380000       1.615462       1.177703       8.658334
       9.390000       1.586900       1.185772       8.488181
       9.400000       1.552701       1.186910       8.313138
       9.410000       1.514737       1.181672       8.135879
       9.420000       1.474713       1.171121       7.957702
       9.430000       1.434065       1.156614       7.779091
       9.440000       1.393961       1.139622       7.600453
       9.450000       1.355363       1.121610       7.422732
       9.460000       1.319055       1.103949       7.247678
       9.470000       1.285644       1.087845       7.077687
       9.480000       1.255525       1.074279       6.915316
       9.490000       1.228864       1.063953       6.762674
       9.500000       1.205603       1.057251       6.620895
       9.510000       1.185503       1.054217       6.489804
       9.520000       1.168213       1.054551       6.367806
       9.530000       1.153321       1.057654       6.251968
       9.540000       1.140418       1.062748       6.138318
       9.550000       1.129148       1.069064       6.022385
       9.560000       1.119260       1.076056       5.899994
       9.570000       1.110642       1.083551       5.768164
       9.580000       1.103319       1.091745       5.625848
       9.590000       1.097411       1.101060       5.474212
       9.600000       1.093076       1.111898       5.316333
       9.610000       1.090476       1.124436       5.156415
       9.620000       1.089757       1.138509       4.998843
       9.630000       1.091055       1.153642       4.847377
       9.640000       1.094472       1.169180       4.704687
       9.650000       1.100035       1.184448       4.572221
       9.660000       1.107619       1.198871       4.450318
       9.670000       1.116904       1.212002       4.338391
       9.680000       1.127370       1.223476       4.235128
       9.690000       1.138383       1.232921       4.138681
       9.700000       1.149323       1.239915       4.046932
       9.710000       1.159734       1.244024       3.957841
       9.720000       1.169422       1.244921       3.869865
       9.730000       1.178467       1.242536       3.782320
       9.740000       1.187164       1.237162       3.695550
       9.750000       1.195916       1.229464       3.610814
       9.760000       1.205144       1.220391       3.529948
       9.770000       1.215221       1.211043       3.454918
       9.780000       1.226446       1.202533       3.387406
       9.790000       1.239038       1.195899       3.328544
       9.800000       1.253122       1.192041       3.278801
       9.810000       1.268722       1.191684       3.238042
       9.820000       1.285743       1.195350       3.205661
       9.830000       1.303967       1.203346       3.180749
       9.840000       1.323075       1.215761       3.162192
       9.850000       1.342678       1.232493       3.148672
       9.860000       1.362354       1.253267       3.138582
       9.870000       1.381651       1.277674       3.129922
       9.880000       1.400075       1.305179       3.120284
       9.890000       1.417050       1.335123       3.107015
       9.900000       1.431899       1.366699       3.087557
       9.910000       1.443844       1.398949       3.059905
       9.920000       1.452065       1.430793       3.023001
       9.930000       1.455772       1.461109       2.976931
       9.940000       1.454312       1.488844       2.922848
       9.950000       1.447268       1.513127       2.862712
       9.960000       1.434551       1.533338       2.798964
       9.970000       1.416463       1.549151       2.734238
       9.980000       1.393703       1.560518       2.671137
       9.990000       1.367294       1.567614       2.612045
      10.000000       1.338425       1.570746       2.558963
      10.010000       1.308263       1.570266       2.513375
      10.020000       1.277788       1.566540       2.476153
      10.030000       1.247724       1.559989       2.447513
      10.040000       1.218548       1.551185       2.427036
      10.050000       1.190576       1.540927       2.413741
      10.060000       1.164052       1.530240       2.406202
      10.070000       1.139215       1.520250       2.402678
      10.080000       1.116306       1.512009       2.401257
      10.090000       1.095551       1.506315       2.399985
      10.100000       1.077112       1.503601       2.397018
      10.110000       1.061056       1.503911       2.390789
      10.120000       1.047341       1.506962       2.380217
      10.130000       1.035816       1.512281       2.364895
      10.140000       1.026251       1.519376       2.345189
      10.150000       1.018377       1.527881       2.322177
      10.160000       1.011921       1.537629       2.297418
      10.170000       1.006648       1.548657       2.272617
      10.180000       1.002389       1.561168       2.249284
      10.190000       0.999070       1.575501       2.228477
      10.200000       0.996730       1.592121       2.210675
      10.210000       0.995533       1.611583       2.195815
      10.220000       0.995734       1.634445       2.183453
      10.230000       0.997625       1.661145       2.173016
      10.240000       1.001465       1.691885       2.164046
      10.250000       1.007433       1.726626       2.156359
      10.260000       1.015605       1.765172       2.150073
      10.270000       1.025958       1.807307       2.145499
      10.280000       1.038383       1.852892       2.142968
      10.290000       1.052705       1.901840       2.142653
      10.300000       1.068706       1.953979       2.144439
      10.310000       1.086142       2.008859       2.147868
      10.320000       1.104749       2.065558       2.152132
      10.330000       1.124241       2.122592       2.156128
      10.340000       1.144306       2.177985       2.158566
      10.350000       1.164616       2.229520       2.158165
      10.360000       1.184867       2.275129       2.153889
      10.370000       1.204815       2.313275       2.145187
      10.380000       1.224307       2.343212       2.132133
      10.390000       1.243276       2.365062       2.115422
      10.400000       1.261724       2.379748       2.096218
      10.410000       1.279702       2.388804       2.075941
      10.420000       1.297270       2.394097       2.056050
      10.430000       1.314449       2.397467       2.037883
      10.440000       1.331149       2.400334       2.022550
      10.450000       1.347122       2.403361       2.010887
      10.460000       1.361948       2.406294       2.003425
      10.470000       1.375085       2.408045       2.000386
      10.480000       1.385961       2.407021       2.001676
      10.490000       1.394097       2.401632       2.006901
      10.500000       1.399205       2.390788       2.015382
      10.510000       1.401234       2.374198       2.026173
      10.520000       1.400321       2.352366       2.038079
      10.530000       1.396689       2.326304       2.049677
      10.540000       1.390519       2.297131       2.059368
      10.550000       1.381879       2.265756       2.065491
      10.560000       1.370729       2.232754       2.066486
      10.570000       1.357006       2.198447       2.061096
      10.580000       1.340744       2.163096       2.048557
      10.590000       1.322170       2.127059       2.028749
      10.600000       1.301734       2.090837       2.002264
      10.610000       1.280084       2.055021       1.970351
      10.620000       1.257994       2.020191       1.934753
      10.630000       1.236290       1.986864       1.897433
      10.640000       1.215774       1.955478       1.860290
      10.650000       1.197161       1.926402       1.824933
      10.660000       1.181024       1.899957       1.792562
      10.670000       1.167781       1.876459       1.763954
      10.680000       1.157695       1.856290       1.739519
      10.690000       1.150886       1.839958       1.719363
      10.700000       1.147330       1.828081       1.703337
      10.710000       1.146832       1.821280       1.691067
      10.720000       1.149006       1.820010       1.681990
      10.730000       1.153289       1.824423       1.675398
      10.740000       1.158988       1.834296       1.670532
      10.750000       1.165338       1.849025       1.666701
      10.760000       1.171558       1.867615       1.663412
      10.770000       1.176863       1.888648       1.660462
      10.780000       1.180464       1.910256       1.657957
      10.790000       1.181570       1.930193       1.656210
      10.800000       1.179414       1.946062       1.655556
      10.810000       1.173329       1.955712       1.656140
      10.820000       1.162844       1.957658       1.657748
      10.830000       1.147779       1.951408       1.659746
      10.840000       1.128312       1.937546       1.661158
      10.850000       1.104993       1.917562       1.660850
      10.860000       1.078698       1.893502       1.657783
      10.870000       1.050539       1.867585       1.651245
      10.880000       1.021739       1.841882       1.640987
      10.890000       0.993502       1.818147       1.627243
      10.900000       0.966897       1.797766       1.610640
      10.910000       0.942783       1.781773       1.592049
      10.920000       0.921762       1.770862       1.572439
      10.930000       0.904179       1.765359       1.552741
      10.940000       0.890135       1.765147       1.533729
      10.950000       0.879523       1.769604       1.515925
      10.960000       0.872055       1.777601       1.499545
      10.970000       0.867297       1.787589       1.484531
      10.980000       0.864681       1.797744       1.470675
      10.990000       0.863527       1.806145       1.457796
      11.000000       0.863086       1.810961       1.445905
      11.010000       0.862622       1.810669       1.435275
      11.020000       0.861522       1.804290       1.426386
      11.030000       0.859402       1.791608       1.419775
      11.040000       0.856163       1.773256       1.415861
      11.050000       0.851975       1.750638       1.414797
      11.060000       0.847211       1.725666       1.416411
      11.070000       0.842345       1.700423       1.420240
      11.080000       0.837867       1.676810       1.425633
      11.090000       0.834210       1.656292       1.431922
      11.100000       0.831690       1.639779       1.438587
      11.110000       0.830465       1.627654       1.445387
      11.120000       0.830506       1.619926       1.452399
      11.130000       0.831599       1.616464       1.459949
      11.140000       0.833364       1.617203       1.468483
      11.150000       0.835316       1.622258       1.478402
      11.160000       0.836954       1.631888       1.489935
      11.170000       0.837854       1.646344       1.503054
      11.180000       0.837746       1.665672       1.517440
      11.190000       0.836535       1.689554       1.532481
      11.200000       0.834254       1.717227       1.547298
      11.210000       0.830957       1.747462       1.560791
      11.220000       0.826617       1.778611       1.571744
      11.230000       0.821077       1.808703       1.578970
      11.240000       0.814081       1.835609       1.581509
      11.250000       0.805386       1.857268       1.578819
      11.260000       0.794882       1.871932       1.570896
      11.270000       0.782678       1.878350       1.558250
      11.280000       0.769116       1.875845       1.541735
      11.290000       0.754708       1.864316       1.522290
      11.300000       0.740039       1.844205       1.500691
      11.310000       0.725663       1.816485       1.477424
      11.320000       0.712030       1.782630       1.452703
      11.330000       0.699451       1.744519       1.426627
      11.340000       0.688090       1.704236       1.399375
      11.350000       0.677981       1.663819       1.371351
      11.360000       0.669060       1.625043       1.343201
      11.370000       0.661212       1.589290       1.315713
      11.380000       0.654327       1.557554       1.289626
      11.390000       0.648341       1.530514       1.265460
      11.400000       0.643260       1.508630       1.243414
      11.410000       0.639152       1.492198       1.223370
      11.420000       0.636110       1.481355       1.204976
      11.430000       0.634219       1.476057       1.187781
      11.440000       0.633524       1.476028       1.171348
      11.450000       0.634020       1.480730       1.155304
      11.460000       0.635643       1.489375       1.139342
      11.470000       0.638284       1.500996       1.123190
      11.480000       0.641797       1.514555       1.106597
      11.490000       0.646016       1.529080       1.089370
      11.500000       0.650760       1.543767       1.071444
      11.510000       0.655835       1.558025       1.052944
      11.520000       0.661027       1.571442       1.034216
      11.530000       0.666098       1.583678       1.015797
      11.540000       0.670806       1.594352       0.998326
      11.550000       0.674943       1.602978       0.982452
      11.560000       0.678395       1.608999       0.968730
      11.570000       0.681199       1.611915       0.957568
      11.580000       0.683559       1.611470       0.949190
      11.590000       0.685814       1.607818       0.943635
      11.600000       0.688370       1.601596       0.940772
      11.610000       0.691620       1.593873       0.940319
      11.620000       0.695875       1.585936       0.941889
      11.630000       0.701308       1.578997       0.945038
      11.640000       0.707930       1.573891       0.949335
      11.650000       0.715579       1.570881       0.954425
      11.660000       0.723926       1.569644       0.960075
      11.670000       0.732510       1.569426       0.966168
      11.680000       0.740789       1.569315       0.972658
      11.690000       0.748206       1.568522       0.979488
      11.700000       0.754250       1.566554       0.986533
      11.710000       0.758511       1.563254       0.993577
      11.720000       0.760725       1.558712       1.000358
      11.730000       0.760797       1.553144       1.006657
      11.740000       0.758801       1.546783       1.012405
      11.750000       0.754970       1.539823       1.017759
      11.760000       0.749642       1.532417       1.023116
      11.770000       0.743214       1.524687       1.029043
      11.780000       0.736077       1.516764       1.036154
      11.790000       0.728574       1.508843       1.044944
      11.800000       0.720974       1.501248       1.055655
      11.810000       0.713455       1.494481       1.068182
      11.820000       0.706100       1.489206       1.082035
      11.830000       0.698892       1.486163       1.096382
      11.840000       0.691714       1.486042       1.110149
      11.850000       0.684384       1.489369       1.122164
      11.860000       0.676694       1.496465       1.131322
      11.870000       0.668478       1.507456       1.136719
      11.880000       0.659674       1.522294       1.137733
      11.890000       0.650353       1.540752       1.134046
      11.900000       0.640730       1.562366       1.125618
      11.910000       0.631115       1.586349       1.112655
      11.920000       0.621849       1.611528       1.095580
      11.930000       0.613225       1.636367       1.075007
      11.940000       0.605432       1.659092       1.051699
      11.950000       0.598529       1.677916       1.026498
      11.960000       0.592451       1.691331       1.000231
      11.970000       0.587042       1.698355       0.973633
      11.980000       0.582090       1.698682       0.947321
      11.990000       0.577371       1.692671       0.921798
      12.000000       0.572683       1.681220       0.897492
      12.010000       0.567883       1.665570       0.874780
      12.020000       0.562898       1.647115       0.854003
      12.030000       0.557740       1.627250       0.835452
      12.040000       0.552492       1.607276       0.819352
      12.050000       0.547292       1.588335       0.805839
      12.060000       0.542306       1.571352       0.794951
      12.070000       0.537700       1.556956       0.786622
      12.080000       0.533616       1.545423       0.780685
      12.090000       0.530160       1.536686       0.776868
      12.100000       0.527396       1.530417       0.774792
      12.110000       0.525343       1.526160       0.773973
      12.120000       0.523970       1.523417       0.773838
      12.130000       0.523189       1.521636       0.773782
      12.140000       0.522844       1.520112       0.773246
      12.150000       0.522725       1.517884       0.771797
      12.160000       0.522579       1.513726       0.769174
      12.170000       0.522148       1.506314       0.765274
      12.180000       0.521211       1.494508       0.760087
      12.190000       0.519626       1.477680       0.753604
      12.200000       0.517370       1.455925       0.745751
      12.210000       0.514550       1.430070       0.736371
      12.220000       0.511387       1.401478       0.725270
      12.230000       0.508175       1.371736       0.712309
      12.240000       0.505231       1.342354       0.697490
      12.250000       0.502856       1.314565       0.681018
      12.260000       0.501309       1.289263       0.663293
      12.270000       0.500790       1.267033       0.644857
      12.280000       0.501428       1.248244       0.626303
      12.290000       0.503263       1.233126       0.608200
      12.300000       0.506243       1.221833       0.591029
      12.310000       0.510224       1.214448       0.575156
      12.320000       0.514986       1.210962       0.560826
      12.330000       0.520253       1.211216       0.548181
      12.340000       0.525718       1.214866       0.537291
      12.350000       0.531067       1.221369       0.528172
      12.360000       0.535990       1.230038       0.520812
      12.370000       0.540189       1.240118       0.515184
      12.380000       0.543384       1.250852       0.511250
      12.390000       0.545307       1.261528       0.508966
      12.400000       0.545716       1.271520       0.508282
      12.410000       0.544421       1.280353       0.509140
      12.420000       0.541326       1.287792       0.511474
      12.430000       0.536470       1.293898       0.515214
      12.440000       0.530043       1.298970       0.520286
      12.450000       0.522361       1.303380       0.526615
      12.460000       0.513819       1.307343       0.534122
      12.470000       0.504817       1.310767       0.542727
      12.480000       0.495702       1.313249       0.552344
      12.490000       0.486729       1.314243       0.562888
      12.500000       0.478060       1.313338       0.574282
      12.510000       0.469787       1.310519       0.586485
      12.520000       0.461977       1.306301       0.599517
      12.530000       0.454707       1.301698       0.613488
      12.540000       0.448089       1.298033       0.628600
      12.550000       0.442270       1.296665       0.645136
      12.560000       0.437413       1.298709       0.663417
      12.570000       0.433663       1.304809       0.683749
      12.580000       0.431120       1.315017       0.706347
      12.590000       0.429817       1.328803       0.731262
      12.600000       0.429713       1.345201       0.758291
      12.610000       0.430698       1.363056       0.786897
      12.620000       0.432609       1.381304       0.816146
      12.630000       0.435236       1.399169       0.844713
      12.640000       0.438340       1.416218       0.870980
      12.650000       0.441668       1.432266       0.893263
      12.660000       0.444975       1.447180       0.910139
      12.670000       0.448058       1.460705       0.920785
      12.680000       0.450769       1.472393       0.925210
      12.690000       0.453025       1.481643       0.924290
      12.700000       0.454792       1.487846       0.919583
      12.710000       0.456063       1.490534       0.913011
      12.720000       0.456838       1.489480       0.906528
      12.730000       0.457116       1.484731       0.901843
      12.740000       0.456906       1.476578       0.900265
      12.750000       0.456242       1.465481       0.902628
      12.760000       0.455194       1.451985       0.909276
      12.770000       0.453861       1.436632       0.920072
      12.780000       0.452346       1.419881       0.934398
      12.790000       0.450736       1.402056       0.951173
      12.800000       0.449078       1.383333       0.968900
      12.810000       0.447377       1.363757       0.985786
      12.820000       0.445606       1.343303       0.999955
      12.830000       0.443723       1.321942       1.009726
      12.840000       0.441676       1.299695       1.013876
      12.850000       0.439410       1.276671       1.011788
      12.860000       0.436859       1.253076       1.003448
      12.870000       0.433954       1.229226       0.989308
      12.880000       0.430624       1.205543       0.970112
      12.890000       0.426806       1.182553       0.946746
      12.900000       0.422439       1.160824       0.920151
      12.910000       0.417454       1.140857       0.891266
      12.920000       0.411771       1.122955       0.860992
      12.930000       0.405297       1.107122       0.830166
      12.940000       0.397960       1.093060       0.799543
      12.950000       0.389738       1.080273       0.769773
      12.960000       0.380697       1.068237       0.741406
      12.970000       0.371003       1.056568       0.714883
      12.980000       0.360905       1.045112       0.690539
      12.990000       0.350698       1.033924       0.668604
      13.000000       0.340668       1.023188       0.649215
      13.010000       0.331060       1.013115       0.632424
      13.020000       0.322056       1.003883       0.618211
      13.030000       0.313783       0.995652       0.606491
      13.040000       0.306328       0.988602       0.597133
      13.050000       0.299763       0.982983       0.589975
      13.060000       0.294150       0.979116       0.584844
      13.070000       0.289542       0.977332       0.581585
      13.080000       0.285973       0.977881       0.580086
      13.090000       0.283448       0.980833       0.580309
      13.100000       0.281934       0.986017       0.582306
      13.110000       0.281360       0.993012       0.586212
      13.120000       0.281613       1.001198       0.592234
      13.130000       0.282553       1.009838       0.600614
      13.140000       0.284012       1.018187       0.611593
      13.150000       0.285817       1.025588       0.625366
      13.160000       0.287795       1.031536       0.642039
      13.170000       0.289783       1.035686       0.661567
      13.180000       0.291627       1.037821       0.683688
      13.190000       0.293176       1.037811       0.707844
      13.200000       0.294286       1.035602       0.733128
      13.210000       0.294820       1.031232       0.758277
      13.220000       0.294668       1.024855       0.781755
      13.230000       0.293755       1.016741       0.801945
      13.240000       0.292055       1.007260       0.817419
      13.250000       0.289593       0.996843       0.827223
      13.260000       0.286436       0.985954       0.831062
      13.270000       0.282681       0.975053       0.829325
      13.280000       0.278431       0.964559       0.822944
      13.290000       0.273778       0.954807       0.813175
      13.300000       0.268804       0.946024       0.801368
      13.310000       0.263576       0.938325       0.788799
      13.320000       0.258164       0.931767       0.776572
      13.330000       0.252646       0.926426       0.765577
      13.340000       0.247120       0.922484       0.756477
      13.350000       0.241702       0.920265       0.749705
      13.360000       0.236531       0.920227       0.745467
      13.370000       0.231754       0.922882       0.743753
      13.380000       0.227519       0.928708       0.744374
      13.390000       0.223960       0.938036       0.747009
      13.400000       0.221184       0.950950       0.751271
      13.410000       0.219262       0.967208       0.756778
      13.420000       0.218222       0.986193       0.763203
      13.430000       0.218044       1.006934       0.770304
      13.440000       0.218666       1.028222       0.777940
      13.450000       0.219991       1.048807       0.786058
      13.460000       0.221888       1.067665       0.794672
      13.470000       0.224209       1.084213       0.803839
      13.480000       0.226795       1.098407       0.813633
      13.490000       0.229488       1.110649       0.824113
      13.500000       0.232138       1.121521       0.835317
      13.510000       0.234605       1.131463       0.847255
      13.520000       0.236767       1.140507       0.859920
      13.530000       0.238513       1.148172       0.873312
      13.540000       0.239754       1.153543       0.887450
      13.550000       0.240421       1.155482       0.902377
      13.560000       0.240471       1.152899       0.918152
      13.570000       0.239896       1.144995       0.934834
      13.580000       0.238726       1.131425       0.952451
      13.590000       0.237035       1.112365       0.970974
      13.600000       0.234941       1.088476       0.990301
      13.610000       0.232593       1.060802       1.010252
      13.620000       0.230154       1.030605       1.030596
      13.630000       0.227781       0.999194       1.051096
      13.640000       0.225614       0.967781       1.071561
      13.650000       0.223765       0.937392       1.091878
      13.660000       0.222324       0.908824       1.112001
      13.670000       0.221361       0.882652       1.131886
      13.680000       0.220932       0.859249       1.151414
      13.690000       0.221067       0.838813       1.170301
      13.700000       0.221765       0.821390       1.188037
      13.710000       0.222979       0.806890       1.203875
      13.720000       0.224604       0.795087       1.216856
      13.730000       0.226486       0.785634       1.225913
      13.740000       0.228441       0.778101       1.230032
      13.750000       0.230275       0.772042       1.228451
      13.760000       0.231828       0.767091       1.220836
      13.770000       0.232993       0.763040       1.207354
      13.780000       0.233737       0.759871       1.188625
      13.790000       0.234104       0.757732       1.165571
      13.800000       0.234205       0.756867       1.139254
      13.810000       0.234203       0.757536       1.110736
      13.820000       0.234280       0.759939       1.081005
      13.830000       0.234618       0.764154       1.050935
      13.840000       0.235372       0.770086       1.021268
      13.850000       0.236647       0.777426       0.992600
      13.860000       0.238488       0.785658       0.965369
      13.870000       0.240877       0.794106       0.939858
      13.880000       0.243744       0.802045       0.916210
      13.890000       0.246982       0.808859       0.894465
      13.900000       0.250470       0.814181       0.874587
      13.910000       0.254086       0.817988       0.856491
      13.920000       0.257706       0.820587       0.840052
      13.930000       0.261204       0.822512       0.825113
      13.940000       0.264438       0.824372       0.811492
      13.950000       0.267242       0.826704       0.799008
      13.960000       0.269420       0.829895       0.787513
      13.970000       0.270758       0.834144       0.776913
      13.980000       0.271047       0.839469       0.767170
      13.990000       0.270125       0.845724       0.758283
      14.000000       0.267913       0.852637       0.750247
      14.010000       0.264454       0.859868       0.743014
      14.020000       0.259912       0.867087       0.736476
      14.030000       0.254558       0.874066       0.730461
      14.040000       0.248725       0.880752       0.724754
      14.050000       0.242747       0.887311       0.719132
      14.060000       0.236909       0.894121       0.713396
      14.070000       0.231417       0.901703       0.707393
      14.080000       0.226382       0.910625       0.701032
      14.090000       0.221828       0.921378       0.694290
      14.100000       0.217724       0.934276       0.687212
      14.110000       0.214015       0.949413       0.679909
      14.120000       0.210656       0.966680       0.672544
      14.130000       0.207635       0.985848       0.665321
      14.140000       0.204976       1.006658       0.658470
      14.150000       0.202720       1.028878       0.652233
      14.160000       0.200902       1.052295       0.646842
      14.170000       0.199515       1.076665       0.642499
      14.180000       0.198499       1.101637       0.639355
      14.190000       0.197741       1.126706       0.637494
      14.200000       0.197090       1.151225       0.636932
      14.210000       0.196389       1.174474       0.637621
      14.220000       0.195506       1.195782       0.639450
      14.230000       0.194359       1.214651       0.642248
      14.240000       0.192932       1.230847       0.645775
      14.250000       0.191267       1.244410       0.649708
      14.260000       0.189448       1.255576       0.653632
      14.270000       0.187581       1.264631       0.657047
      14.280000       0.185767       1.271748       0.659384
      14.290000       0.184083       1.276883       0.660058
      14.300000       0.182573       1.279776       0.658535
      14.310000       0.181249       1.280059       0.654418
      14.320000       0.180089       1.277422       0.647526
      14.330000       0.179050       1.271761       0.637952
      14.340000       0.178073       1.263247       0.626058
      14.350000       0.177094       1.252316       0.612432
      14.360000       0.176054       1.239591       0.597787
      14.370000       0.174914       1.225795       0.582852
      14.380000       0.173664       1.211668       0.568269
      14.390000       0.172328       1.197892       0.554523
      14.400000       0.170972       1.185030       0.541910
      14.410000       0.169684       1.173476       0.530535
      14.420000       0.168564       1.163433       0.520343
      14.430000       0.167697       1.154926       0.511151
      14.440000       0.167142       1.147852       0.502696
      14.450000       0.166920       1.142064       0.494682
      14.460000       0.167024       1.137449       0.486822
      14.470000       0.167417       1.133975       0.478891
      14.480000       0.168054       1.131696       0.470756
      14.490000       0.168882       1.130715       0.462390
      14.500000       0.169849       1.131135       0.453873
      14.510000       0.170916       1.132999       0.445361
      14.520000       0.172056       1.136249       0.437061
      14.530000       0.173260       1.140689       0.429191
      14.540000       0.174531       1.145962       0.421954
      14.550000       0.175871       1.151548       0.415513
      14.560000       0.177274       1.156769       0.409986
      14.570000       0.178715       1.160832       0.405441
      14.580000       0.180154       1.162914       0.401916
      14.590000       0.181536       1.162276       0.399433
      14.600000       0.182804       1.158368       0.398007
      14.610000       0.183906       1.150890       0.397654
      14.620000       0.184791       1.139798       0.398379
      14.630000       0.185414       1.125261       0.400171
      14.640000       0.185730       1.107620       0.402981
      14.650000       0.185700       1.087356       0.406718
      14.660000       0.185294       1.065066       0.411243
      14.670000       0.184509       1.041444       0.416371
      14.680000       0.183377       1.017243       0.421889
      14.690000       0.181971       0.993239       0.427580
      14.700000       0.180405       0.970175       0.433241
      14.710000       0.178822       0.948703       0.438714
      14.720000       0.177373       0.929313       0.443897
      14.730000       0.176191       0.912292       0.448755
      14.740000       0.175380       0.897726       0.453317
      14.750000       0.175007       0.885558       0.457674
      14.760000       0.175101       0.875664       0.461960
      14.770000       0.175668       0.867919       0.466347
      14.780000       0.176693       0.862229       0.471028
      14.790000       0.178140       0.858522       0.476204
      14.800000       0.179952       0.856728       0.482064
      14.810000       0.182048       0.856749       0.488769
      14.820000       0.184327       0.858441       0.496422
      14.830000       0.186677       0.861607       0.505043
      14.840000       0.188991       0.865995       0.514546
      14.850000       0.191183       0.871303       0.524722
      14.860000       0.193186       0.877179       0.535241
      14.870000       0.194956       0.883224       0.545673
      14.880000       0.196464       0.889021       0.555522
      14.890000       0.197691       0.894174       0.564288
      14.900000       0.198623       0.898392       0.571513
      14.910000       0.199250       0.901548       0.576843
      14.920000       0.199559       0.903725       0.580062
      14.930000       0.199535       0.905199       0.581125
      14.940000       0.199153       0.906398       0.580146
      14.950000       0.198389       0.907817       0.577364
      14.960000       0.197225       0.909949       0.573081
      14.970000       0.195665       0.913197       0.567600
      14.980000       0.193743       0.917812       0.561179
      14.990000       0.191530       0.923850       0.554013
      15.000000       0.189125       0.931148       0.546245
      15.010000       0.186635       0.939341       0.537975
      15.020000       0.184155       0.947915       0.529275
      15.030000       0.181759       0.956277       0.520199
      15.040000       0.179485       0.963858       0.510785
      15.050000       0.177348       0.970209       0.501065
      15.060000       0.175339       0.975085       0.491070
      15.070000       0.173434       0.978455       0.480844
      15.080000       0.171595       0.980444       0.470448
      15.090000       0.169770       0.981204       0.459962
      15.100000       0.167896       0.980773       0.449473
      15.110000       0.165903       0.978979       0.439065
      15.120000       0.163728       0.975444       0.428815
      15.130000       0.161330       0.969677       0.418786
      15.140000       0.158704       0.961232       0.409026
      15.150000       0.155880       0.949854       0.399580
      15.160000       0.152922       0.935566       0.390481
      15.170000       0.149909       0.918685       0.381768
      15.180000       0.146924       0.899760       0.373481
      15.190000       0.144042       0.879475       0.365674
      15.200000       0.141327       0.858530       0.358402
      15.210000       0.138831       0.837555       0.351716
      15.220000       0.136603       0.817055       0.345646
      15.230000       0.134685       0.797410       0.340191
      15.240000       0.133118       0.778896       0.335316
      15.250000       0.131935       0.761727       0.330958
      15.260000       0.131153       0.746084       0.327040
      15.270000       0.130773       0.732138       0.323485
      15.280000       0.130776       0.720065       0.320237
      15.290000       0.131125       0.710046       0.317262
      15.300000       0.131768       0.702256       0.314566
      15.310000       0.132646       0.696825       0.312193
      15.320000       0.133695       0.693805       0.310226
      15.330000       0.134857       0.693138       0.308790
      15.340000       0.136086       0.694659       0.308035
      15.350000       0.137348       0.698105       0.308126
      15.360000       0.138620       0.703133       0.309217
      15.370000       0.139880       0.709333       0.311438
      15.380000       0.141101       0.716236       0.314876
      15.390000       0.142239       0.723324       0.319569
      15.400000       0.143238       0.730055       0.325499
      15.410000       0.144040       0.735899       0.332589
      15.420000       0.144594       0.740400       0.340699
      15.430000       0.144874       0.743234       0.349629
      15.440000       0.144882       0.744245       0.359117
      15.450000       0.144650       0.743451       0.368849
      15.460000       0.144229       0.741004       0.378473
      15.470000       0.143679       0.737148       0.387612
      15.480000       0.143058       0.732159       0.395883
      15.490000       0.142412       0.726315       0.402910
      15.500000       0.141776       0.719869       0.408339
      15.510000       0.141170       0.713051       0.411861
      15.520000       0.140611       0.706065       0.413247
      15.530000       0.140108       0.699100       0.412387
      15.540000       0.139669       0.692321       0.409320
      15.550000       0.139299       0.685868       0.404238
      15.560000       0.139003       0.679840       0.397459
      15.570000       0.138787       0.674302       0.389374
      15.580000       0.138656       0.669303       0.380383
      15.590000       0.138618       0.664904       0.370841
      15.600000       0.138677       0.661201       0.361028
      15.610000       0.138831       0.658323       0.351143
      15.620000       0.139070       0.656410       0.341312
      15.630000       0.139375       0.655579       0.331610
      15.640000       0.139724       0.655889       0.322081
      15.650000       0.140093       0.657329       0.312759
      15.660000       0.140465       0.659809       0.303683
      15.670000       0.140826       0.663179       0.294897
      15.680000       0.141161       0.667244       0.286454
      15.690000       0.141453       0.671796       0.278409
      15.700000       0.141679       0.676632       0.270814
      15.710000       0.141813       0.681571       0.263706
      15.720000       0.141828       0.686463       0.257112
      15.730000       0.141704       0.691185       0.251042
      15.740000       0.141426       0.695645       0.245494
      15.750000       0.140987       0.699774       0.240460
      15.760000       0.140380       0.703533       0.235932
      15.770000       0.139599       0.706910       0.231905
      15.780000       0.138631       0.709915       0.228382
      15.790000       0.137463       0.712575       0.225365
      15.800000       0.136085       0.714918       0.222853
      15.810000       0.134495       0.716964       0.220838
      15.820000       0.132706       0.718724       0.219306
      15.830000       0.130746       0.720203       0.218234
      15.840000       0.128653       0.721414       0.217597
      15.850000       0.126476       0.722380       0.217377
      15.860000       0.124268       0.723131       0.217556
      15.870000       0.122086       0.723684       0.218124
      15.880000       0.119986       0.724038       0.219071
      15.890000       0.118021       0.724170       0.220389
      15.900000       0.116241       0.724039       0.222068
      15.910000       0.114681       0.723579       0.224098
      15.920000       0.113363       0.722673       0.226469
      15.930000       0.112292       0.721123       0.229173
      15.940000       0.111460       0.718653       0.232205
      15.950000       0.110850       0.714969       0.235566
      15.960000       0.110445       0.709851       0.239263
      15.970000       0.110235       0.703271       0.243300
      15.980000       0.110221       0.695446       0.247665
      15.990000       0.110418       0.686829       0.252320
      16.000000       0.110840       0.678017       0.257193
      16.010000       0.111498       0.669630       0.262183
      16.020000       0.112389       0.662188       0.267164
      16.030000       0.113493       0.656038       0.272001
      16.040000       0.114777       0.651321       0.276547
      16.050000       0.116198       0.647991       0.280649
      16.060000       0.117710       0.645849       0.284141
      16.070000       0.119271       0.644604       0.286846
      16.080000       0.120841       0.643915       0.288575
      16.090000       0.122389       0.643434       0.289145
      16.100000       0.123889       0.642825       0.288408
      16.110000       0.125329       0.641784       0.286274
      16.120000       0.126703       0.640056       0.282747
      16.130000       0.128021       0.637441       0.277937
      16.140000       0.129298       0.633805       0.272063
      16.150000       0.130542       0.629081       0.265421
      16.160000       0.131745       0.623260       0.258346
      16.170000       0.132869       0.616386       0.251162
      16.180000       0.133845       0.608553       0.244145
      16.190000       0.134580       0.599900       0.237502
      16.200000       0.134979       0.590625       0.231366
      16.210000       0.134970       0.580984       0.225808
      16.220000       0.134529       0.571293       0.220843
      16.230000       0.133688       0.561905       0.216445
      16.240000       0.132522       0.553167       0.212559
      16.250000       0.131132       0.545377       0.209111
      16.260000       0.129614       0.538747       0.206023
      16.270000       0.128040       0.533396       0.203222
      16.280000       0.126455       0.529362       0.200655
      16.290000       0.124882       0.526632       0.198294
      16.300000       0.123331       0.525155       0.196136
      16.310000       0.121814       0.524858       0.194204
      16.320000       0.120349       0.525636       0.192538
      16.330000       0.118957       0.527348       0.191190
      16.340000       0.117661       0.529807       0.190216
      16.350000       0.116478       0.532789       0.189675
      16.360000       0.115412       0.536040       0.189615
      16.370000       0.114458       0.539306       0.190077
      16.380000       0.113600       0.542355       0.191087
      16.390000       0.112819       0.544993       0.192650
      16.400000       0.112095       0.547074       0.194749
      16.410000       0.111410       0.548487       0.197347
      16.420000       0.110752       0.549143       0.200392
      16.430000       0.110107       0.548970       0.203825
      16.440000       0.109469       0.547903       0.207593
      16.450000       0.108827       0.545909       0.211651
      16.460000       0.108178       0.543015       0.215958
      16.470000       0.107523       0.539335       0.220468
      16.480000       0.106870       0.535080       0.225123
      16.490000       0.106233       0.530538       0.229839
      16.500000       0.105629       0.526025       0.234514
      16.510000       0.105066       0.521825       0.239023
      16.520000       0.104541       0.518127       0.243224
      16.530000       0.104035       0.514995       0.246957
      16.540000       0.103519       0.512365       0.250048
      16.550000       0.102958       0.510079       0.252313
      16.560000       0.102320       0.507941       0.253570
      16.570000       0.101590       0.505776       0.253660
      16.580000       0.100775       0.503490       0.252480
      16.590000       0.099908       0.501091       0.250002
      16.600000       0.099044       0.498691       0.246303
      16.610000       0.098249       0.496468       0.241563
      16.620000       0.097587       0.494613       0.236049
      16.630000       0.097110       0.493266       0.230070
      16.640000       0.096847       0.492477       0.223936
      16.650000       0.096806       0.492180       0.217917
      16.660000       0.096974       0.492194       0.212220
      16.670000       0.097318       0.492249       0.206988
      16.680000       0.097801       0.492002       0.202296
      16.690000       0.098377       0.491075       0.198170
      16.700000       0.099004       0.489089       0.194589
      16.710000       0.099647       0.485717       0.191497
      16.720000       0.100276       0.480740       0.188809
      16.730000       0.100873       0.474111       0.186421
      16.740000       0.101426       0.465987       0.184216
      16.750000       0.101935       0.456720       0.182074
      16.760000       0.102410       0.446803       0.179883
      16.770000       0.102870       0.436791       0.177548
      16.780000       0.103347       0.427227       0.175008
      16.790000       0.103875       0.418588       0.172236
      16.800000       0.104486       0.411263       0.169249
      16.810000       0.105203       0.405534       0.166096
      16.820000       0.106031       0.401586       0.162847
      16.830000       0.106956       0.399497       0.159582
      16.840000       0.107942       0.399242       0.156371
      16.850000       0.108939       0.400676       0.153270
      16.860000       0.109884       0.403530       0.150318
      16.870000       0.110716       0.407425       0.147532
      16.880000       0.111383       0.411906       0.144910
      16.890000       0.111851       0.416508       0.142428
      16.900000       0.112106       0.420828       0.140051
      16.910000       0.112149       0.424592       0.137736
      16.920000       0.111988       0.427689       0.135444
      16.930000       0.111634       0.430160       0.133150
      16.940000       0.111100       0.432169       0.130847
      16.950000       0.110399       0.433942       0.128544
      16.960000       0.109550       0.435705       0.126263
      16.970000       0.108580       0.437621       0.124033
      16.980000       0.107520       0.439744       0.121886
      16.990000       0.106401       0.441996       0.119851
      17.000000       0.105245       0.444172       0.117954
      17.010000       0.104072       0.445982       0.116217
      17.020000       0.102894       0.447106       0.114653
      17.030000       0.101724       0.447254       0.113267
      17.040000       0.100573       0.446236       0.112058
      17.050000       0.099457       0.443991       0.111020
      17.060000       0.098394       0.440601       0.110141
      17.070000       0.097406       0.436256       0.109408
      17.080000       0.096512       0.431193       0.108808
      17.090000       0.095731       0.425631       0.108322
      17.100000       0.095072       0.419724       0.107929
      17.110000       0.094544       0.413552       0.107604
      17.120000       0.094148       0.407130       0.107322
      17.130000       0.093885       0.400443       0.107057
      17.140000       0.093756       0.393475       0.106788
      17.150000       0.093764       0.386243       0.106499
      17.160000       0.093913       0.378814       0.106178
      17.170000       0.094203       0.371313       0.105814
      17.180000       0.094628       0.363912       0.105401
      17.190000       0.095169       0.356801       0.104934
      17.200000       0.095793       0.350157       0.104414
      17.210000       0.096454       0.344131       0.103846
      17.220000       0.097093       0.338827       0.103240
      17.230000       0.097653       0.334304       0.102612
      17.240000       0.098081       0.330573       0.101979
      17.250000       0.098335       0.327600       0.101362
      17.260000       0.098392       0.325310       0.100780
      17.270000       0.098244       0.323603       0.100254
      17.280000       0.097899       0.322357       0.099803
      17.290000       0.097377       0.321449       0.099444
      17.300000       0.096705       0.320764       0.099191
      17.310000       0.095915       0.320205       0.099057
      17.320000       0.095033       0.319691       0.099054
      17.330000       0.094082       0.319151       0.099191
      17.340000       0.093078       0.318529       0.099479
      17.350000       0.092034       0.317775       0.099929
      17.360000       0.090965       0.316854       0.100553
      17.370000       0.089888       0.315753       0.101367
      17.380000       0.088825       0.314490       0.102387
      17.390000       0.087798       0.313110       0.103633
      17.400000       0.086827       0.311681       0.105119
      17.410000       0.085931       0.310288       0.106863
      17.420000       0.085121       0.309018       0.108875
      17.430000       0.084401       0.307956       0.111161
      17.440000       0.083774       0.307180       0.113722
      17.450000       0.083232       0.306738       0.116547
      17.460000       0.082765       0.306634       0.119617
      17.470000       0.082359       0.306804       0.122902
      17.480000       0.081999       0.307111       0.126367
      17.490000       0.081674       0.307350       0.129974
      17.500000       0.081375       0.307283       0.133690
      17.510000       0.081099       0.306670       0.137491
      17.520000       0.080837       0.305312       0.141365
      17.530000       0.080582       0.303085       0.145310
      17.540000       0.080322       0.299966       0.149327
      17.550000       0.080044       0.296045       0.153416
      17.560000       0.079740       0.291518       0.157576
      17.570000       0.079403       0.286655       0.161801
      17.580000       0.079027       0.281762       0.166093
      17.590000       0.078601       0.277130       0.170470
      17.600000       0.078113       0.273007       0.174967
      17.610000       0.077553       0.269579       0.179635
      17.620000       0.076918       0.266967       0.184537
      17.630000       0.076217       0.265226       0.189733
      17.640000       0.075474       0.264347       0.195277
      17.650000       0.074722       0.264249       0.201203
      17.660000       0.073996       0.264784       0.207530
      17.670000       0.073328       0.265742       0.214254
      17.680000       0.072737       0.266880       0.221346
      17.690000       0.072236       0.267959       0.228757
      17.700000       0.071829       0.268795       0.236420
      17.710000       0.071516       0.269299       0.244253
      17.720000       0.071294       0.269493       0.252159
      17.730000       0.071159       0.269509       0.260018
      17.740000       0.071108       0.269547       0.267683
      17.750000       0.071134       0.269835       0.274978
      17.760000       0.071223       0.270582       0.281714
      17.770000       0.071359       0.271941       0.287705
      17.780000       0.071519       0.273986       0.292799
      17.790000       0.071682       0.276706       0.296898
      17.800000       0.071834       0.280009       0.299962
      17.810000       0.071968       0.283748       0.302011
      17.820000       0.072089       0.287752       0.303116
      17.830000       0.072207       0.291851       0.303388
      17.840000       0.072333       0.295893       0.302967
      17.850000       0.072470       0.299722       0.302005
      17.860000       0.072606       0.303149       0.300654
      17.870000       0.072712       0.305926       0.299043
      17.880000       0.072745       0.307743       0.297272
      17.890000       0.072657       0.308271       0.295405
      17.900000       0.072406       0.307229       0.293484
      17.910000       0.071970       0.304461       0.291537
      17.920000       0.071348       0.299979       0.289586
      17.930000       0.070559       0.293969       0.287650
      17.940000       0.069638       0.286746       0.285735
      17.950000       0.068629       0.278700       0.283828
      17.960000       0.067574       0.270229       0.281893
      17.970000       0.066513       0.261705       0.279877
      17.980000       0.065483       0.253445       0.277718
      17.990000       0.064511       0.245710       0.275357
      18.000000       0.063617       0.238702       0.272757
      18.010000       0.062809       0.232568       0.269901
      18.020000       0.062085       0.227398       0.266808
      18.030000       0.061430       0.223218       0.263524
      18.040000       0.060825       0.219987       0.260123
      18.050000       0.060244       0.217590       0.256690
      18.060000       0.059666       0.215844       0.253312
      18.070000       0.059074       0.214506       0.250065
      18.080000       0.058459       0.213306       0.247008
      18.090000       0.057817       0.211982       0.244181
      18.100000       0.057148       0.210318       0.241604
      18.110000       0.056460       0.208186       0.239282
      18.120000       0.055763       0.205561       0.237203
      18.130000       0.055075       0.202521       0.235349
      18.140000       0.054421       0.199233       0.233698
      18.150000       0.053827       0.195917       0.232237
      18.160000       0.053328       0.192816       0.230974
      18.170000       0.052955       0.190157       0.229934
      18.180000       0.052736       0.188127       0.229155
      18.190000       0.052693       0.186862       0.228676
      18.200000       0.052836       0.186438       0.228510
      18.210000       0.053163       0.186875       0.228641
      18.220000       0.053662       0.188146       0.229014
      18.230000       0.054309       0.190178       0.229549
      18.240000       0.055072       0.192867       0.230152
      18.250000       0.055913       0.196075       0.230737
      18.260000       0.056794       0.199633       0.231236
      18.270000       0.057678       0.203341       0.231604
      18.280000       0.058531       0.206965       0.231818
      18.290000       0.059323       0.210252       0.231867
      18.300000       0.060032       0.212956       0.231743
      18.310000       0.060641       0.214870       0.231434
      18.320000       0.061139       0.215860       0.230913
      18.330000       0.061522       0.215885       0.230148
      18.340000       0.061789       0.214993       0.229104
      18.350000       0.061947       0.213299       0.227760
      18.360000       0.062008       0.210960       0.226115
      18.370000       0.061986       0.208151       0.224198
      18.380000       0.061902       0.205047       0.222060
      18.390000       0.061780       0.201810       0.219763
      18.400000       0.061649       0.198581       0.217364
      18.410000       0.061538       0.195481       0.214909
      18.420000       0.061474       0.192598       0.212436
      18.430000       0.061475       0.189996       0.209977
      18.440000       0.061551       0.187704       0.207567
      18.450000       0.061701       0.185724       0.205250
      18.460000       0.061916       0.184026       0.203073
      18.470000       0.062180       0.182555       0.201081
      18.480000       0.062474       0.181248       0.199307
      18.490000       0.062782       0.180040       0.197768
      18.500000       0.063084       0.178880       0.196465
      18.510000       0.063364       0.177734       0.195380
      18.520000       0.063600       0.176586       0.194483
      18.530000       0.063777       0.175439       0.193734
      18.540000       0.063884       0.174316       0.193089
      18.550000       0.063917       0.173256       0.192499
      18.560000       0.063883       0.172302       0.191921
      18.570000       0.063796       0.171489       0.191327
      18.580000       0.063675       0.170830       0.190711
      18.590000       0.063544       0.170314       0.190101
      18.600000       0.063433       0.169910       0.189552
      18.610000       0.063372       0.169579       0.189134
      18.620000       0.063390       0.169294       0.188911
      18.630000       0.063510       0.169055       0.188924
      18.640000       0.063745       0.168893       0.189178
      18.650000       0.064091       0.168861       0.189648
      18.660000       0.064530       0.169016       0.190286
      18.670000       0.065029       0.169396       0.191045
      18.680000       0.065543       0.170001       0.191890
      18.690000       0.066029       0.170787       0.192800
      18.700000       0.066447       0.171672       0.193764
      18.710000       0.066776       0.172551       0.194758
      18.720000       0.067015       0.173316       0.195731
      18.730000       0.067183       0.173876       0.196604
      18.740000       0.067314       0.174174       0.197281
      18.750000       0.067452       0.174192       0.197673
      18.760000       0.067639       0.173948       0.197723
      18.770000       0.067913       0.173493       0.197419
      18.780000       0.068301       0.172896       0.196798
      18.790000       0.068820       0.172227       0.195926
      18.800000       0.069472       0.171542       0.194878
      18.810000       0.070249       0.170868       0.193716
      18.820000       0.071131       0.170207       0.192471
      18.830000       0.072086       0.169540       0.191139
      18.840000       0.073076       0.168844       0.189686
      18.850000       0.074056       0.168097       0.188056
      18.860000       0.074983       0.167292       0.186185
      18.870000       0.075815       0.166433       0.184016
      18.880000       0.076518       0.165545       0.181507
      18.890000       0.077076       0.164668       0.178637
      18.900000       0.077489       0.163869       0.175414
      18.910000       0.077778       0.163227       0.171874
      18.920000       0.077977       0.162829       0.168088
      18.930000       0.078127       0.162751       0.164155
      18.940000       0.078268       0.163038       0.160193
      18.950000       0.078430       0.163684       0.156323
      18.960000       0.078628       0.164619       0.152657
      18.970000       0.078862       0.165719       0.149286
      18.980000       0.079120       0.166816       0.146278
      18.990000       0.079385       0.167730       0.143678
      19.000000       0.079639       0.168301       0.141510
      19.010000       0.079871       0.168419       0.139781
      19.020000       0.080078       0.168038       0.138476
      19.030000       0.080264       0.167176       0.137566
      19.040000       0.080441       0.165901       0.137008
      19.050000       0.080620       0.164310       0.136740
      19.060000       0.080811       0.162507       0.136694
      19.070000       0.081020       0.160595       0.136794
      19.080000       0.081247       0.158672       0.136968
      19.090000       0.081486       0.156829       0.137155
      19.100000       0.081732       0.155153       0.137316
      19.110000       0.081979       0.153717       0.137431
      19.120000       0.082222       0.152578       0.137507
      19.130000       0.082462       0.151770       0.137567
      19.140000       0.082702       0.151300       0.137645
      19.150000       0.082950       0.151157       0.137786
      19.160000       0.083219       0.151317       0.138035
      19.170000       0.083522       0.151747       0.138437
      19.180000       0.083878       0.152415       0.139031
      19.190000       0.084303       0.153291       0.139842
      19.200000       0.084819       0.154350       0.140878
      19.210000       0.085447       0.155576       0.142125
      19.220000       0.086208       0.156960       0.143542
      19.230000       0.087122       0.158497       0.145069
      19.240000       0.088202       0.160180       0.146627
      19.250000       0.089456       0.161987       0.148132
      19.260000       0.090881       0.163887       0.149502
      19.270000       0.092466       0.165839       0.150669
      19.280000       0.094189       0.167806       0.151587
      19.290000       0.096019       0.169761       0.152235
      19.300000       0.097910       0.171695       0.152621
      19.310000       0.099803       0.173607       0.152781
      19.320000       0.101626       0.175498       0.152778
      19.330000       0.103299       0.177363       0.152695
      19.340000       0.104745       0.179181       0.152629
      19.350000       0.105904       0.180913       0.152683
      19.360000       0.106739       0.182494       0.152950
      19.370000       0.107243       0.183842       0.153503
      19.380000       0.107432       0.184869       0.154378
      19.390000       0.107348       0.185499       0.155570
      19.400000       0.107040       0.185690       0.157026
      19.410000       0.106565       0.185449       0.158645
      19.420000       0.105971       0.184828       0.160291
      19.430000       0.105299       0.183915       0.161797
      19.440000       0.104574       0.182809       0.162997
      19.450000       0.103806       0.181602       0.163744
      19.460000       0.102994       0.180357       0.163948
      19.470000       0.102131       0.179100       0.163593
      19.480000       0.101208       0.177820       0.162741
      19.490000       0.100224       0.176474       0.161513
      19.500000       0.099182       0.175009       0.160066
      19.510000       0.098091       0.173377       0.158558
      19.520000       0.096966       0.171544       0.157126
      19.530000       0.095822       0.169505       0.155875
      19.540000       0.094674       0.167278       0.154873
      19.550000       0.093534       0.164906       0.154157
      19.560000       0.092414       0.162455       0.153733
      19.570000       0.091327       0.159999       0.153592
      19.580000       0.090285       0.157606       0.153715
      19.590000       0.089303       0.155320       0.154077
      19.600000       0.088394       0.153147       0.154653
      19.610000       0.087563       0.151059       0.155409
      19.620000       0.086809       0.149004       0.156303
      19.630000       0.086127       0.146927       0.157287
      19.640000       0.085513       0.144794       0.158305
      19.650000       0.084969       0.142604       0.159307
      19.660000       0.084504       0.140392       0.160255
      19.670000       0.084137       0.138223       0.161128
      19.680000       0.083891       0.136185       0.161922
      19.690000       0.083791       0.134372       0.162644
      19.700000       0.083854       0.132880       0.163295
      19.710000       0.084092       0.131789       0.163867
      19.720000       0.084512       0.131162       0.164336
      19.730000       0.085115       0.131038       0.164673
      19.740000       0.085900       0.131427       0.164858
      19.750000       0.086863       0.132304       0.164887
      19.760000       0.088003       0.133613       0.164779
      19.770000       0.089314       0.135258       0.164571
      19.780000       0.090789       0.137119       0.164313
      19.790000       0.092415       0.139052       0.164049
      19.800000       0.094170       0.140910       0.163813
      19.810000       0.096022       0.142561       0.163620
      19.820000       0.097934       0.143906       0.163467
      19.830000       0.099862       0.144891       0.163337
      19.840000       0.101768       0.145512       0.163216
      19.850000       0.103624       0.145811       0.163095
      19.860000       0.105414       0.145864       0.162980
      19.870000       0.107130       0.145763       0.162887
      19.880000       0.108768       0.145600       0.162835
      19.890000       0.110322       0.145456       0.162841
      19.900000       0.111775       0.145395       0.162912
      19.910000       0.113101       0.145454       0.163039
      19.920000       0.114267       0.145652       0.163197
      19.930000       0.115235       0.145993       0.163343
      19.940000       0.115969       0.146475       0.163419
      19.950000       0.116440       0.147104       0.163366
      19.960000       0.116630       0.147889       0.163136
      19.970000       0.116540       0.148839       0.162710
      19.980000       0.116190       0.149947       0.162104
      19.990000       0.115619       0.151181       0.161368
      20.000000       0.114879       0.152484       0.160571
