  # energy grid [eV]     epsi_x  epsi_y  epsi_z
       0.000000            NaN            NaN            NaN
       0.010000       0.517466       0.004089       0.015555
       0.020000       1.038672       0.008190       0.031292
       0.030000       1.567419       0.012315       0.047381
       0.040000       2.107636       0.016476       0.063966
       0.050000       2.663444       0.020685       0.081144
       0.060000       3.239228       0.024957       0.098945
       0.070000       3.839716       0.029303       0.117300
       0.080000       4.470065       0.033740       0.136015
       0.090000       5.135954       0.038283       0.154755
       0.100000       5.843695       0.042948       0.173054
       0.110000       6.600349       0.047752       0.190370
       0.120000       7.413860       0.052717       0.206177
       0.130000       8.293200       0.057863       0.220090
       0.140000       9.248520       0.063213       0.231957
       0.150000      10.291311       0.068795       0.241876
       0.160000      11.434543       0.074637       0.250122
       0.170000      12.692777       0.080771       0.256986
       0.180000      14.082202       0.087235       0.262614
       0.190000      15.620531       0.094068       0.266893
       0.200000      17.326666       0.101319       0.269429
       0.210000      19.219991       0.109039       0.269650
       0.220000      21.319092       0.117288       0.266987
       0.230000      23.639674       0.126135       0.261081
       0.240000      26.191408       0.135659       0.251942
       0.250000      28.973536       0.145947       0.239977
       0.260000      31.969288       0.157104       0.225903
       0.270000      35.139715       0.169246       0.210581
       0.280000      38.418298       0.182507       0.194846
       0.290000      41.708536       0.197043       0.179400
       0.300000      44.887074       0.213025       0.164752
       0.310000      47.814167       0.230653       0.151229
       0.320000      50.351126       0.250143       0.139001
       0.330000      52.381759       0.271737       0.128119
       0.340000      53.832614       0.295687       0.118556
       0.350000      54.686154       0.322254       0.110232
       0.360000      54.981793       0.351679       0.103030
       0.370000      54.802901       0.384156       0.096816
       0.380000      54.253133       0.419779       0.091444
       0.390000      53.430632       0.458476       0.086766
       0.400000      52.410089       0.499916       0.082644
       0.410000      51.238807       0.543408       0.078958
       0.420000      49.945936       0.587818       0.075612
       0.430000      48.557691       0.631541       0.072543
       0.440000      47.109129       0.672590       0.069715
       0.450000      45.646140       0.708845       0.067113
       0.460000      44.217581       0.738442       0.064734
       0.470000      42.862876       0.760192       0.062580
       0.480000      41.601884       0.773866       0.060657
       0.490000      40.431845       0.780179       0.058966
       0.500000      39.332604       0.780475       0.057510
       0.510000      38.277842       0.776232       0.056292
       0.520000      37.247522       0.768613       0.055322
       0.530000      36.236140       0.758204       0.054616
       0.540000      35.253356       0.745032       0.054199
       0.550000      34.317453       0.728806       0.054103
       0.560000      33.445463       0.709275       0.054362
       0.570000      32.644880       0.686544       0.055012
       0.580000      31.910405       0.661221       0.056085
       0.590000      31.226671       0.634348       0.057606
       0.600000      30.575242       0.607195       0.059590
       0.610000      29.942379       0.581013       0.062037
       0.620000      29.323719       0.556856       0.064921
       0.630000      28.723681       0.535485       0.068185
       0.640000      28.150360       0.517356       0.071726
       0.650000      27.609083       0.502650       0.075389
       0.660000      27.098200       0.491317       0.078960
       0.670000      26.609028       0.483110       0.082181
       0.680000      26.129393       0.477625       0.084775
       0.690000      25.648198       0.474329       0.086484
       0.700000      25.158098       0.472613       0.087121
       0.710000      24.654870       0.471857       0.086595
       0.720000      24.134464       0.471513       0.084929
       0.730000      23.590202       0.471170       0.082249
       0.740000      23.012164       0.470582       0.078755
       0.750000      22.388967       0.469631       0.074689
       0.760000      21.710522       0.468263       0.070301
       0.770000      20.970185       0.466416       0.065817
       0.780000      20.165855       0.463994       0.061420
       0.790000      19.300639       0.460896       0.057247
       0.800000      18.383605       0.457083       0.053385
       0.810000      17.430205       0.452643       0.049883
       0.820000      16.461433       0.447823       0.046758
       0.830000      15.501363       0.443003       0.044007
       0.840000      14.573783       0.438637       0.041616
       0.850000      13.699183       0.435179       0.039562
       0.860000      12.892968       0.433030       0.037820
       0.870000      12.165095       0.432509       0.036364
       0.880000      11.520727       0.433854       0.035166
       0.890000      10.961383       0.437235       0.034197
       0.900000      10.486133       0.442769       0.033428
       0.910000      10.092591       0.450540       0.032822
       0.920000       9.777604       0.460603       0.032343
       0.930000       9.537625       0.472983       0.031951
       0.940000       9.368787       0.487668       0.031609
       0.950000       9.266739       0.504586       0.031287
       0.960000       9.226278       0.523576       0.030969
       0.970000       9.240884       0.544362       0.030654
       0.980000       9.302307       0.566527       0.030353
       0.990000       9.400408       0.589513       0.030089
       1.000000       9.523505       0.612650       0.029887
       1.010000       9.659317       0.635232       0.029772
       1.020000       9.796406       0.656621       0.029760
       1.030000       9.925675       0.676357       0.029864
       1.040000      10.041402       0.694245       0.030091
       1.050000      10.141467       0.710376       0.030445
       1.060000      10.226798       0.725105       0.030931
       1.070000      10.300361       0.738980       0.031558
       1.080000      10.366039       0.752661       0.032340
       1.090000      10.427699       0.766843       0.033292
       1.100000      10.488609       0.782200       0.034432
       1.110000      10.551228       0.799345       0.035772
       1.120000      10.617202       0.818808       0.037315
       1.130000      10.687339       0.841011       0.039052
       1.140000      10.761498       0.866240       0.040952
       1.150000      10.838471       0.894596       0.042959
       1.160000      10.915970       0.925947       0.044991
       1.170000      10.990586       0.959886       0.046946
       1.180000      11.057638       0.995706       0.048708
       1.190000      11.110908       1.032440       0.050170
       1.200000      11.142446       1.068987       0.051254
       1.210000      11.142569       1.104315       0.051925
       1.220000      11.100135       1.137699       0.052192
       1.230000      11.003224       1.168886       0.052096
       1.240000      10.840376       1.198086       0.051688
       1.250000      10.602438       1.225764       0.051020
       1.260000      10.284744       1.252315       0.050131
       1.270000       9.889024       1.277755       0.049054
       1.280000       9.424257       1.301571       0.047822
       1.290000       8.905905       1.322805       0.046466
       1.300000       8.353587       1.340381       0.045021
       1.310000       7.787938       1.353552       0.043519
       1.320000       7.227689       1.362299       0.041996
       1.330000       6.687739       1.367510       0.040484
       1.340000       6.178437       1.370874       0.039021
       1.350000       5.705843       1.374556       0.037645
       1.360000       5.272527       1.380817       0.036390
       1.370000       4.878534       1.391709       0.035288
       1.380000       4.522264       1.408912       0.034359
       1.390000       4.201168       1.433682       0.033617
       1.400000       3.912248       1.466880       0.033066
       1.410000       3.652386       1.509008       0.032703
       1.420000       3.418547       1.560239       0.032520
       1.430000       3.207892       1.620421       0.032507
       1.440000       3.017831       1.689072       0.032655
       1.450000       2.846044       1.765385       0.032955
       1.460000       2.690474       1.848300       0.033408
       1.470000       2.549310       1.936646       0.034017
       1.480000       2.420967       2.029352       0.034794
       1.490000       2.304057       2.125638       0.035750
       1.500000       2.197367       2.225096       0.036895
       1.510000       2.099830       2.327572       0.038231
       1.520000       2.010508       2.432924       0.039745
       1.530000       1.928567       2.540785       0.041405
       1.540000       1.853264       2.650531       0.043154
       1.550000       1.783937       2.761534       0.044912
       1.560000       1.719999       2.873661       0.046575
       1.570000       1.660942       2.987819       0.048030
       1.580000       1.606339       3.106307       0.049175
       1.590000       1.555847       3.232789       0.049942
       1.600000       1.509192       3.371881       0.050317
       1.610000       1.466162       3.528467       0.050344
       1.620000       1.426589       3.706952       0.050120
       1.630000       1.390331       3.910551       0.049767
       1.640000       1.357275       4.140677       0.049414
       1.650000       1.327329       4.396357       0.049177
       1.660000       1.300431       4.673700       0.049143
       1.670000       1.276553       4.965500       0.049371
       1.680000       1.255691       5.261179       0.049887
       1.690000       1.237864       5.547354       0.050687
       1.700000       1.223097       5.809239       0.051735
       1.710000       1.211407       6.032828       0.052965
       1.720000       1.202790       6.207442       0.054288
       1.730000       1.197212       6.327915       0.055595
       1.740000       1.194603       6.395680       0.056778
       1.750000       1.194857       6.418361       0.057746
       1.760000       1.197838       6.408111       0.058448
       1.770000       1.203385       6.379367       0.058877
       1.780000       1.211330       6.346785       0.059069
       1.790000       1.221504       6.323820       0.059077
       1.800000       1.233756       6.321985       0.058955
       1.810000       1.247969       6.350551       0.058734
       1.820000       1.264064       6.416357       0.058419
       1.830000       1.281983       6.523519       0.057986
       1.840000       1.301680       6.672956       0.057403
       1.850000       1.323112       6.861828       0.056640
       1.860000       1.346252       7.083012       0.055685
       1.870000       1.371093       7.324834       0.054551
       1.880000       1.397637       7.571252       0.053280
       1.890000       1.425854       7.802723       0.051931
       1.900000       1.455658       7.997848       0.050572
       1.910000       1.486887       8.135728       0.049271
       1.920000       1.519307       8.198758       0.048089
       1.930000       1.552590       8.175399       0.047070
       1.940000       1.586285       8.062293       0.046249
       1.950000       1.619787       7.865059       0.045644
       1.960000       1.652326       7.597379       0.045257
       1.970000       1.682969       7.278506       0.045074
       1.980000       1.710613       6.929916       0.045063
       1.990000       1.733971       6.572060       0.045177
       2.000000       1.751560       6.222003       0.045361
       2.010000       1.761733       5.892233       0.045554
       2.020000       1.762755       5.590533       0.045709
       2.030000       1.752961       5.320539       0.045795
       2.040000       1.730983       5.082591       0.045810
       2.050000       1.696049       4.874587       0.045775
       2.060000       1.648269       4.692726       0.045730
       2.070000       1.588808       4.532181       0.045725
       2.080000       1.519837       4.387789       0.045809
       2.090000       1.444247       4.254796       0.046022
       2.100000       1.365199       4.129519       0.046392
       2.110000       1.285666       4.009746       0.046929
       2.120000       1.208097       3.894694       0.047629
       2.130000       1.134259       3.784613       0.048469
       2.140000       1.065243       3.680206       0.049414
       2.150000       1.001570       3.582143       0.050422
       2.160000       0.943347       3.490811       0.051453
       2.170000       0.890419       3.406343       0.052478
       2.180000       0.842487       3.328820       0.053485
       2.190000       0.799194       3.258460       0.054478
       2.200000       0.760174       3.195681       0.055469
       2.210000       0.725068       3.141022       0.056474
       2.220000       0.693529       3.095023       0.057504
       2.230000       0.665226       3.058164       0.058566
       2.240000       0.639839       3.030880       0.059664
       2.250000       0.617058       3.013598       0.060796
       2.260000       0.596580       3.006705       0.061955
       2.270000       0.578109       3.010476       0.063121
       2.280000       0.561358       3.025006       0.064266
       2.290000       0.546053       3.050223       0.065351
       2.300000       0.531940       3.085985       0.066341
       2.310000       0.518786       3.132219       0.067205
       2.320000       0.506387       3.189016       0.067924
       2.330000       0.494570       3.256606       0.068493
       2.340000       0.483205       3.335176       0.068916
       2.350000       0.472213       3.424565       0.069213
       2.360000       0.461568       3.523898       0.069411
       2.370000       0.451296       3.631274       0.069545
       2.380000       0.441447       3.743570       0.069646
       2.390000       0.432083       3.856398       0.069734
       2.400000       0.423256       3.964236       0.069821
       2.410000       0.415002       4.060684       0.069911
       2.420000       0.407338       4.138861       0.070006
       2.430000       0.400262       4.191900       0.070119
       2.440000       0.393754       4.213614       0.070271
       2.450000       0.387769       4.199307       0.070493
       2.460000       0.382241       4.146632       0.070819
       2.470000       0.377084       4.056253       0.071267
       2.480000       0.372202       3.932012       0.071842
       2.490000       0.367502       3.780452       0.072521
       2.500000       0.362918       3.609766       0.073265
       2.510000       0.358428       3.428498       0.074020
       2.520000       0.354065       3.244390       0.074725
       2.530000       0.349905       3.063667       0.075322
       2.540000       0.346060       2.890809       0.075753
       2.550000       0.342647       2.728701       0.075975
       2.560000       0.339780       2.578926       0.075964
       2.570000       0.337551       2.442079       0.075729
       2.580000       0.336031       2.318007       0.075313
       2.590000       0.335262       2.206029       0.074793
       2.600000       0.335257       2.105169       0.074268
       2.610000       0.335996       2.014379       0.073842
       2.620000       0.337425       1.932723       0.073613
       2.630000       0.339446       1.859443       0.073669
       2.640000       0.341927       1.793906       0.074081
       2.650000       0.344701       1.735480       0.074900
       2.660000       0.347590       1.683420       0.076160
       2.670000       0.350429       1.636817       0.077867
       2.680000       0.353099       1.594636       0.080000
       2.690000       0.355545       1.555837       0.082504
       2.700000       0.357781       1.519526       0.085287
       2.710000       0.359885       1.485115       0.088223
       2.720000       0.361976       1.452423       0.091154
       2.730000       0.364198       1.421679       0.093907
       2.740000       0.366689       1.393406       0.096316
       2.750000       0.369561       1.368227       0.098245
       2.760000       0.372876       1.346654       0.099615
       2.770000       0.376641       1.328916       0.100415
       2.780000       0.380818       1.314889       0.100704
       2.790000       0.385358       1.304115       0.100593
       2.800000       0.390225       1.295911       0.100218
       2.810000       0.395418       1.289541       0.099710
       2.820000       0.400951       1.284387       0.099180
       2.830000       0.406814       1.280082       0.098718
       2.840000       0.412931       1.276539       0.098395
       2.850000       0.419132       1.273901       0.098273
       2.860000       0.425147       1.272445       0.098406
       2.870000       0.430624       1.272514       0.098844
       2.880000       0.435152       1.274511       0.099624
       2.890000       0.438289       1.278952       0.100772
       2.900000       0.439594       1.286498       0.102302
       2.910000       0.438680       1.297952       0.104215
       2.920000       0.435287       1.314170       0.106495
       2.930000       0.429351       1.335949       0.109113
       2.940000       0.421040       1.363889       0.112018
       2.950000       0.410745       1.398298       0.115148
       2.960000       0.399004       1.439117       0.118420
       2.970000       0.386412       1.485911       0.121733
       2.980000       0.373530       1.537912       0.124956
       2.990000       0.360820       1.594138       0.127932
       3.000000       0.348628       1.653565       0.130486
       3.010000       0.337179       1.715303       0.132452
       3.020000       0.326596       1.778715       0.133704
       3.030000       0.316922       1.843431       0.134187
       3.040000       0.308143       1.909273       0.133925
       3.050000       0.300214       1.976143       0.133009
       3.060000       0.293076       2.043911       0.131576
       3.070000       0.286668       2.112301       0.129776
       3.080000       0.280933       2.180763       0.127753
       3.090000       0.275813       2.248357       0.125636
       3.100000       0.271243       2.313672       0.123539
       3.110000       0.267155       2.374836       0.121564
       3.120000       0.263478       2.429632       0.119808
       3.130000       0.260142       2.475735       0.118360
       3.140000       0.257076       2.511060       0.117301
       3.150000       0.254207       2.534164       0.116698
       3.160000       0.251460       2.544603       0.116602
       3.170000       0.248761       2.543145       0.117038
       3.180000       0.246056       2.531717       0.118008
       3.190000       0.243326       2.513064       0.119473
       3.200000       0.240596       2.490181       0.121357
       3.210000       0.237933       2.465684       0.123539
       3.220000       0.235433       2.441304       0.125866
       3.230000       0.233202       2.417662       0.128171
       3.240000       0.231332       2.394408       0.130305
       3.250000       0.229890       2.370683       0.132161
       3.260000       0.228916       2.345775       0.133695
       3.270000       0.228423       2.319706       0.134929
       3.280000       0.228405       2.293526       0.135933
       3.290000       0.228851       2.269199       0.136805
       3.300000       0.229750       2.249160       0.137640
       3.310000       0.231095       2.235742       0.138515
       3.320000       0.232874       2.230663       0.139480
       3.330000       0.235064       2.234704       0.140567
       3.340000       0.237610       2.247631       0.141785
       3.350000       0.240419       2.268350       0.143131
       3.360000       0.243352       2.295271       0.144584
       3.370000       0.246230       2.326759       0.146113
       3.380000       0.248850       2.361520       0.147679
       3.390000       0.251011       2.398737       0.149250
       3.400000       0.252562       2.437862       0.150802
       3.410000       0.253432       2.478142       0.152318
       3.420000       0.253661       2.518103       0.153781
       3.430000       0.253393       2.555247       0.155168
       3.440000       0.252837       2.586170       0.156448
       3.450000       0.252229       2.607105       0.157585
       3.460000       0.251778       2.614752       0.158552
       3.470000       0.251647       2.607058       0.159348
       3.480000       0.251933       2.583689       0.160011
       3.490000       0.252675       2.546059       0.160623
       3.500000       0.253867       2.497015       0.161297
       3.510000       0.255475       2.440340       0.162156
       3.520000       0.257464       2.380201       0.163308
       3.530000       0.259811       2.320647       0.164816
       3.540000       0.262525       2.265218       0.166681
       3.550000       0.265649       2.216707       0.168847
       3.560000       0.269258       2.177090       0.171202
       3.570000       0.273454       2.147562       0.173612
       3.580000       0.278345       2.128661       0.175930
       3.590000       0.284044       2.120384       0.178020
       3.600000       0.290650       2.122294       0.179766
       3.610000       0.298247       2.133551       0.181074
       3.620000       0.306895       2.152881       0.181887
       3.630000       0.316623       2.178509       0.182194
       3.640000       0.327419       2.208090       0.182044
       3.650000       0.339231       2.238729       0.181547
       3.660000       0.351971       2.267168       0.180871
       3.670000       0.365522       2.290217       0.180216
       3.680000       0.379765       2.305359       0.179780
       3.690000       0.394583       2.311355       0.179722
       3.700000       0.409868       2.308577       0.180130
       3.710000       0.425512       2.298894       0.181003
       3.720000       0.441396       2.285172       0.182248
       3.730000       0.457393       2.270600       0.183698
       3.740000       0.473376       2.258131       0.185143
       3.750000       0.489235       2.250127       0.186374
       3.760000       0.504867       2.248206       0.187231
       3.770000       0.520151       2.253184       0.187642
       3.780000       0.534905       2.265071       0.187633
       3.790000       0.548836       2.283110       0.187322
       3.800000       0.561542       2.305905       0.186882
       3.810000       0.572559       2.331658       0.186510
       3.820000       0.581479       2.358504       0.186396
       3.830000       0.588094       2.384867       0.186704
       3.840000       0.592528       2.409729       0.187559
       3.850000       0.595270       2.432693       0.189035
       3.860000       0.597092       2.453813       0.191140
       3.870000       0.598872       2.473298       0.193807
       3.880000       0.601386       2.491269       0.196890
       3.890000       0.605143       2.507692       0.200181
       3.900000       0.610264       2.522501       0.203444
       3.910000       0.616443       2.535788       0.206457
       3.920000       0.622965       2.547869       0.209048
       3.930000       0.628800       2.559135       0.211108
       3.940000       0.632771       2.569693       0.212590
       3.950000       0.633777       2.578980       0.213494
       3.960000       0.631024       2.585523       0.213853
       3.970000       0.624183       2.587010       0.213733
       3.980000       0.613440       2.580655       0.213230
       3.990000       0.599413       2.563763       0.212462
       4.000000       0.583011       2.534313       0.211545
       4.010000       0.565258       2.491420       0.210575
       4.020000       0.547136       2.435610       0.209613
       4.030000       0.529480       2.368881       0.208686
       4.040000       0.512920       2.294495       0.207804
       4.050000       0.497875       2.216524       0.206985
       4.060000       0.484589       2.139261       0.206273
       4.070000       0.473166       2.066641       0.205737
       4.080000       0.463610       2.001841       0.205463
       4.090000       0.455858       1.947101       0.205526
       4.100000       0.449794       1.903728       0.205975
       4.110000       0.445283       1.872212       0.206821
       4.120000       0.442189       1.852359       0.208036
       4.130000       0.440408       1.843402       0.209556
       4.140000       0.439887       1.844060       0.211293
       4.150000       0.440649       1.852575       0.213136
       4.160000       0.442791       1.866775       0.214978
       4.170000       0.446475       1.884229       0.216724
       4.180000       0.451897       1.902497       0.218311
       4.190000       0.459252       1.919442       0.219709
       4.200000       0.468693       1.933476       0.220929
       4.210000       0.480301       1.943666       0.222008
       4.220000       0.494066       1.949687       0.223003
       4.230000       0.509867       1.951709       0.223977
       4.240000       0.527472       1.950310       0.224979
       4.250000       0.546536       1.946406       0.226039
       4.260000       0.566622       1.941114       0.227157
       4.270000       0.587231       1.935514       0.228307
       4.280000       0.607859       1.930345       0.229444
       4.290000       0.628058       1.925755       0.230517
       4.300000       0.647508       1.921230       0.231473
       4.310000       0.666043       1.915757       0.232278
       4.320000       0.683637       1.908189       0.232930
       4.330000       0.700338       1.897692       0.233480
       4.340000       0.716176       1.884110       0.234034
       4.350000       0.731086       1.868109       0.234751
       4.360000       0.744884       1.851063       0.235814
       4.370000       0.757283       1.834783       0.237401
       4.380000       0.767948       1.821203       0.239648
       4.390000       0.776562       1.812136       0.242630
       4.400000       0.782900       1.809135       0.246343
       4.410000       0.786910       1.813411       0.250714
       4.420000       0.788789       1.825812       0.255600
       4.430000       0.789032       1.846780       0.260798
       4.440000       0.788423       1.876299       0.266057
       4.450000       0.787933       1.913819       0.271079
       4.460000       0.788562       1.958216       0.275549
       4.470000       0.791157       2.007850       0.279155
       4.480000       0.796250       2.060748       0.281632
       4.490000       0.803954       2.114908       0.282800
       4.500000       0.813917       2.168620       0.282599
       4.510000       0.825345       2.220685       0.281094
       4.520000       0.837113       2.270463       0.278466
       4.530000       0.847953       2.317787       0.274978
       4.540000       0.856723       2.362831       0.270933
       4.550000       0.862658       2.405995       0.266633
       4.560000       0.865560       2.447818       0.262343
       4.570000       0.865829       2.488867       0.258267
       4.580000       0.864345       2.529600       0.254551
       4.590000       0.862257       2.570211       0.251294
       4.600000       0.860764       2.610498       0.248578
       4.610000       0.860938       2.649828       0.246490
       4.620000       0.863639       2.687208       0.245133
       4.630000       0.869488       2.721463       0.244613
       4.640000       0.878910       2.751494       0.245017
       4.650000       0.892194       2.776499       0.246386
       4.660000       0.909557       2.796091       0.248692
       4.670000       0.931185       2.810203       0.251837
       4.680000       0.957242       2.818850       0.255663
       4.690000       0.987850       2.821884       0.259972
       4.700000       1.023032       2.818912       0.264556
       4.710000       1.062646       2.809437       0.269208
       4.720000       1.106329       2.793154       0.273727
       4.730000       1.153472       2.770238       0.277909
       4.740000       1.203262       2.741527       0.281542
       4.750000       1.254787       2.708546       0.284417
       4.760000       1.307184       2.673421       0.286345
       4.770000       1.359776       2.638655       0.287196
       4.780000       1.412141       2.606790       0.286924
       4.790000       1.464100       2.580001       0.285579
       4.800000       1.515644       2.559739       0.283288
       4.810000       1.566854       2.546542       0.280235
       4.820000       1.617838       2.540037       0.276626
       4.830000       1.668672       2.539082       0.272665
       4.840000       1.719307       2.541919       0.268542
       4.850000       1.769449       2.546268       0.264418
       4.860000       1.818428       2.549379       0.260435
       4.870000       1.865118       2.548188       0.256714
       4.880000       1.907949       2.539666       0.253359
       4.890000       1.945031       2.521361       0.250461
       4.900000       1.974366       2.491941       0.248087
       4.910000       1.994138       2.451513       0.246273
       4.920000       2.003032       2.401588       0.245007
       4.930000       2.000517       2.344724       0.244226
       4.940000       1.987022       2.284023       0.243811
       4.950000       1.963911       2.222650       0.243600
       4.960000       1.933268       2.163461       0.243403
       4.970000       1.897564       2.108807       0.243035
       4.980000       1.859344       2.060500       0.242346
       4.990000       1.820978       2.019900       0.241256
       5.000000       1.784482       1.988048       0.239763
       5.010000       1.751374       1.965751       0.237939
       5.020000       1.722535       1.953588       0.235905
       5.030000       1.698142       1.951838       0.233799
       5.040000       1.677694       1.960367       0.231752
       5.050000       1.660170       1.978540       0.229871
       5.060000       1.644287       2.005185       0.228230
       5.070000       1.628772       2.038619       0.226867
       5.080000       1.612578       2.076731       0.225790
       5.090000       1.594984       2.117093       0.224980
       5.100000       1.575610       2.157089       0.224396
       5.110000       1.554381       2.194066       0.223983
       5.120000       1.531475       2.225527       0.223673
       5.130000       1.507276       2.249381       0.223395
       5.140000       1.482325       2.264208       0.223088
       5.150000       1.457282       2.269479       0.222707
       5.160000       1.432899       2.265622       0.222238
       5.170000       1.410018       2.253896       0.221689
       5.180000       1.389549       2.236110       0.221088
       5.190000       1.372406       2.214274       0.220465
       5.200000       1.359424       2.190290       0.219839
       5.210000       1.351264       2.165748       0.219209
       5.220000       1.348395       2.141852       0.218549
       5.230000       1.351129       2.119466       0.217814
       5.240000       1.359707       2.099245       0.216950
       5.250000       1.374375       2.081795       0.215907
       5.260000       1.395387       2.067764       0.214647
       5.270000       1.422933       2.057820       0.213152
       5.280000       1.457014       2.052548       0.211425
       5.290000       1.497300       2.052321       0.209489
       5.300000       1.543051       2.057249       0.207395
       5.310000       1.593101       2.067189       0.205218
       5.320000       1.645952       2.081835       0.203062
       5.330000       1.699907       2.100806       0.201049
       5.340000       1.753223       2.123724       0.199311
       5.350000       1.804199       2.150228       0.197975
       5.360000       1.851176       2.179898       0.197146
       5.370000       1.892449       2.212086       0.196891
       5.380000       1.926197       2.245708       0.197231
       5.390000       1.950521       2.279122       0.198142
       5.400000       1.963690       2.310222       0.199563
       5.410000       1.964537       2.336794       0.201413
       5.420000       1.952838       2.357032       0.203606
       5.430000       1.929497       2.369996       0.206065
       5.440000       1.896420       2.375798       0.208729
       5.450000       1.856129       2.375411       0.211556
       5.460000       1.811285       2.370195       0.214516
       5.470000       1.764259       2.361367       0.217581
       5.480000       1.716868       2.349636       0.220709
       5.490000       1.670270       2.335121       0.223837
       5.500000       1.625021       2.317541       0.226878
       5.510000       1.581249       2.296555       0.229727
       5.520000       1.538886       2.272084       0.232278
       5.530000       1.497879       2.244491       0.234439
       5.540000       1.458307       2.214577       0.236143
       5.550000       1.420389       2.183433       0.237358
       5.560000       1.384416       2.152271       0.238086
       5.570000       1.350701       2.122318       0.238355
       5.580000       1.319561       2.094779       0.238209
       5.590000       1.291341       2.070823       0.237701
       5.600000       1.266427       2.051489       0.236888
       5.610000       1.245224       2.037509       0.235823
       5.620000       1.228120       2.029108       0.234550
       5.630000       1.215460       2.025897       0.233089
       5.640000       1.207554       2.026956       0.231427
       5.650000       1.204702       2.031114       0.229521
       5.660000       1.207223       2.037351       0.227308
       5.670000       1.215435       2.045161       0.224726
       5.680000       1.229600       2.054725       0.221741
       5.690000       1.249835       2.066792       0.218365
       5.700000       1.276001       2.082322       0.214660
       5.710000       1.307627       2.102040       0.210737
       5.720000       1.343869       2.126061       0.206740
       5.730000       1.383541       2.153691       0.202828
       5.740000       1.425201       2.183448       0.199155
       5.750000       1.467283       2.213237       0.195859
       5.760000       1.508251       2.240647       0.193053
       5.770000       1.546772       2.263303       0.190827
       5.780000       1.581879       2.279221       0.189247
       5.790000       1.613088       2.287137       0.188358
       5.800000       1.640414       2.286737       0.188187
       5.810000       1.664241       2.278762       0.188738
       5.820000       1.685063       2.264942       0.189997
       5.830000       1.703187       2.247739       0.191921
       5.840000       1.718524       2.229975       0.194447
       5.850000       1.730576       2.214401       0.197487
       5.860000       1.738632       2.203341       0.200933
       5.870000       1.742087       2.198462       0.204661
       5.880000       1.740729       2.200661       0.208541
       5.890000       1.734897       2.210051       0.212449
       5.900000       1.725442       2.225985       0.216283
       5.910000       1.713553       2.247146       0.219973
       5.920000       1.700501       2.271691       0.223485
       5.930000       1.687400       2.297472       0.226819
       5.940000       1.675035       2.322281       0.229996
       5.950000       1.663795       2.344111       0.233041
       5.960000       1.653714       2.361406       0.235975
       5.970000       1.644597       2.373280       0.238801
       5.980000       1.636151       2.379667       0.241506
       5.990000       1.628085       2.381312       0.244064
       6.000000       1.620147       2.379556       0.246441
       6.010000       1.612122       2.375961       0.248604
       6.020000       1.603830       2.371884       0.250521
       6.030000       1.595154       2.368171       0.252164
       6.040000       1.586083       2.365074       0.253509
       6.050000       1.576755       2.362374       0.254524
       6.060000       1.567448       2.359615       0.255175
       6.070000       1.558536       2.356314       0.255422
       6.080000       1.550398       2.352092       0.255234
       6.090000       1.543339       2.346710       0.254604
       6.100000       1.537553       2.340074       0.253567
       6.110000       1.533145       2.332230       0.252207
       6.120000       1.530213       2.323360       0.250652
       6.130000       1.528922       2.313778       0.249060
       6.140000       1.529546       2.303932       0.247590
       6.150000       1.532464       2.294419       0.246380
       6.160000       1.538120       2.286005       0.245535
       6.170000       1.546988       2.279643       0.245123
       6.180000       1.559550       2.276444       0.245184
       6.190000       1.576265       2.277587       0.245738
       6.200000       1.597526       2.284157       0.246786
       6.210000       1.623579       2.296952       0.248307
       6.220000       1.654432       2.316314       0.250247
       6.230000       1.689816       2.342038       0.252515
       6.240000       1.729207       2.373351       0.254982
       6.250000       1.771894       2.408978       0.257495
       6.260000       1.817054       2.447251       0.259900
       6.270000       1.863784       2.486282       0.262065
       6.280000       1.911079       2.524161       0.263906
       6.290000       1.957796       2.559155       0.265400
       6.300000       2.002647       2.589845       0.266587
       6.310000       2.044251       2.615172       0.267561
       6.320000       2.081270       2.634405       0.268463
       6.330000       2.112591       2.647097       0.269452
       6.340000       2.137520       2.653101       0.270689
       6.350000       2.155885       2.652646       0.272313
       6.360000       2.168041       2.646416       0.274421
       6.370000       2.174763       2.635539       0.277064
       6.380000       2.177098       2.621476       0.280238
       6.390000       2.176207       2.605817       0.283889
       6.400000       2.173231       2.590075       0.287924
       6.410000       2.169230       2.575574       0.292224
       6.420000       2.165210       2.563454       0.296673
       6.430000       2.162228       2.554779       0.301168
       6.440000       2.161510       2.550621       0.305635
       6.450000       2.164504       2.552032       0.310038
       6.460000       2.172784       2.559910       0.314383
       6.470000       2.187847       2.574805       0.318708
       6.480000       2.210841       2.596800       0.323071
       6.490000       2.242331       2.625496       0.327516
       6.500000       2.282176       2.660119       0.332033
       6.510000       2.329518       2.699680       0.336530
       6.520000       2.382914       2.743121       0.340821
       6.530000       2.440538       2.789407       0.344659
       6.540000       2.500423       2.837575       0.347784
       6.550000       2.560711       2.886782       0.349988
       6.560000       2.619863       2.936385       0.351160
       6.570000       2.676810       2.986007       0.351301
       6.580000       2.731021       3.035536       0.350515
       6.590000       2.782449       3.085019       0.348980
       6.600000       2.831386       3.134482       0.346920
       6.610000       2.878239       3.183772       0.344576
       6.620000       2.923321       3.232522       0.342175
       6.630000       2.966715       3.280314       0.339910
       6.640000       3.008259       3.326945       0.337919
       6.650000       3.047581       3.372633       0.336275
       6.660000       3.084144       3.417994       0.334986
       6.670000       3.117242       3.463750       0.334003
       6.680000       3.145988       3.510313       0.333242
       6.690000       3.169379       3.557444       0.332600
       6.700000       3.186445       3.604132       0.331986
       6.710000       3.196433       3.648709       0.331342
       6.720000       3.198946       3.689101       0.330644
       6.730000       3.193959       3.723133       0.329904
       6.740000       3.181720       3.748799       0.329153
       6.750000       3.162614       3.764476       0.328428
       6.760000       3.137072       3.769089       0.327767
       6.770000       3.105564       3.762224       0.327207
       6.780000       3.068672       3.744178       0.326790
       6.790000       3.027167       3.715912       0.326567
       6.800000       2.982028       3.678899       0.326583
       6.810000       2.934355       3.634859       0.326874
       6.820000       2.885190       3.585458       0.327452
       6.830000       2.835345       3.532075       0.328308
       6.840000       2.785295       3.475717       0.329413
       6.850000       2.735170       3.417082       0.330727
       6.860000       2.684814       3.356682       0.332215
       6.870000       2.633865       3.294944       0.333855
       6.880000       2.581842       3.232226       0.335648
       6.890000       2.528227       3.168778       0.337616
       6.900000       2.472566       3.104724       0.339791
       6.910000       2.414575       3.040144       0.342195
       6.920000       2.354258       2.975291       0.344825
       6.930000       2.292017       2.910866       0.347633
       6.940000       2.228696       2.848211       0.350533
       6.950000       2.165545       2.789289       0.353414
       6.960000       2.104096       2.736429       0.356163
       6.970000       2.045980       2.691923       0.358688
       6.980000       1.992718       2.657605       0.360925
       6.990000       1.945530       2.634523       0.362839
       7.000000       1.905171       2.622770       0.364433
       7.010000       1.871844       2.621494       0.365746
       7.020000       1.845192       2.629054       0.366853
       7.030000       1.824373       2.643285       0.367863
       7.040000       1.808191       2.661830       0.368887
       7.050000       1.795233       2.682473       0.370011
       7.060000       1.784003       2.703402       0.371277
       7.070000       1.773046       2.723368       0.372673
       7.080000       1.761087       2.741734       0.374159
       7.090000       1.747185       2.758437       0.375696
       7.100000       1.730885       2.773890       0.377282
       7.110000       1.712260       2.788820       0.378964
       7.120000       1.691829       2.804049       0.380846
       7.130000       1.670321       2.820230       0.383073
       7.140000       1.648401       2.837631       0.385812
       7.150000       1.626465       2.856033       0.389235
       7.160000       1.604570       2.874774       0.393506
       7.170000       1.582531       2.892904       0.398765
       7.180000       1.560093       2.909378       0.405121
       7.190000       1.537126       2.923229       0.412634
       7.200000       1.513755       2.933685       0.421310
       7.210000       1.490383       2.940233       0.431101
       7.220000       1.467615       2.942627       0.441916
       7.230000       1.446100       2.940848       0.453647
       7.240000       1.426366       2.935073       0.466195
       7.250000       1.408716       2.925699       0.479498
       7.260000       1.393214       2.913421       0.493549
       7.270000       1.379752       2.899320       0.508397
       7.280000       1.368147       2.884866       0.524147
       7.290000       1.358216       2.871744       0.540954
       7.300000       1.349805       2.861544       0.559020
       7.310000       1.342754       2.855360       0.578587
       7.320000       1.336841       2.853460       0.599912
       7.330000       1.331729       2.855103       0.623231
       7.340000       1.326974       2.858592       0.648704
       7.350000       1.322087       2.861567       0.676353
       7.360000       1.316622       2.861489       0.706014
       7.370000       1.310245       2.856180       0.737316
       7.380000       1.302760       2.844262       0.769699
       7.390000       1.294084       2.825359       0.802468
       7.400000       1.284217       2.800019       0.834881
       7.410000       1.273195       2.769434       0.866239
       7.420000       1.261056       2.735068       0.895957
       7.430000       1.247801       2.698330       0.923603
       7.440000       1.233359       2.660366       0.948890
       7.450000       1.217583       2.621961       0.971651
       7.460000       1.200291       2.583552       0.991797
       7.470000       1.181342       2.545335       1.009305
       7.480000       1.160736       2.507430       1.024215
       7.490000       1.138706       2.470086       1.036665
       7.500000       1.115767       2.433839       1.046924
       7.510000       1.092684       2.399545       1.055397
       7.520000       1.070371       2.368269       1.062591
       7.530000       1.049719       2.341095       1.069033
       7.540000       1.031432       2.318922       1.075177
       7.550000       1.015902       2.302304       1.081334
       7.560000       1.003161       2.291344       1.087649
       7.570000       0.992917       2.285620       1.094135
       7.580000       0.984656       2.284166       1.100723
       7.590000       0.977775       2.285525       1.107315
       7.600000       0.971697       2.287892       1.113827
       7.610000       0.965964       2.289315       1.120220
       7.620000       0.960265       2.287928       1.126519
       7.630000       0.954445       2.282166       1.132823
       7.640000       0.948485       2.270931       1.139283
       7.650000       0.942468       2.253691       1.146058
       7.660000       0.936539       2.230489       1.153254
       7.670000       0.930861       2.201860       1.160869
       7.680000       0.925570       2.168666       1.168770
       7.690000       0.920744       2.131896       1.176702
       7.700000       0.916403       2.092492       1.184331
       7.710000       0.912535       2.051246       1.191303
       7.720000       0.909117       2.008785       1.197288
       7.730000       0.906137       1.965618       1.202007
       7.740000       0.903571       1.922208       1.205239
       7.750000       0.901364       1.879041       1.206810
       7.760000       0.899400       1.836644       1.206584
       7.770000       0.897498       1.795566       1.204460
       7.780000       0.895422       1.756316       1.200370
       7.790000       0.892901       1.719306       1.194279
       7.800000       0.889669       1.684826       1.186200
       7.810000       0.885501       1.653057       1.176226
       7.820000       0.880236       1.624078       1.164556
       7.830000       0.873760       1.597839       1.151505
       7.840000       0.865967       1.574098       1.137476
       7.850000       0.856731       1.552360       1.122909
       7.860000       0.845901       1.531894       1.108224
       7.870000       0.833355       1.511847       1.093799
       7.880000       0.819067       1.491432       1.079965
       7.890000       0.803167       1.470135       1.067011
       7.900000       0.785971       1.447854       1.055189
       7.910000       0.767960       1.424918       1.044711
       7.920000       0.749729       1.401973       1.035759
       7.930000       0.731912       1.379785       1.028508
       7.940000       0.715113       1.359030       1.023153
       7.950000       0.699855       1.340130       1.019935
       7.960000       0.686546       1.323187       1.019136
       7.970000       0.675468       1.307991       1.021060
       7.980000       0.666767       1.294116       1.026007
       7.990000       0.660462       1.281049       1.034254
       8.000000       0.656461       1.268333       1.046057
       8.010000       0.654577       1.255681       1.061646
       8.020000       0.654556       1.243011       1.081222
       8.030000       0.656089       1.230403       1.104933
       8.040000       0.658834       1.217998       1.132845
       8.050000       0.662438       1.205901       1.164929
       8.060000       0.666553       1.194133       1.201057
       8.070000       0.670852       1.182661       1.241011
       8.080000       0.675027       1.171460       1.284493
       8.090000       0.678796       1.160575       1.331114
       8.100000       0.681919       1.150151       1.380364
       8.110000       0.684216       1.140403       1.431583
       8.120000       0.685600       1.131559       1.483949
       8.130000       0.686074       1.123777       1.536501
       8.140000       0.685722       1.117101       1.588202
       8.150000       0.684673       1.111451       1.638008
       8.160000       0.683080       1.106661       1.684931
       8.170000       0.681102       1.102535       1.728074
       8.180000       0.678884       1.098883       1.766648
       8.190000       0.676538       1.095535       1.799986
       8.200000       0.674131       1.092319       1.827572
       8.210000       0.671663       1.089040       1.849091
       8.220000       0.669081       1.085470       1.864487
       8.230000       0.666294       1.081355       1.873994
       8.240000       0.663201       1.076440       1.878124
       8.250000       0.659727       1.070518       1.877593
       8.260000       0.655865       1.063493       1.873219
       8.270000       0.651695       1.055428       1.865812
       8.280000       0.647386       1.046555       1.856093
       8.290000       0.643168       1.037239       1.844674
       8.300000       0.639267       1.027889       1.832114
       8.310000       0.635847       1.018879       1.818992
       8.320000       0.632958       1.010497       1.805975
       8.330000       0.630528       1.002946       1.793830
       8.340000       0.628382       0.996356       1.783368
       8.350000       0.626299       0.990802       1.775358
       8.360000       0.624076       0.986284       1.770407
       8.370000       0.621582       0.982693       1.768855
       8.380000       0.618789       0.979786       1.770691
       8.390000       0.615755       0.977195       1.775510
       8.400000       0.612571       0.974485       1.782527
       8.410000       0.609300       0.971258       1.790661
       8.420000       0.605924       0.967251       1.798690
       8.430000       0.602326       0.962405       1.805468
       8.440000       0.598301       0.956863       1.810148
       8.450000       0.593583       0.950899       1.812362
       8.460000       0.587903       0.944800       1.812302
       8.470000       0.581050       0.938763       1.810646
       8.480000       0.572937       0.932826       1.808387
       8.490000       0.563657       0.926882       1.806599
       8.500000       0.553498       0.920753       1.806231
       8.510000       0.542909       0.914319       1.807958
       8.520000       0.532436       0.907623       1.812120
       8.530000       0.522622       0.900942       1.818739
       8.540000       0.513920       0.894773       1.827595
       8.550000       0.506639       0.889756       1.838355
       8.560000       0.500915       0.886568       1.850717
       8.570000       0.496720       0.885811       1.864549
       8.580000       0.493898       0.887947       1.879938
       8.590000       0.492203       0.893257       1.897157
       8.600000       0.491338       0.901844       1.916556
       8.610000       0.490992       0.913669       1.938439
       8.620000       0.490872       0.928601       1.963005
       8.630000       0.490732       0.946468       1.990368
       8.640000       0.490400       0.967080       2.020669
       8.650000       0.489784       0.990211       2.054193
       8.660000       0.488869       1.015562       2.091441
       8.670000       0.487689       1.042725       2.133137
       8.680000       0.486316       1.071182       2.180170
       8.690000       0.484844       1.100345       2.233534
       8.700000       0.483378       1.129625       2.294291
       8.710000       0.482018       1.158514       2.363571
       8.720000       0.480843       1.186644       2.442556
       8.730000       0.479894       1.213821       2.532408
       8.740000       0.479169       1.239990       2.634125
       8.750000       0.478636       1.265147       2.748291
       8.760000       0.478244       1.289220       2.874800
       8.770000       0.477930       1.311969       3.012593
       8.780000       0.477618       1.332974       3.159491
       8.790000       0.477219       1.351732       3.312187
       8.800000       0.476640       1.367844       3.466414
       8.810000       0.475801       1.381183       3.617266
       8.820000       0.474659       1.391964       3.759602
       8.830000       0.473223       1.400658       3.888472
       8.840000       0.471546       1.407803       3.999499
       8.850000       0.469709       1.413799       4.089215
       8.860000       0.467795       1.418826       4.155321
       8.870000       0.465853       1.422907       4.196822
       8.880000       0.463886       1.426060       4.214026
       8.890000       0.461841       1.428464       4.208418
       8.900000       0.459623       1.430523       4.182453
       8.910000       0.457121       1.432817       4.139328
       8.920000       0.454253       1.435981       4.082722
       8.930000       0.450991       1.440557       4.016517
       8.940000       0.447384       1.446877       3.944517
       8.950000       0.443562       1.454980       3.870173
       8.960000       0.439718       1.464583       3.796337
       8.970000       0.436098       1.475093       3.725092
       8.980000       0.432976       1.485690       3.657684
       8.990000       0.430635       1.495464       3.594619
       9.000000       0.429339       1.503604       3.535882
       9.010000       0.429310       1.509571       3.481188
       9.020000       0.430705       1.513203       3.430148
       9.030000       0.433595       1.514736       3.382287
       9.040000       0.437975       1.514697       3.336967
       9.050000       0.443767       1.513742       3.293293
       9.060000       0.450849       1.512479       3.250125
       9.070000       0.459070       1.511337       3.206242
       9.080000       0.468261       1.510503       3.160618
       9.090000       0.478221       1.509897       3.112708
       9.100000       0.488707       1.509151       3.062642
       9.110000       0.499418       1.507610       3.011227
       9.120000       0.510000       1.504375       2.959784
       9.130000       0.520071       1.498446       2.909865
       9.140000       0.529276       1.488951       2.862955
       9.150000       0.537333       1.475427       2.820212
       9.160000       0.544074       1.458039       2.782299
       9.170000       0.549446       1.437665       2.749295
       9.180000       0.553476       1.415790       2.720731
       9.190000       0.556227       1.394248       2.695733
       9.200000       0.557761       1.374924       2.673268
       9.210000       0.558130       1.359479       2.652426
       9.220000       0.557379       1.349171       2.632662
       9.230000       0.555552       1.344777       2.613919
       9.240000       0.552697       1.346601       2.596606
       9.250000       0.548853       1.354561       2.581444
       9.260000       0.544063       1.368323       2.569217
       9.270000       0.538383       1.387453       2.560496
       9.280000       0.531914       1.411533       2.555409
       9.290000       0.524818       1.440212       2.553521
       9.300000       0.517310       1.473156       2.553846
       9.310000       0.509644       1.509946       2.555014
       9.320000       0.502084       1.549970       2.555564
       9.330000       0.494889       1.592370       2.554258
       9.340000       0.488301       1.636073       2.550330
       9.350000       0.482550       1.679870       2.543567
       9.360000       0.477845       1.722532       2.534227
       9.370000       0.474374       1.762902       2.522856
       9.380000       0.472294       1.799979       2.510085
       9.390000       0.471729       1.832977       2.496505
       9.400000       0.472768       1.861342       2.482624
       9.410000       0.475458       1.884721       2.468910
       9.420000       0.479799       1.902884       2.455862
       9.430000       0.485725       1.915641       2.444056
       9.440000       0.493096       1.922789       2.434121
       9.450000       0.501695       1.924126       2.426639
       9.460000       0.511249       1.919535       2.422003
       9.470000       0.521474       1.909119       2.420289
       9.480000       0.532139       1.893333       2.421194
       9.490000       0.543110       1.873024       2.424081
       9.500000       0.554371       1.849346       2.428108
       9.510000       0.565988       1.823535       2.432427
       9.520000       0.578049       1.796648       2.436359
       9.530000       0.590579       1.769351       2.439516
       9.540000       0.603493       1.741879       2.441847
       9.550000       0.616575       1.714164       2.443614
       9.560000       0.629515       1.686071       2.445314
       9.570000       0.641961       1.657631       2.447585
       9.580000       0.653593       1.629167       2.451100
       9.590000       0.664174       1.601281       2.456476
       9.600000       0.673587       1.574745       2.464206
       9.610000       0.681851       1.550371       2.474623
       9.620000       0.689109       1.528917       2.487896
       9.630000       0.695610       1.511029       2.504043
       9.640000       0.701672       1.497237       2.522948
       9.650000       0.707633       1.487952       2.544356
       9.660000       0.713797       1.483452       2.567855
       9.670000       0.720374       1.483842       2.592861
       9.680000       0.727444       1.489000       2.618659
       9.690000       0.734952       1.498520       2.644490
       9.700000       0.742735       1.511706       2.669685
       9.710000       0.750583       1.527627       2.693776
       9.720000       0.758302       1.545229       2.716544
       9.730000       0.765777       1.563483       2.737978
       9.740000       0.772989       1.581506       2.758156
       9.750000       0.779996       1.598636       2.777107
       9.760000       0.786864       1.614416       2.794692
       9.770000       0.793580       1.628527       2.810581
       9.780000       0.799994       1.640689       2.824319
       9.790000       0.805800       1.650583       2.835454
       9.800000       0.810590       1.657809       2.843670
       9.810000       0.813955       1.661879       2.848843
       9.820000       0.815595       1.662238       2.851010
       9.830000       0.815406       1.658324       2.850262
       9.840000       0.813514       1.649667       2.846638
       9.850000       0.810257       1.636032       2.840093
       9.860000       0.806108       1.617527       2.830559
       9.870000       0.801557       1.594641       2.818092
       9.880000       0.796982       1.568172       2.803013
       9.890000       0.792544       1.539071       2.785972
       9.900000       0.788161       1.508273       2.767873
       9.910000       0.783568       1.476580       2.749665
       9.920000       0.778450       1.444611       2.732077
       9.930000       0.772591       1.412819       2.715397
       9.940000       0.765994       1.381562       2.699399
       9.950000       0.758907       1.351176       2.683442
       9.960000       0.751781       1.322039       2.666695
       9.970000       0.745167       1.294581       2.648409
       9.980000       0.739610       1.269241       2.628146
       9.990000       0.735558       1.246368       2.605909
      10.000000       0.733310       1.226123       2.582158
      10.010000       0.732999       1.208405       2.557706
      10.020000       0.734601       1.192856       2.533549
      10.030000       0.737969       1.178930       2.510654
      10.040000       0.742872       1.166023       2.489760
      10.050000       0.749053       1.153597       2.471229
      10.060000       0.756273       1.141295       2.454997
      10.070000       0.764352       1.128983       2.440634
      10.080000       0.773186       1.116744       2.427515
      10.090000       0.782735       1.104828       2.415023
      10.100000       0.792967       1.093574       2.402740
      10.110000       0.803786       1.083335       2.390533
      10.120000       0.814953       1.074407       2.378551
      10.130000       0.826041       1.066976       2.367111
      10.140000       0.836439       1.061074       2.356545
      10.150000       0.845422       1.056562       2.347049
      10.160000       0.852278       1.053123       2.338589
      10.170000       0.856444       1.050296       2.330896
      10.180000       0.857607       1.047531       2.323538
      10.190000       0.855755       1.044280       2.316008
      10.200000       0.851161       1.040103       2.307776
      10.210000       0.844335       1.034754       2.298291
      10.220000       0.835945       1.028232       2.286959
      10.230000       0.826728       1.020757       2.273165
      10.240000       0.817405       1.012702       2.256360
      10.250000       0.808611       1.004492       2.236205
      10.260000       0.800841       0.996521       2.212700
      10.270000       0.794434       0.989099       2.186267
      10.280000       0.789565       0.982424       2.157721
      10.290000       0.786238       0.976579       2.128158
      10.300000       0.784273       0.971536       2.098787
      10.310000       0.783290       0.967161       2.070735
      10.320000       0.782716       0.963240       2.044891
      10.330000       0.781840       0.959506       2.021792
      10.340000       0.779911       0.955674       2.001599
      10.350000       0.776284       0.951463       1.984136
      10.360000       0.770555       0.946607       1.968999
      10.370000       0.762662       0.940859       1.955668
      10.380000       0.752904       0.934004       1.943609
      10.390000       0.741874       0.925882       1.932320
      10.400000       0.730326       0.916414       1.921339
      10.410000       0.719047       0.905630       1.910246
      10.420000       0.708745       0.893678       1.898672
      10.430000       0.699996       0.880810       1.886332
      10.440000       0.693240       0.867358       1.873059
      10.450000       0.688792       0.853705       1.858808
      10.460000       0.686863       0.840250       1.843626
      10.470000       0.687567       0.827383       1.827623
      10.480000       0.690923       0.815437       1.810960
      10.490000       0.696849       0.804665       1.793867
      10.500000       0.705147       0.795212       1.776666
      10.510000       0.715498       0.787125       1.759770
      10.520000       0.727450       0.780375       1.743647
      10.530000       0.740419       0.774897       1.728757
      10.540000       0.753724       0.770633       1.715518
      10.550000       0.766669       0.767540       1.704289
      10.560000       0.778643       0.765575       1.695380
      10.570000       0.789234       0.764636       1.689079
      10.580000       0.798296       0.764494       1.685662
      10.590000       0.805970       0.764768       1.685394
      10.600000       0.812636       0.764942       1.688513
      10.610000       0.818832       0.764460       1.695210
      10.620000       0.825141       0.762843       1.705604
      10.630000       0.832068       0.759781       1.719753
      10.640000       0.839928       0.755166       1.737682
      10.650000       0.848771       0.749049       1.759443
      10.660000       0.858342       0.741566       1.785174
      10.670000       0.868103       0.732871       1.815124
      10.680000       0.877310       0.723109       1.849639
      10.690000       0.885161       0.712446       1.889113
      10.700000       0.890984       0.701110       1.933920
      10.710000       0.894424       0.689423       1.984364
      10.720000       0.895559       0.677785       2.040643
      10.730000       0.894897       0.666624       2.102823
      10.740000       0.893240       0.656321       2.170822
      10.750000       0.891471       0.647143       2.244370
      10.760000       0.890346       0.639202       2.322955
      10.770000       0.890329       0.632458       2.405738
      10.780000       0.891538       0.626742       2.491435
      10.790000       0.893772       0.621781       2.578224
      10.800000       0.896630       0.617236       2.663708
      10.810000       0.899687       0.612730       2.745001
      10.820000       0.902665       0.607901       2.818974
      10.830000       0.905560       0.602456       2.882598
      10.840000       0.908660       0.596232       2.933326
      10.850000       0.912469       0.589225       2.969392
      10.860000       0.917569       0.581577       2.989957
      10.870000       0.924485       0.573533       2.995084
      10.880000       0.933580       0.565384       2.985564
      10.890000       0.945006       0.557419       2.962672
      10.900000       0.958694       0.549884       2.927926
      10.910000       0.974369       0.542961       2.882899
      10.920000       0.991594       0.536739       2.829099
      10.930000       1.009842       0.531205       2.767939
      10.940000       1.028603       0.526241       2.700738
      10.950000       1.047493       0.521647       2.628759
      10.960000       1.066317       0.517174       2.553257
      10.970000       1.085065       0.512567       2.475512
      10.980000       1.103818       0.507593       2.396832
      10.990000       1.122636       0.502074       2.318511
      11.000000       1.141462       0.495915       2.241742
      11.010000       1.160117       0.489130       2.167528
      11.020000       1.178365       0.481852       2.096627
      11.030000       1.196028       0.474320       2.029527
      11.040000       1.213092       0.466830       1.966462
      11.050000       1.229766       0.459673       1.907457
      11.060000       1.246484       0.453075       1.852385
      11.070000       1.263865       0.447159       1.801034
      11.080000       1.282656       0.441941       1.753163
      11.090000       1.303668       0.437356       1.708544
      11.100000       1.327717       0.433292       1.666964
      11.110000       1.355523       0.429613       1.628222
      11.120000       1.387578       0.426173       1.592117
      11.130000       1.424004       0.422807       1.558457
      11.140000       1.464446       0.419327       1.527066
      11.150000       1.508067       0.415542       1.497797
      11.160000       1.553652       0.411291       1.470522
      11.170000       1.599794       0.406485       1.445133
      11.180000       1.645114       0.401132       1.421545
      11.190000       1.688433       0.395339       1.399711
      11.200000       1.728868       0.389285       1.379631
      11.210000       1.765839       0.383191       1.361341
      11.220000       1.799016       0.377280       1.344889
      11.230000       1.828219       0.371756       1.330306
      11.240000       1.853312       0.366771       1.317593
      11.250000       1.874143       0.362414       1.306715
      11.260000       1.890563       0.358695       1.297587
      11.270000       1.902547       0.355554       1.290049
      11.280000       1.910331       0.352870       1.283822
      11.290000       1.914501       0.350484       1.278477
      11.300000       1.915946       0.348227       1.273450
      11.310000       1.915692       0.345945       1.268117
      11.320000       1.914670       0.343521       1.261934
      11.330000       1.913521       0.340878       1.254581
      11.340000       1.912499       0.337989       1.246078
      11.350000       1.911478       0.334870       1.236806
      11.360000       1.910052       0.331569       1.227442
      11.370000       1.907692       0.328168       1.218816
      11.380000       1.903929       0.324775       1.211754
      11.390000       1.898523       0.321525       1.206920
      11.400000       1.891569       0.318573       1.204717
      11.410000       1.883483       0.316083       1.205210
      11.420000       1.874906       0.314202       1.208107
      11.430000       1.866531       0.313029       1.212768
      11.440000       1.858929       0.312595       1.218261
      11.450000       1.852410       0.312851       1.223463
      11.460000       1.846947       0.313683       1.227207
      11.470000       1.842178       0.314930       1.228440
      11.480000       1.837492       0.316428       1.226376
      11.490000       1.832200       0.318037       1.220595
      11.500000       1.825732       0.319675       1.211073
      11.510000       1.817798       0.321323       1.198131
      11.520000       1.808468       0.323025       1.182304
      11.530000       1.798144       0.324871       1.164196
      11.540000       1.787473       0.326972       1.144347
      11.550000       1.777213       0.329432       1.123166
      11.560000       1.768089       0.332316       1.100951
      11.570000       1.760641       0.335637       1.077946
      11.580000       1.755092       0.339339       1.054416
      11.590000       1.751278       0.343310       1.030683
      11.600000       1.748679       0.347397       1.007123
      11.610000       1.746534       0.351438       0.984124
      11.620000       1.744006       0.355282       0.962025
      11.630000       1.740317       0.358809       0.941062
      11.640000       1.734831       0.361927       0.921330
      11.650000       1.727064       0.364560       0.902780
      11.660000       1.716663       0.366640       0.885238
      11.670000       1.703370       0.368107       0.868466
      11.680000       1.686975       0.368921       0.852227
      11.690000       1.667296       0.369094       0.836356
      11.700000       1.644194       0.368703       0.820797
      11.710000       1.617669       0.367892       0.805609
      11.720000       1.587981       0.366857       0.790935
      11.730000       1.555736       0.365800       0.776954
      11.740000       1.521877       0.364889       0.763838
      11.750000       1.487553       0.364223       0.751738
      11.760000       1.453923       0.363830       0.740790
      11.770000       1.421958       0.363694       0.731126
      11.780000       1.392314       0.363796       0.722877
      11.790000       1.365296       0.364145       0.716150
      11.800000       1.340914       0.364784       0.711001
      11.810000       1.319007       0.365770       0.707406
      11.820000       1.299385       0.367140       0.705239
      11.830000       1.281928       0.368883       0.704263
      11.840000       1.266618       0.370929       0.704137
      11.850000       1.253496       0.373167       0.704448
      11.860000       1.242597       0.375474       0.704746
      11.870000       1.233899       0.377758       0.704589
      11.880000       1.227335       0.379981       0.703581
      11.890000       1.222831       0.382170       0.701414
      11.900000       1.220352       0.384388       0.697907
      11.910000       1.219907       0.386708       0.693047
      11.920000       1.221481       0.389160       0.687009
      11.930000       1.224938       0.391713       0.680137
      11.940000       1.229927       0.394273       0.672891
      11.950000       1.235861       0.396713       0.665756
      11.960000       1.241993       0.398927       0.659164
      11.970000       1.247581       0.400883       0.653425
      11.980000       1.252076       0.402656       0.648698
      11.990000       1.255261       0.404409       0.644993
      12.000000       1.257275       0.406354       0.642197
      12.010000       1.258512       0.408686       0.640110
      12.020000       1.259421       0.411531       0.638479
      12.030000       1.260322       0.414917       0.637022
      12.040000       1.261286       0.418768       0.635436
      12.050000       1.262156       0.422926       0.633415
      12.060000       1.262664       0.427189       0.630670
      12.070000       1.262594       0.431343       0.626949
      12.080000       1.261915       0.435198       0.622067
      12.090000       1.260837       0.438601       0.615917
      12.100000       1.259779       0.441439       0.608482
      12.110000       1.259279       0.443634       0.599841
      12.120000       1.259862       0.445137       0.590172
      12.130000       1.261920       0.445936       0.579750
      12.140000       1.265584       0.446059       0.568933
      12.150000       1.270650       0.445578       0.558137
      12.160000       1.276542       0.444611       0.547804
      12.170000       1.282339       0.443307       0.538362
      12.180000       1.286845       0.441839       0.530183
      12.190000       1.288710       0.440390       0.523549
      12.200000       1.286586       0.439138       0.518632
      12.210000       1.279325       0.438244       0.515482
      12.220000       1.266195       0.437846       0.514034
      12.230000       1.247048       0.438057       0.514121
      12.240000       1.222367       0.438960       0.515503
      12.250000       1.193171       0.440614       0.517895
      12.260000       1.160823       0.443050       0.520998
      12.270000       1.126812       0.446258       0.524527
      12.280000       1.092590       0.450180       0.528217
      12.290000       1.059472       0.454704       0.531819
      12.300000       1.028598       0.459671       0.535091
      12.310000       1.000908       0.464898       0.537794
      12.320000       0.977125       0.470209       0.539703
      12.330000       0.957739       0.475468       0.540633
      12.340000       0.942989       0.480596       0.540457
      12.350000       0.932861       0.485582       0.539118
      12.360000       0.927086       0.490467       0.536623
      12.370000       0.925160       0.495334       0.533035
      12.380000       0.926361       0.500293       0.528469
      12.390000       0.929800       0.505471       0.523091
      12.400000       0.934488       0.511009       0.517136
      12.410000       0.939413       0.517051       0.510905
      12.420000       0.943638       0.523723       0.504752
      12.430000       0.946378       0.531102       0.499035
      12.440000       0.947064       0.539186       0.494068
      12.450000       0.945404       0.547879       0.490081
      12.460000       0.941410       0.556987       0.487200
      12.470000       0.935411       0.566238       0.485451
      12.480000       0.928000       0.575309       0.484781
      12.490000       0.919929       0.583853       0.485063
      12.500000       0.911968       0.591535       0.486098
      12.510000       0.904770       0.598068       0.487607
      12.520000       0.898764       0.603253       0.489245
      12.530000       0.894111       0.607004       0.490618
      12.540000       0.890707       0.609357       0.491336
      12.550000       0.888235       0.610432       0.491067
      12.560000       0.886254       0.610377       0.489589
      12.570000       0.884321       0.609312       0.486825
      12.580000       0.882124       0.607290       0.482848
      12.590000       0.879591       0.604321       0.477863
      12.600000       0.876953       0.600417       0.472167
      12.610000       0.874711       0.595671       0.466090
      12.620000       0.873544       0.590306       0.459951
      12.630000       0.874160       0.584688       0.454007
      12.640000       0.877153       0.579280       0.448442
      12.650000       0.882887       0.574579       0.443366
      12.660000       0.891433       0.571029       0.438835
      12.670000       0.902569       0.568968       0.434890
      12.680000       0.915837       0.568586       0.431573
      12.690000       0.930649       0.569911       0.428938
      12.700000       0.946409       0.572816       0.427039
      12.710000       0.962604       0.577045       0.425896
      12.720000       0.978844       0.582247       0.425469
      12.730000       0.994820       0.588026       0.425634
      12.740000       1.010237       0.593973       0.426177
      12.750000       1.024741       0.599705       0.426810
      12.760000       1.037884       0.604886       0.427196
      12.770000       1.049150       0.609249       0.426999
      12.780000       1.058020       0.612621       0.425933
      12.790000       1.064034       0.614933       0.423808
      12.800000       1.066824       0.616223       0.420566
      12.810000       1.066118       0.616620       0.416284
      12.820000       1.061702       0.616303       0.411161
      12.830000       1.053397       0.615442       0.405475
      12.840000       1.041067       0.614153       0.399528
      12.850000       1.024663       0.612470       0.393603
      12.860000       1.004319       0.610368       0.387925
      12.870000       0.980432       0.607813       0.382663
      12.880000       0.953689       0.604833       0.377941
      12.890000       0.925023       0.601565       0.373855
      12.900000       0.895499       0.598267       0.370492
      12.910000       0.866182       0.595296       0.367921
      12.920000       0.838031       0.593054       0.366183
      12.930000       0.811838       0.591932       0.365267
      12.940000       0.788194       0.592256       0.365099
      12.950000       0.767477       0.594238       0.365534
      12.960000       0.749841       0.597941       0.366378
      12.970000       0.735214       0.603260       0.367409
      12.980000       0.723307       0.609929       0.368421
      12.990000       0.713637       0.617567       0.369247
      13.000000       0.705588       0.625734       0.369779
      13.010000       0.698484       0.633999       0.369957
      13.020000       0.691701       0.642001       0.369752
      13.030000       0.684776       0.649486       0.369135
      13.040000       0.677499       0.656320       0.368069
      13.050000       0.669941       0.662477       0.366510
      13.060000       0.662408       0.668005       0.364426
      13.070000       0.655339       0.672973       0.361820
      13.080000       0.649178       0.677423       0.358738
      13.090000       0.644273       0.681331       0.355267
      13.100000       0.640809       0.684590       0.351519
      13.110000       0.638808       0.687014       0.347605
      13.120000       0.638157       0.688366       0.343626
      13.130000       0.638690       0.688403       0.339664
      13.140000       0.640256       0.686938       0.335788
      13.150000       0.642790       0.683903       0.332057
      13.160000       0.646322       0.679398       0.328526
      13.170000       0.650940       0.673715       0.325245
      13.180000       0.656722       0.667323       0.322249
      13.190000       0.663650       0.660804       0.319555
      13.200000       0.671561       0.654772       0.317156
      13.210000       0.680144       0.649768       0.315026
      13.220000       0.688985       0.646181       0.313119
      13.230000       0.697646       0.644202       0.311377
      13.240000       0.705763       0.643817       0.309727
      13.250000       0.713114       0.644839       0.308080
      13.260000       0.719645       0.646964       0.306330
      13.270000       0.725431       0.649827       0.304367
      13.280000       0.730592       0.653046       0.302097
      13.290000       0.735195       0.656250       0.299469
      13.300000       0.739206       0.659093       0.296487
      13.310000       0.742493       0.661266       0.293222
      13.320000       0.744885       0.662507       0.289800
      13.330000       0.746233       0.662602       0.286381
      13.340000       0.746453       0.661391       0.283132
      13.350000       0.745528       0.658770       0.280203
      13.360000       0.743495       0.654696       0.277714
      13.370000       0.740428       0.649187       0.275740
      13.380000       0.736453       0.642314       0.274310
      13.390000       0.731778       0.634190       0.273405
      13.400000       0.726712       0.624958       0.272971
      13.410000       0.721656       0.614785       0.272926
      13.420000       0.717057       0.603870       0.273177
      13.430000       0.713341       0.592443       0.273624
      13.440000       0.710838       0.580780       0.274173
      13.450000       0.709742       0.569198       0.274728
      13.460000       0.710095       0.558045       0.275187
      13.470000       0.711799       0.547677       0.275449
      13.480000       0.714648       0.538433       0.275418
      13.490000       0.718373       0.530608       0.275019
      13.500000       0.722662       0.524443       0.274211
      13.510000       0.727169       0.520104       0.272994
      13.520000       0.731505       0.517674       0.271402
      13.530000       0.735220       0.517136       0.269499
      13.540000       0.737799       0.518374       0.267360
      13.550000       0.738670       0.521168       0.265071
      13.560000       0.737244       0.525215       0.262723
      13.570000       0.732985       0.530147       0.260409
      13.580000       0.725498       0.535554       0.258224
      13.590000       0.714626       0.540998       0.256252
      13.600000       0.700497       0.546043       0.254557
      13.610000       0.683522       0.550286       0.253182
      13.620000       0.664328       0.553402       0.252145
      13.630000       0.643663       0.555194       0.251449
      13.640000       0.622300       0.555626       0.251092
      13.650000       0.600968       0.554817       0.251080
      13.660000       0.580313       0.553007       0.251426
      13.670000       0.560873       0.550506       0.252150
      13.680000       0.543061       0.547632       0.253271
      13.690000       0.527149       0.544670       0.254801
      13.700000       0.513262       0.541829       0.256737
      13.710000       0.501384       0.539226       0.259063
      13.720000       0.491386       0.536878       0.261754
      13.730000       0.483064       0.534723       0.264781
      13.740000       0.476189       0.532655       0.268115
      13.750000       0.470554       0.530579       0.271735
      13.760000       0.466001       0.528457       0.275629
      13.770000       0.462423       0.526328       0.279805
      13.780000       0.459741       0.524315       0.284290
      13.790000       0.457867       0.522606       0.289131
      13.800000       0.456679       0.521426       0.294388
      13.810000       0.456006       0.521022       0.300126
      13.820000       0.455636       0.521633       0.306403
      13.830000       0.455332       0.523473       0.313261
      13.840000       0.454865       0.526711       0.320724
      13.850000       0.454063       0.531436       0.328792
      13.860000       0.452846       0.537631       0.337446
      13.870000       0.451246       0.545138       0.346657
      13.880000       0.449398       0.553620       0.356392
      13.890000       0.447498       0.562552       0.366612
      13.900000       0.445759       0.571237       0.377268
      13.910000       0.444357       0.578882       0.388296
      13.920000       0.443404       0.584715       0.399611
      13.930000       0.442931       0.588132       0.411116
      13.940000       0.442898       0.588819       0.422712
      13.950000       0.443217       0.586807       0.434319
      13.960000       0.443777       0.582442       0.445878
      13.970000       0.444479       0.576286       0.457358
      13.980000       0.445262       0.568999       0.468739
      13.990000       0.446123       0.561229       0.480002
      14.000000       0.447106       0.553537       0.491112
      14.010000       0.448281       0.546355       0.502005
      14.020000       0.449701       0.539969       0.512579
      14.030000       0.451374       0.534532       0.522699
      14.040000       0.453243       0.530086       0.532196
      14.050000       0.455201       0.526597       0.540884
      14.060000       0.457112       0.523985       0.548584
      14.070000       0.458856       0.522151       0.555147
      14.080000       0.460367       0.520989       0.560470
      14.090000       0.461676       0.520395       0.564504
      14.100000       0.462928       0.520268       0.567244
      14.110000       0.464367       0.520514       0.568711
      14.120000       0.466295       0.521039       0.568944
      14.130000       0.468999       0.521742       0.567995
      14.140000       0.472695       0.522502       0.565931
      14.150000       0.477484       0.523163       0.562837
      14.160000       0.483333       0.523523       0.558808
      14.170000       0.490063       0.523333       0.553936
      14.180000       0.497371       0.522310       0.548288
      14.190000       0.504865       0.520182       0.541894
      14.200000       0.512115       0.516742       0.534748
      14.210000       0.518731       0.511911       0.526825
      14.220000       0.524421       0.505772       0.518102
      14.230000       0.529031       0.498564       0.508585
      14.240000       0.532562       0.490629       0.498322
      14.250000       0.535150       0.482333       0.487414
      14.260000       0.537035       0.473990       0.475996
      14.270000       0.538501       0.465796       0.464226
      14.280000       0.539806       0.457812       0.452248
      14.290000       0.541108       0.449971       0.440184
      14.300000       0.542422       0.442113       0.428119
      14.310000       0.543614       0.434042       0.416101
      14.320000       0.544456       0.425582       0.404150
      14.330000       0.544710       0.416624       0.392262
      14.340000       0.544200       0.407159       0.380424
      14.350000       0.542840       0.397281       0.368628
      14.360000       0.540617       0.387163       0.356882
      14.370000       0.537544       0.377027       0.345227
      14.380000       0.533624       0.367107       0.333737
      14.390000       0.528841       0.357624       0.322521
      14.400000       0.523186       0.348770       0.311711
      14.410000       0.516674       0.340699       0.301448
      14.420000       0.509367       0.333521       0.291860
      14.430000       0.501365       0.327296       0.283053
      14.440000       0.492800       0.322037       0.275104
      14.450000       0.483830       0.317710       0.268055
      14.460000       0.474632       0.314246       0.261922
      14.470000       0.465404       0.311551       0.256696
      14.480000       0.456358       0.309522       0.252348
      14.490000       0.447714       0.308047       0.248836
      14.500000       0.439674       0.307016       0.246105
      14.510000       0.432400       0.306314       0.244085
      14.520000       0.425982       0.305830       0.242701
      14.530000       0.420409       0.305462       0.241864
      14.540000       0.415572       0.305126       0.241480
      14.550000       0.411280       0.304763       0.241450
      14.560000       0.407297       0.304336       0.241661
      14.570000       0.403401       0.303828       0.241986
      14.580000       0.399434       0.303227       0.242279
      14.590000       0.395334       0.302523       0.242391
      14.600000       0.391147       0.301690       0.242182
      14.610000       0.387006       0.300690       0.241553
      14.620000       0.383095       0.299478       0.240467
      14.630000       0.379613       0.298015       0.238954
      14.640000       0.376742       0.296285       0.237104
      14.650000       0.374631       0.294305       0.235043
      14.660000       0.373381       0.292114       0.232905
      14.670000       0.373034       0.289764       0.230809
      14.680000       0.373561       0.287301       0.228844
      14.690000       0.374856       0.284746       0.227068
      14.700000       0.376735       0.282093       0.225507
      14.710000       0.378955       0.279322       0.224169
      14.720000       0.381243       0.276414       0.223044
      14.730000       0.383328       0.273375       0.222119
      14.740000       0.384978       0.270240       0.221377
      14.750000       0.386027       0.267075       0.220801
      14.760000       0.386403       0.263956       0.220374
      14.770000       0.386135       0.260955       0.220082
      14.780000       0.385358       0.258128       0.219920
      14.790000       0.384295       0.255515       0.219896
      14.800000       0.383231       0.253143       0.220035
      14.810000       0.382478       0.251041       0.220376
      14.820000       0.382341       0.249236       0.220965
      14.830000       0.383088       0.247747       0.221848
      14.840000       0.384923       0.246578       0.223051
      14.850000       0.387969       0.245710       0.224582
      14.860000       0.392255       0.245103       0.226420
      14.870000       0.397713       0.244710       0.228526
      14.880000       0.404180       0.244473       0.230846
      14.890000       0.411397       0.244337       0.233328
      14.900000       0.419035       0.244252       0.235933
      14.910000       0.426717       0.244176       0.238642
      14.920000       0.434080       0.244085       0.241461
      14.930000       0.440828       0.243976       0.244412
      14.940000       0.446794       0.243868       0.247520
      14.950000       0.451961       0.243787       0.250807
      14.960000       0.456450       0.243754       0.254287
      14.970000       0.460464       0.243768       0.257967
      14.980000       0.464232       0.243805       0.261858
      14.990000       0.467945       0.243822       0.265981
      15.000000       0.471740       0.243767       0.270381
      15.010000       0.475697       0.243600       0.275124
      15.020000       0.479859       0.243300       0.280293
      15.030000       0.484252       0.242870       0.285979
      15.040000       0.488874       0.242338       0.292269
      15.050000       0.493689       0.241739       0.299235
      15.060000       0.498615       0.241114       0.306929
      15.070000       0.503525       0.240490       0.315373
      15.080000       0.508272       0.239882       0.324562
      15.090000       0.512721       0.239291       0.334455
      15.100000       0.516778       0.238712       0.344986
      15.110000       0.520400       0.238138       0.356071
      15.120000       0.523586       0.237566       0.367622
      15.130000       0.526341       0.236995       0.379573
      15.140000       0.528626       0.236420       0.391892
      15.150000       0.530310       0.235830       0.404597
      15.160000       0.531146       0.235207       0.417745
      15.170000       0.530790       0.234535       0.431414
      15.180000       0.528868       0.233808       0.445681
      15.190000       0.525065       0.233034       0.460595
      15.200000       0.519214       0.232238       0.476165
      15.210000       0.511341       0.231452       0.492355
      15.220000       0.501670       0.230714       0.509091
      15.230000       0.490586       0.230066       0.526262
      15.240000       0.478563       0.229556       0.543733
      15.250000       0.466104       0.229231       0.561344
      15.260000       0.453678       0.229133       0.578911
      15.270000       0.441677       0.229284       0.596228
      15.280000       0.430387       0.229676       0.613074
      15.290000       0.419971       0.230268       0.629221
      15.300000       0.410467       0.230987       0.644457
      15.310000       0.401808       0.231737       0.658607
      15.320000       0.393850       0.232415       0.671556
      15.330000       0.386425       0.232924       0.683252
      15.340000       0.379391       0.233195       0.693703
      15.350000       0.372675       0.233194       0.702946
      15.360000       0.366280       0.232926       0.711020
      15.370000       0.360274       0.232424       0.717941
      15.380000       0.354736       0.231734       0.723696
      15.390000       0.349716       0.230890       0.728232
      15.400000       0.345195       0.229909       0.731462
      15.410000       0.341082       0.228786       0.733263
      15.420000       0.337234       0.227506       0.733482
      15.430000       0.333503       0.226063       0.731950
      15.440000       0.329774       0.224467       0.728514
      15.450000       0.326004       0.222749       0.723083
      15.460000       0.322227       0.220951       0.715672
      15.470000       0.318540       0.219114       0.706424
      15.480000       0.315081       0.217275       0.695600
      15.490000       0.312002       0.215464       0.683546
      15.500000       0.309452       0.213707       0.670643
      15.510000       0.307556       0.212039       0.657264
      15.520000       0.306409       0.210494       0.643734
      15.530000       0.306062       0.209109       0.630321
      15.540000       0.306527       0.207916       0.617225
      15.550000       0.307772       0.206934       0.604585
      15.560000       0.309739       0.206171       0.592474
      15.570000       0.312358       0.205619       0.580908
      15.580000       0.315557       0.205258       0.569851
      15.590000       0.319275       0.205052       0.559234
      15.600000       0.323455       0.204955       0.548973
      15.610000       0.328042       0.204911       0.538982
      15.620000       0.332974       0.204859       0.529180
      15.630000       0.338174       0.204737       0.519487
      15.640000       0.343558       0.204492       0.509827
      15.650000       0.349041       0.204085       0.500129
      15.660000       0.354555       0.203502       0.490340
      15.670000       0.360061       0.202753       0.480430
      15.680000       0.365544       0.201865       0.470406
      15.690000       0.371006       0.200874       0.460308
      15.700000       0.376444       0.199809       0.450188
      15.710000       0.381829       0.198691       0.440087
      15.720000       0.387086       0.197528       0.430004
      15.730000       0.392077       0.196319       0.419880
      15.740000       0.396600       0.195055       0.409596
      15.750000       0.400399       0.193722       0.399000
      15.760000       0.403200       0.192303       0.387950
      15.770000       0.404762       0.190783       0.376354
      15.780000       0.404936       0.189156       0.364198
      15.790000       0.403712       0.187433       0.351550
      15.800000       0.401234       0.185643       0.338540
      15.810000       0.397780       0.183834       0.325348
      15.820000       0.393714       0.182061       0.312174
      15.830000       0.389408       0.180388       0.299232
      15.840000       0.385172       0.178875       0.286723
      15.850000       0.381195       0.177576       0.274821
      15.860000       0.377525       0.176534       0.263654
      15.870000       0.374084       0.175782       0.253298
      15.880000       0.370718       0.175341       0.243780
      15.890000       0.367272       0.175224       0.235085
      15.900000       0.363654       0.175440       0.227173
      15.910000       0.359866       0.175993       0.219984
      15.920000       0.356003       0.176877       0.213456
      15.930000       0.352212       0.178069       0.207526
      15.940000       0.348639       0.179525       0.202133
      15.950000       0.345397       0.181173       0.197228
      15.960000       0.342548       0.182918       0.192765
      15.970000       0.340114       0.184647       0.188708
      15.980000       0.338091       0.186242       0.185031
      15.990000       0.336463       0.187594       0.181719
      16.000000       0.335206       0.188612       0.178769
      16.010000       0.334281       0.189236       0.176191
      16.020000       0.333633       0.189441       0.174005
      16.030000       0.333191       0.189229       0.172227
      16.040000       0.332870       0.188631       0.170866
      16.050000       0.332571       0.187692       0.169908
      16.060000       0.332184       0.186466       0.169316
      16.070000       0.331584       0.185014       0.169030
      16.080000       0.330646       0.183407       0.168974
      16.090000       0.329245       0.181724       0.169064
      16.100000       0.327278       0.180051       0.169221
      16.110000       0.324672       0.178475       0.169372
      16.120000       0.321397       0.177075       0.169456
      16.130000       0.317479       0.175917       0.169422
      16.140000       0.313005       0.175046       0.169230
      16.150000       0.308122       0.174490       0.168849
      16.160000       0.303023       0.174258       0.168265
      16.170000       0.297938       0.174342       0.167480
      16.180000       0.293101       0.174713       0.166511
      16.190000       0.288733       0.175323       0.165388
      16.200000       0.285013       0.176101       0.164150
      16.210000       0.282061       0.176961       0.162844
      16.220000       0.279926       0.177808       0.161523
      16.230000       0.278591       0.178552       0.160244
      16.240000       0.277976       0.179115       0.159065
      16.250000       0.277955       0.179440       0.158040
      16.260000       0.278368       0.179500       0.157212
      16.270000       0.279046       0.179292       0.156609
      16.280000       0.279826       0.178840       0.156236
      16.290000       0.280567       0.178189       0.156081
      16.300000       0.281161       0.177394       0.156108
      16.310000       0.281542       0.176514       0.156273
      16.320000       0.281687       0.175607       0.156523
      16.330000       0.281623       0.174725       0.156814
      16.340000       0.281415       0.173913       0.157107
      16.350000       0.281167       0.173212       0.157376
      16.360000       0.281000       0.172655       0.157605
      16.370000       0.281049       0.172278       0.157790
      16.380000       0.281445       0.172111       0.157940
      16.390000       0.282314       0.172186       0.158083
      16.400000       0.283775       0.172525       0.158261
      16.410000       0.285936       0.173142       0.158526
      16.420000       0.288890       0.174036       0.158926
      16.430000       0.292709       0.175186       0.159498
      16.440000       0.297437       0.176554       0.160255
      16.450000       0.303078       0.178086       0.161182
      16.460000       0.309582       0.179712       0.162240
      16.470000       0.316835       0.181353       0.163376
      16.480000       0.324637       0.182921       0.164532
      16.490000       0.332694       0.184317       0.165654
      16.500000       0.340606       0.185447       0.166694
      16.510000       0.347880       0.186223       0.167613
      16.520000       0.353962       0.186585       0.168383
      16.530000       0.358305       0.186507       0.168980
      16.540000       0.360455       0.186003       0.169389
      16.550000       0.360139       0.185119       0.169598
      16.560000       0.357330       0.183927       0.169603
      16.570000       0.352250       0.182505       0.169406
      16.580000       0.345327       0.180931       0.169022
      16.590000       0.337107       0.179269       0.168482
      16.600000       0.328161       0.177573       0.167825
      16.610000       0.319008       0.175882       0.167101
      16.620000       0.310066       0.174224       0.166348
      16.630000       0.301636       0.172622       0.165593
      16.640000       0.293911       0.171099       0.164841
      16.650000       0.286998       0.169675       0.164070
      16.660000       0.280940       0.168374       0.163241
      16.670000       0.275734       0.167212       0.162304
      16.680000       0.271333       0.166200       0.161208
      16.690000       0.267643       0.165338       0.159921
      16.700000       0.264522       0.164613       0.158430
      16.710000       0.261785       0.164000       0.156749
      16.720000       0.259224       0.163465       0.154909
      16.730000       0.256644       0.162969       0.152954
      16.740000       0.253896       0.162474       0.150931
      16.750000       0.250912       0.161953       0.148887
      16.760000       0.247711       0.161392       0.146872
      16.770000       0.244396       0.160795       0.144931
      16.780000       0.241124       0.160174       0.143108
      16.790000       0.238076       0.159546       0.141443
      16.800000       0.235421       0.158924       0.139963
      16.810000       0.233289       0.158313       0.138684
      16.820000       0.231758       0.157710       0.137608
      16.830000       0.230844       0.157110       0.136727
      16.840000       0.230506       0.156505       0.136023
      16.850000       0.230654       0.155885       0.135471
      16.860000       0.231166       0.155241       0.135050
      16.870000       0.231909       0.154562       0.134743
      16.880000       0.232761       0.153833       0.134541
      16.890000       0.233631       0.153041       0.134447
      16.900000       0.234460       0.152183       0.134468
      16.910000       0.235221       0.151270       0.134613
      16.920000       0.235907       0.150328       0.134886
      16.930000       0.236512       0.149405       0.135279
      16.940000       0.237031       0.148553       0.135772
      16.950000       0.237456       0.147829       0.136334
      16.960000       0.237780       0.147278       0.136927
      16.970000       0.238005       0.146927       0.137512
      16.980000       0.238150       0.146783       0.138055
      16.990000       0.238256       0.146832       0.138526
      17.000000       0.238374       0.147043       0.138897
      17.010000       0.238547       0.147369       0.139141
      17.020000       0.238790       0.147756       0.139232
      17.030000       0.239077       0.148144       0.139151
      17.040000       0.239336       0.148475       0.138891
      17.050000       0.239473       0.148700       0.138463
      17.060000       0.239388       0.148789       0.137898
      17.070000       0.238997       0.148735       0.137234
      17.080000       0.238247       0.148557       0.136513
      17.090000       0.237122       0.148299       0.135770
      17.100000       0.235636       0.148016       0.135030
      17.110000       0.233832       0.147766       0.134307
      17.120000       0.231771       0.147591       0.133612
      17.130000       0.229521       0.147508       0.132954
      17.140000       0.227149       0.147504       0.132342
      17.150000       0.224706       0.147539       0.131791
      17.160000       0.222220       0.147557       0.131318
      17.170000       0.219690       0.147499       0.130938
      17.180000       0.217089       0.147324       0.130656
      17.190000       0.214378       0.147008       0.130470
      17.200000       0.211523       0.146554       0.130361
      17.210000       0.208517       0.145978       0.130307
      17.220000       0.205392       0.145309       0.130280
      17.230000       0.202225       0.144577       0.130259
      17.240000       0.199125       0.143814       0.130234
      17.250000       0.196216       0.143048       0.130202
      17.260000       0.193616       0.142305       0.130170
      17.270000       0.191422       0.141607       0.130143
      17.280000       0.189698       0.140976       0.130126
      17.290000       0.188471       0.140429       0.130117
      17.300000       0.187735       0.139981       0.130107
      17.310000       0.187451       0.139639       0.130087
      17.320000       0.187558       0.139402       0.130046
      17.330000       0.187987       0.139261       0.129981
      17.340000       0.188661       0.139201       0.129890
      17.350000       0.189505       0.139208       0.129776
      17.360000       0.190440       0.139267       0.129642
      17.370000       0.191381       0.139370       0.129487
      17.380000       0.192235       0.139507       0.129303
      17.390000       0.192913       0.139670       0.129073
      17.400000       0.193335       0.139842       0.128772
      17.410000       0.193452       0.140002       0.128378
      17.420000       0.193253       0.140126       0.127876
      17.430000       0.192768       0.140196       0.127268
      17.440000       0.192060       0.140202       0.126574
      17.450000       0.191215       0.140144       0.125830
      17.460000       0.190316       0.140021       0.125072
      17.470000       0.189430       0.139832       0.124331
      17.480000       0.188594       0.139560       0.123618
      17.490000       0.187817       0.139176       0.122926
      17.500000       0.187092       0.138638       0.122233
      17.510000       0.186410       0.137903       0.121513
      17.520000       0.185774       0.136940       0.120744
      17.530000       0.185206       0.135742       0.119918
      17.540000       0.184736       0.134334       0.119041
      17.550000       0.184392       0.132772       0.118134
      17.560000       0.184191       0.131133       0.117226
      17.570000       0.184126       0.129502       0.116356
      17.580000       0.184176       0.127957       0.115559
      17.590000       0.184306       0.126558       0.114869
      17.600000       0.184481       0.125340       0.114310
      17.610000       0.184663       0.124313       0.113896
      17.620000       0.184822       0.123466       0.113629
      17.630000       0.184934       0.122779       0.113503
      17.640000       0.184980       0.122226       0.113500
      17.650000       0.184948       0.121788       0.113602
      17.660000       0.184828       0.121452       0.113782
      17.670000       0.184613       0.121210       0.114018
      17.680000       0.184299       0.121060       0.114285
      17.690000       0.183885       0.121001       0.114561
      17.700000       0.183373       0.121029       0.114828
      17.710000       0.182774       0.121137       0.115075
      17.720000       0.182099       0.121318       0.115294
      17.730000       0.181359       0.121559       0.115483
      17.740000       0.180557       0.121839       0.115645
      17.750000       0.179692       0.122134       0.115785
      17.760000       0.178760       0.122411       0.115908
      17.770000       0.177759       0.122632       0.116020
      17.780000       0.176693       0.122759       0.116124
      17.790000       0.175561       0.122760       0.116214
      17.800000       0.174362       0.122609       0.116281
      17.810000       0.173094       0.122296       0.116308
      17.820000       0.171757       0.121829       0.116279
      17.830000       0.170363       0.121232       0.116183
      17.840000       0.168931       0.120547       0.116020
      17.850000       0.167492       0.119826       0.115807
      17.860000       0.166074       0.119126       0.115569
      17.870000       0.164693       0.118501       0.115340
      17.880000       0.163355       0.117996       0.115153
      17.890000       0.162050       0.117644       0.115041
      17.900000       0.160762       0.117457       0.115033
      17.910000       0.159476       0.117428       0.115157
      17.920000       0.158184       0.117535       0.115437
      17.930000       0.156886       0.117739       0.115894
      17.940000       0.155593       0.117997       0.116547
      17.950000       0.154321       0.118267       0.117407
      17.960000       0.153095       0.118517       0.118475
      17.970000       0.151943       0.118727       0.119748
      17.980000       0.150891       0.118893       0.121216
      17.990000       0.149961       0.119021       0.122871
      18.000000       0.149167       0.119120       0.124707
      18.010000       0.148509       0.119198       0.126724
      18.020000       0.147976       0.119256       0.128925
      18.030000       0.147543       0.119286       0.131310
      18.040000       0.147177       0.119272       0.133875
      18.050000       0.146844       0.119198       0.136605
      18.060000       0.146514       0.119050       0.139478
      18.070000       0.146166       0.118815       0.142467
      18.080000       0.145796       0.118493       0.145548
      18.090000       0.145409       0.118086       0.148701
      18.100000       0.145011       0.117607       0.151914
      18.110000       0.144604       0.117074       0.155177
      18.120000       0.144173       0.116505       0.158485
      18.130000       0.143692       0.115918       0.161832
      18.140000       0.143127       0.115328       0.165212
      18.150000       0.142446       0.114741       0.168617
      18.160000       0.141626       0.114156       0.172035
      18.170000       0.140668       0.113567       0.175448
      18.180000       0.139595       0.112959       0.178829
      18.190000       0.138458       0.112321       0.182142
      18.200000       0.137326       0.111641       0.185342
      18.210000       0.136275       0.110917       0.188387
      18.220000       0.135377       0.110153       0.191251
      18.230000       0.134684       0.109359       0.193932
      18.240000       0.134230       0.108548       0.196463
      18.250000       0.134025       0.107731       0.198907
      18.260000       0.134068       0.106917       0.201353
      18.270000       0.134355       0.106115       0.203904
      18.280000       0.134890       0.105331       0.206671
      18.290000       0.135687       0.104570       0.209757
      18.300000       0.136772       0.103844       0.213244
      18.310000       0.138180       0.103167       0.217186
      18.320000       0.139942       0.102563       0.221595
      18.330000       0.142078       0.102064       0.226450
      18.340000       0.144592       0.101700       0.231698
      18.350000       0.147468       0.101502       0.237274
      18.360000       0.150672       0.101487       0.243116
      18.370000       0.154151       0.101663       0.249185
      18.380000       0.157849       0.102024       0.255471
      18.390000       0.161715       0.102550       0.261993
      18.400000       0.165714       0.103210       0.268793
      18.410000       0.169828       0.103964       0.275924
      18.420000       0.174057       0.104770       0.283436
      18.430000       0.178397       0.105584       0.291361
      18.440000       0.182828       0.106369       0.299698
      18.450000       0.187288       0.107094       0.308396
      18.460000       0.191668       0.107734       0.317352
      18.470000       0.195805       0.108272       0.326412
      18.480000       0.199489       0.108695       0.335393
      18.490000       0.202477       0.108994       0.344094
      18.500000       0.204519       0.109164       0.352320
      18.510000       0.205397       0.109203       0.359892
      18.520000       0.204958       0.109120       0.366661
      18.530000       0.203148       0.108925       0.372525
      18.540000       0.200029       0.108637       0.377430
      18.550000       0.195771       0.108272       0.381365
      18.560000       0.190623       0.107846       0.384352
      18.570000       0.184876       0.107371       0.386422
      18.580000       0.178824       0.106854       0.387616
      18.590000       0.172725       0.106299       0.387988
      18.600000       0.166786       0.105708       0.387625
      18.610000       0.161154       0.105080       0.386656
      18.620000       0.155913       0.104416       0.385254
      18.630000       0.151101       0.103714       0.383613
      18.640000       0.146721       0.102976       0.381919
      18.650000       0.142749       0.102211       0.380318
      18.660000       0.139155       0.101435       0.378903
      18.670000       0.135904       0.100675       0.377720
      18.680000       0.132970       0.099958       0.376788
      18.690000       0.130333       0.099315       0.376124
      18.700000       0.127982       0.098766       0.375742
      18.710000       0.125908       0.098319       0.375653
      18.720000       0.124102       0.097975       0.375837
      18.730000       0.122550       0.097728       0.376225
      18.740000       0.121232       0.097570       0.376686
      18.750000       0.120121       0.097495       0.377029
      18.760000       0.119189       0.097499       0.377022
      18.770000       0.118408       0.097581       0.376432
      18.780000       0.117751       0.097741       0.375065
      18.790000       0.117194       0.097979       0.372803
      18.800000       0.116712       0.098296       0.369616
      18.810000       0.116283       0.098694       0.365564
      18.820000       0.115879       0.099174       0.360764
      18.830000       0.115469       0.099730       0.355372
      18.840000       0.115017       0.100355       0.349558
      18.850000       0.114484       0.101027       0.343485
      18.860000       0.113836       0.101716       0.337305
      18.870000       0.113048       0.102384       0.331147
      18.880000       0.112114       0.102984       0.325110
      18.890000       0.111046       0.103474       0.319264
      18.900000       0.109876       0.103818       0.313647
      18.910000       0.108647       0.103992       0.308278
      18.920000       0.107407       0.103985       0.303162
      18.930000       0.106200       0.103797       0.298309
      18.940000       0.105065       0.103438       0.293735
      18.950000       0.104033       0.102923       0.289467
      18.960000       0.103125       0.102271       0.285542
      18.970000       0.102358       0.101505       0.282000
      18.980000       0.101742       0.100651       0.278875
      18.990000       0.101284       0.099732       0.276187
      19.000000       0.100991       0.098774       0.273938
      19.010000       0.100870       0.097802       0.272107
      19.020000       0.100936       0.096839       0.270658
      19.030000       0.101206       0.095911       0.269553
      19.040000       0.101706       0.095041       0.268764
      19.050000       0.102464       0.094250       0.268282
      19.060000       0.103514       0.093557       0.268115
      19.070000       0.104888       0.092977       0.268277
      19.080000       0.106614       0.092519       0.268774
      19.090000       0.108716       0.092186       0.269589
      19.100000       0.111208       0.091969       0.270679
      19.110000       0.114099       0.091853       0.271973
      19.120000       0.117391       0.091812       0.273382
      19.130000       0.121080       0.091816       0.274809
      19.140000       0.125156       0.091832       0.276154
      19.150000       0.129594       0.091834       0.277327
      19.160000       0.134351       0.091804       0.278244
      19.170000       0.139355       0.091736       0.278826
      19.180000       0.144495       0.091640       0.279003
      19.190000       0.149622       0.091536       0.278708
      19.200000       0.154551       0.091454       0.277891
      19.210000       0.159079       0.091425       0.276522
      19.220000       0.163011       0.091477       0.274602
      19.230000       0.166179       0.091627       0.272163
      19.240000       0.168465       0.091879       0.269267
      19.250000       0.169798       0.092222       0.265997
      19.260000       0.170151       0.092633       0.262449
      19.270000       0.169522       0.093077       0.258717
      19.280000       0.167935       0.093515       0.254883
      19.290000       0.165435       0.093904       0.251018
      19.300000       0.162093       0.094206       0.247184
      19.310000       0.158021       0.094387       0.243435
      19.320000       0.153365       0.094423       0.239813
      19.330000       0.148304       0.094300       0.236348
      19.340000       0.143027       0.094018       0.233051
      19.350000       0.137720       0.093589       0.229918
      19.360000       0.132540       0.093032       0.226937
      19.370000       0.127609       0.092372       0.224102
      19.380000       0.123012       0.091636       0.221413
      19.390000       0.118795       0.090849       0.218892
      19.400000       0.114981       0.090032       0.216571
      19.410000       0.111572       0.089202       0.214494
      19.420000       0.108558       0.088376       0.212700
      19.430000       0.105922       0.087567       0.211216
      19.440000       0.103644       0.086789       0.210048
      19.450000       0.101697       0.086056       0.209183
      19.460000       0.100055       0.085377       0.208593
      19.470000       0.098688       0.084759       0.208251
      19.480000       0.097567       0.084202       0.208135
      19.490000       0.096666       0.083702       0.208239
      19.500000       0.095962       0.083257       0.208569
      19.510000       0.095438       0.082865       0.209136
      19.520000       0.095083       0.082529       0.209948
      19.530000       0.094888       0.082253       0.211006
      19.540000       0.094850       0.082038       0.212296
      19.550000       0.094963       0.081884       0.213797
      19.560000       0.095217       0.081780       0.215475
      19.570000       0.095603       0.081706       0.217291
      19.580000       0.096105       0.081637       0.219194
      19.590000       0.096713       0.081545       0.221124
      19.600000       0.097421       0.081407       0.223014
      19.610000       0.098231       0.081208       0.224798
      19.620000       0.099148       0.080944       0.226414
      19.630000       0.100178       0.080622       0.227810
      19.640000       0.101319       0.080254       0.228950
      19.650000       0.102553       0.079856       0.229815
      19.660000       0.103841       0.079444       0.230404
      19.670000       0.105127       0.079031       0.230739
      19.680000       0.106342       0.078628       0.230866
      19.690000       0.107418       0.078240       0.230848
      19.700000       0.108298       0.077872       0.230756
      19.710000       0.108950       0.077524       0.230664
      19.720000       0.109369       0.077202       0.230634
      19.730000       0.109576       0.076910       0.230708
      19.740000       0.109616       0.076655       0.230906
      19.750000       0.109544       0.076444       0.231227
      19.760000       0.109420       0.076280       0.231659
      19.770000       0.109299       0.076164       0.232177
      19.780000       0.109223       0.076091       0.232752
      19.790000       0.109218       0.076047       0.233346
      19.800000       0.109294       0.076013       0.233907
      19.810000       0.109442       0.075965       0.234380
      19.820000       0.109645       0.075875       0.234717
      19.830000       0.109877       0.075719       0.234893
      19.840000       0.110108       0.075477       0.234931
      19.850000       0.110307       0.075141       0.234900
      19.860000       0.110452       0.074713       0.234910
      19.870000       0.110527       0.074206       0.235091
      19.880000       0.110528       0.073641       0.235564
      19.890000       0.110464       0.073043       0.236427
      19.900000       0.110350       0.072439       0.237745
      19.910000       0.110203       0.071854       0.239547
      19.920000       0.110035       0.071313       0.241836
      19.930000       0.109851       0.070834       0.244597
      19.940000       0.109645       0.070433       0.247795
      19.950000       0.109405       0.070119       0.251386
      19.960000       0.109110       0.069894       0.255310
      19.970000       0.108735       0.069759       0.259496
      19.980000       0.108256       0.069708       0.263857
      19.990000       0.107652       0.069734       0.268283
      20.000000       0.106913       0.069830       0.272638
