  # energy grid [eV]     epsr_x  epsr_y  epsr_z
       0.000000            NaN            NaN            NaN
       0.010000 -142903.746633 -116987.641900       2.234800
       0.020000  -35691.036368  -29242.868637       2.234287
       0.030000  -15836.748327  -12993.835736       2.233327
       0.040000   -8887.649896   -7306.673256       2.231759
       0.050000   -5671.102607   -4674.328417       2.229359
       0.060000   -3923.727927   -3244.411570       2.225847
       0.070000   -2869.996396   -2382.215624       2.220899
       0.080000   -2185.960233   -1822.616064       2.214183
       0.090000   -1716.860097   -1438.955180       2.205414
       0.100000   -1381.185721   -1164.523504       2.194418
       0.110000   -1132.692925    -961.473766       2.181205
       0.120000    -943.560921    -807.036424       2.166004
       0.130000    -796.238705    -686.846464       2.149243
       0.140000    -679.211014    -591.477988       2.131445
       0.150000    -584.669627    -514.538117       2.113082
       0.160000    -507.169721    -451.566991       2.094435
       0.170000    -442.822491    -399.376552       2.075527
       0.180000    -388.792889    -355.638919       2.056165
       0.190000    -342.977715    -318.622192       2.036075
       0.200000    -303.793942    -287.016314       2.015085
       0.210000    -270.036413    -259.815511       1.993288
       0.220000    -240.780329    -236.237269       1.971133
       0.230000    -215.313192    -215.665393       1.949387
       0.240000    -193.086297    -197.609329       1.928978
       0.250000    -173.678987    -181.674628       1.910780
       0.260000    -156.770732    -167.541215       1.895430
       0.270000    -142.117237    -154.947177       1.883229
       0.280000    -129.527793    -143.676533       1.874156
       0.290000    -118.842422    -133.549907       1.867947
       0.300000    -109.909205    -124.417340       1.864197
       0.310000    -102.564312    -116.152704       1.862445
       0.320000     -96.618544    -108.649321       1.862246
       0.330000     -91.853959    -101.816499       1.863196
       0.340000     -88.032170     -95.576784       1.864949
       0.350000     -84.912928     -89.863748       1.867222
       0.360000     -82.278262     -84.620221       1.869786
       0.370000     -79.954469     -79.796847       1.872467
       0.380000     -77.823623     -75.350907       1.875135
       0.390000     -75.819884     -71.245333       1.877711
       0.400000     -73.912660     -67.447877       1.880155
       0.410000     -72.084805     -63.930351       1.882464
       0.420000     -70.315900     -60.667930       1.884663
       0.430000     -68.577278     -57.638466       1.886790
       0.440000     -66.838725     -54.821833       1.888883
       0.450000     -65.080552     -52.199373       1.890975
       0.460000     -63.302734     -49.753526       1.893088
       0.470000     -61.525668     -47.467764       1.895232
       0.480000     -59.782266     -45.326790       1.897411
       0.490000     -58.105247     -43.316889       1.899626
       0.500000     -56.515139     -41.426188       1.901875
       0.510000     -55.013908     -39.644674       1.904159
       0.520000     -53.586733     -37.963922       1.906482
       0.530000     -52.210829     -36.376622       1.908844
       0.540000     -50.866879     -34.876074       1.911241
       0.550000     -49.547594     -33.455811       1.913659
       0.560000     -48.259772     -32.109445       1.916073
       0.570000     -47.019773     -30.830757       1.918442
       0.580000     -45.845202     -29.613941       1.920713
       0.590000     -44.746839     -28.453861       1.922816
       0.600000     -43.724420     -27.346188       1.924665
       0.610000     -42.767989     -26.287388       1.926160
       0.620000     -41.863867     -25.274601       1.927181
       0.630000     -41.001871     -24.305468       1.927598
       0.640000     -40.179893     -23.377975       1.927277
       0.650000     -39.403709     -22.490333       1.926097
       0.660000     -38.682701     -21.640897       1.923974
       0.670000     -38.024303     -20.828112       1.920891
       0.680000     -37.430363     -20.050463       1.916920
       0.690000     -36.897188     -19.306428       1.912237
       0.700000     -36.418594     -18.594436       1.907102
       0.710000     -35.989470     -17.912831       1.901832
       0.720000     -35.607252     -17.259881       1.896753
       0.730000     -35.270475     -16.633826       1.892152
       0.740000     -34.975735     -16.032955       1.888249
       0.750000     -34.715231     -15.455682       1.885178
       0.760000     -34.476208     -14.900570       1.882987
       0.770000     -34.241985     -14.366314       1.881652
       0.780000     -33.993413     -13.851665       1.881092
       0.790000     -33.710111     -13.355374       1.881197
       0.800000     -33.371909     -12.876162       1.881847
       0.810000     -32.961069     -12.412757       1.882924
       0.820000     -32.465046     -11.963957       1.884322
       0.830000     -31.878675     -11.528712       1.885951
       0.840000     -31.204719     -11.106165       1.887737
       0.850000     -30.452626     -10.695655       1.889622
       0.860000     -29.636191     -10.296683       1.891556
       0.870000     -28.771068      -9.908869       1.893502
       0.880000     -27.872803      -9.531904       1.895424
       0.890000     -26.955645      -9.165525       1.897296
       0.900000     -26.032061      -8.809499       1.899093
       0.910000     -25.112752      -8.463623       1.900797
       0.920000     -24.206970      -8.127726       1.902399
       0.930000     -23.322960      -7.801680       1.903897
       0.940000     -22.468402      -7.485408       1.905304
       0.950000     -21.650755      -7.178888       1.906645
       0.960000     -20.877411      -6.882143       1.907951
       0.970000     -20.155568      -6.595213       1.909256
       0.980000     -19.491752      -6.318116       1.910589
       0.990000     -18.891009      -6.050777       1.911968
       1.000000     -18.355917      -5.792958       1.913401
       1.010000     -17.885750      -5.544197       1.914882
       1.020000     -17.476204      -5.303787       1.916400
       1.030000     -17.119942      -5.070814       1.917943
       1.040000     -16.807888      -4.844245       1.919496
       1.050000     -16.530810      -4.623045       1.921048
       1.060000     -16.280714      -4.406288       1.922592
       1.070000     -16.051689      -4.193233       1.924119
       1.080000     -15.840167      -3.983359       1.925617
       1.090000     -15.644693      -3.776371       1.927070
       1.100000     -15.465425      -3.572178       1.928449
       1.110000     -15.303619      -3.370865       1.929717
       1.120000     -15.161316      -3.172670       1.930824
       1.130000     -15.041187      -2.977970       1.931711
       1.140000     -14.946405      -2.787274       1.932314
       1.150000     -14.880424      -2.601199       1.932572
       1.160000     -14.846777      -2.420422       1.932438
       1.170000     -14.848948      -2.245616       1.931891
       1.180000     -14.890259      -2.077326       1.930947
       1.190000     -14.973572      -1.915840       1.929665
       1.200000     -15.100765      -1.761054       1.928143
       1.210000     -15.271998      -1.612412       1.926496
       1.220000     -15.484856      -1.468989       1.924832
       1.230000     -15.733420      -1.329717       1.923238
       1.240000     -16.007461      -1.193680       1.921770
       1.250000     -16.292138      -1.060365       1.920461
       1.260000     -16.568662      -0.929723       1.919330
       1.270000     -16.816170      -0.802005       1.918394
       1.280000     -17.014625      -0.677431       1.917669
       1.290000     -17.147971      -0.555805       1.917169
       1.300000     -17.206527      -0.436242       1.916904
       1.310000     -17.187840      -0.317142       1.916881
       1.320000     -17.095908      -0.196436       1.917101
       1.330000     -16.939315      -0.072037       1.917566
       1.340000     -16.729061       0.057709       1.918270
       1.350000     -16.476698       0.193724       1.919204
       1.360000     -16.193052       0.336136       1.920346
       1.370000     -15.887542       0.484403       1.921669
       1.380000     -15.567936       0.637509       1.923140
       1.390000     -15.240399       0.794162       1.924723
       1.400000     -14.909672       0.952932       1.926386
       1.410000     -14.579310       1.112341       1.928098
       1.420000     -14.251914       1.270906       1.929833
       1.430000     -13.929337       1.427190       1.931574
       1.440000     -13.612859       1.579865       1.933306
       1.450000     -13.303328       1.727813       1.935023
       1.460000     -13.001269       1.870253       1.936719
       1.470000     -12.706971       2.006838       1.938386
       1.480000     -12.420554       2.137667       1.940012
       1.490000     -12.142013       2.263159       1.941576
       1.500000     -11.871262       2.383822       1.943043
       1.510000     -11.608153       2.500026       1.944372
       1.520000     -11.352500       2.611941       1.945508
       1.530000     -11.104087       2.719695       1.946395
       1.540000     -10.862672       2.823716       1.946979
       1.550000     -10.627989       2.925052       1.947223
       1.560000     -10.399748       3.025483       1.947117
       1.570000     -10.177638       3.127259       1.946690
       1.580000      -9.961336       3.232517       1.946021
       1.590000      -9.750519       3.342518       1.945231
       1.600000      -9.544886       3.456989       1.944461
       1.610000      -9.344163       3.573725       1.943849
       1.620000      -9.148107       3.688506       1.943501
       1.630000      -8.956507       3.795270       1.943475
       1.640000      -8.769170       3.886442       1.943775
       1.650000      -8.585921       3.953424       1.944364
       1.660000      -8.406599       3.987283       1.945172
       1.670000      -8.231068       3.979754       1.946108
       1.680000      -8.059223       3.924579       1.947073
       1.690000      -7.891000       3.819048       1.947966
       1.700000      -7.726383       3.665407       1.948691
       1.710000      -7.565396       3.471571       1.949168
       1.720000      -7.408105       3.250699       1.949342
       1.730000      -7.254601       3.019447       1.949191
       1.740000      -7.104991       2.795273       1.948739
       1.750000      -6.959381       2.593585       1.948050
       1.760000      -6.817864       2.425582       1.947216
       1.770000      -6.680512       2.297293       1.946332
       1.780000      -6.547368       2.209737       1.945478
       1.790000      -6.418446       2.159749       1.944696
       1.800000      -6.293728       2.140945       1.943991
       1.810000      -6.173187       2.144473       1.943344
       1.820000      -6.056798       2.159490       1.942729
       1.830000      -5.944565       2.173493       1.942131
       1.840000      -5.836515       2.172699       1.941559
       1.850000      -5.732695       2.142667       1.941047
       1.860000      -5.633171       2.069245       1.940650
       1.870000      -5.538049       1.939890       1.940428
       1.880000      -5.447499       1.745280       1.940436
       1.890000      -5.361770       1.481019       1.940713
       1.900000      -5.281174       1.149122       1.941270
       1.910000      -5.206067       0.758871       1.942100
       1.920000      -5.136843       0.326677       1.943174
       1.930000      -5.073933      -0.125285       1.944451
       1.940000      -5.017797      -0.571700       1.945881
       1.950000      -4.968893      -0.987609       1.947408
       1.960000      -4.927632      -1.352008       1.948973
       1.970000      -4.894342      -1.650593       1.950520
       1.980000      -4.869236      -1.876951       1.952001
       1.990000      -4.852368      -2.032093       1.953379
       2.000000      -4.843552      -2.122754       1.954637
       2.010000      -4.842254      -2.159208       1.955785
       2.020000      -4.847471      -2.153186       1.956852
       2.030000      -4.857621      -2.116305       1.957889
       2.040000      -4.870486      -2.059053       1.958952
       2.050000      -4.883270      -1.990248       1.960090
       2.060000      -4.892819      -1.916747       1.961336
       2.070000      -4.896009      -1.843295       1.962704
       2.080000      -4.890203      -1.772461       1.964184
       2.090000      -4.873656      -1.704789       1.965750
       2.100000      -4.845697      -1.639256       1.967363
       2.110000      -4.806682      -1.573995       1.968977
       2.120000      -4.757740      -1.507088       1.970546
       2.130000      -4.700451      -1.437148       1.972029
       2.140000      -4.636541      -1.363547       1.973398
       2.150000      -4.567654      -1.286294       1.974641
       2.160000      -4.495226      -1.205702       1.975765
       2.170000      -4.420435      -1.122080       1.976793
       2.180000      -4.344212      -1.035578       1.977752
       2.190000      -4.267276      -0.946239       1.978667
       2.200000      -4.190190      -0.854159       1.979551
       2.210000      -4.113397      -0.759614       1.980408
       2.220000      -4.037250      -0.663071       1.981233
       2.230000      -3.962036      -0.565124       1.982014
       2.240000      -3.887985      -0.466446       1.982740
       2.250000      -3.815278      -0.367806       1.983392
       2.260000      -3.744055      -0.270116       1.983952
       2.270000      -3.674415      -0.174440       1.984400
       2.280000      -3.606412      -0.081924       1.984722
       2.290000      -3.540063       0.006305       1.984918
       2.300000      -3.475343       0.089209       1.985003
       2.310000      -3.412192       0.165801       1.985003
       2.320000      -3.350520       0.234997       1.984954
       2.330000      -3.290205       0.295388       1.984897
       2.340000      -3.231101       0.345043       1.984871
       2.350000      -3.173048       0.381403       1.984911
       2.360000      -3.115894       0.401364       1.985042
       2.370000      -3.059511       0.401527       1.985278
       2.380000      -3.003815       0.378583       1.985616
       2.390000      -2.948764       0.329763       1.986046
       2.400000      -2.894351       0.253294       1.986556
       2.410000      -2.840592       0.148809       1.987140
       2.420000      -2.787521       0.017686       1.987801
       2.430000      -2.735177      -0.136691       1.988546
       2.440000      -2.683605      -0.308783       1.989380
       2.450000      -2.632845      -0.490995       1.990298
       2.460000      -2.582930      -0.674160       1.991275
       2.470000      -2.533868      -0.848474       1.992272
       2.480000      -2.485636      -1.004761       1.993237
       2.490000      -2.438170      -1.135732       1.994121
       2.500000      -2.391370      -1.236865       1.994884
       2.510000      -2.345110      -1.306647       1.995505
       2.520000      -2.299266      -1.346180       1.995981
       2.530000      -2.253736      -1.358391       1.996332
       2.540000      -2.208462      -1.347174       1.996595
       2.550000      -2.163431      -1.316698       1.996833
       2.560000      -2.118673      -1.270983       1.997124
       2.570000      -2.074252      -1.213669       1.997563
       2.580000      -2.030258      -1.147904       1.998236
       2.590000      -1.986796      -1.076262       1.999214
       2.600000      -1.943987      -1.000713       2.000534
       2.610000      -1.901954      -0.922663       2.002199
       2.620000      -1.860822      -0.843102       2.004184
       2.630000      -1.820703      -0.762789       2.006436
       2.640000      -1.781684      -0.682424       2.008882
       2.650000      -1.743804      -0.602715       2.011434
       2.660000      -1.707046      -0.524339       2.013990
       2.670000      -1.671325      -0.447839       2.016439
       2.680000      -1.636502      -0.373498       2.018663
       2.690000      -1.602409      -0.301259       2.020544
       2.700000      -1.568876      -0.230719       2.021978
       2.710000      -1.535763      -0.161208       2.022884
       2.720000      -1.502976      -0.091958       2.023221
       2.730000      -1.470483      -0.022305       2.023003
       2.740000      -1.438312       0.048119       2.022304
       2.750000      -1.406549       0.119291       2.021255
       2.760000      -1.375314       0.190819       2.020030
       2.770000      -1.344733       0.262065       2.018821
       2.780000      -1.314910       0.332323       2.017801
       2.790000      -1.285911       0.401013       2.017102
       2.800000      -1.257779       0.467825       2.016796
       2.810000      -1.230563       0.532793       2.016907
       2.820000      -1.204356       0.596271       2.017421
       2.830000      -1.179311       0.658814       2.018308
       2.840000      -1.155627       0.721025       2.019529
       2.850000      -1.133516       0.783437       2.021043
       2.860000      -1.113155       0.846464       2.022801
       2.870000      -1.094644       0.910422       2.024747
       2.880000      -1.077988       0.975580       2.026815
       2.890000      -1.063068       1.042162       2.028933
       2.900000      -1.049626       1.110289       2.031024
       2.910000      -1.037243       1.179882       2.033009
       2.920000      -1.025353       1.250579       2.034804
       2.930000      -1.013294       1.321702       2.036326
       2.940000      -1.000400       1.392285       2.037496
       2.950000      -0.986104       1.461159       2.038240
       2.960000      -0.970023       1.527067       2.038493
       2.970000      -0.951988       1.588808       2.038198
       2.980000      -0.932028       1.645385       2.037312
       2.990000      -0.910317       1.696123       2.035829
       3.000000      -0.887114       1.740720       2.033795
       3.010000      -0.862714       1.779193       2.031321
       3.020000      -0.837408       1.811735       2.028582
       3.030000      -0.811456       1.838542       2.025790
       3.040000      -0.785079       1.859684       2.023163
       3.050000      -0.758450       1.875025       2.020887
       3.060000      -0.731701       1.884209       2.019092
       3.070000      -0.704936       1.886663       2.017858
       3.080000      -0.678237       1.881650       2.017215
       3.090000      -0.651677       1.868377       2.017164
       3.100000      -0.625319       1.846174       2.017688
       3.110000      -0.599210       1.814730       2.018759
       3.120000      -0.573384       1.774327       2.020332
       3.130000      -0.547861       1.726042       2.022352
       3.140000      -0.522651       1.671829       2.024747
       3.150000      -0.497749       1.614443       2.027425
       3.160000      -0.473136       1.557154       2.030283
       3.170000      -0.448763       1.503272       2.033202
       3.180000      -0.424553       1.455592       2.036051
       3.190000      -0.400406       1.415899       2.038699
       3.200000      -0.376222       1.384716       2.041020
       3.210000      -0.351918       1.361370       2.042916
       3.220000      -0.327448       1.344386       2.044331
       3.230000      -0.302810       1.332086       2.045273
       3.240000      -0.278041       1.323219       2.045812
       3.250000      -0.253206       1.317413       2.046069
       3.260000      -0.228380       1.315278       2.046191
       3.270000      -0.203640       1.318105       2.046318
       3.280000      -0.179051       1.327273       2.046558
       3.290000      -0.154666       1.343612       2.046965
       3.300000      -0.130535       1.366968       2.047550
       3.310000      -0.106708       1.396091       2.048288
       3.320000      -0.083250       1.428838       2.049136
       3.330000      -0.060240       1.462567       2.050045
       3.340000      -0.037772       1.494619       2.050965
       3.350000      -0.015935       1.522760       2.051848
       3.360000       0.005198       1.545474       2.052654
       3.370000       0.025600       1.562001       2.053354
       3.380000       0.045311       1.572099       2.053935
       3.390000       0.064451       1.575604       2.054400
       3.400000       0.083221       1.572009       2.054757
       3.410000       0.101884       1.560285       2.055016
       3.420000       0.120712       1.539096       2.055181
       3.430000       0.139939       1.507343       2.055257
       3.440000       0.159717       1.464865       2.055258
       3.450000       0.180101       1.412987       2.055215
       3.460000       0.201060       1.354669       2.055183
       3.470000       0.222502       1.294156       2.055239
       3.480000       0.244308       1.236275       2.055466
       3.490000       0.266360       1.185637       2.055928
       3.500000       0.288565       1.145996       2.056652
       3.510000       0.310865       1.119856       2.057608
       3.520000       0.333245       1.108328       2.058710
       3.530000       0.355724       1.111197       2.059830
       3.540000       0.378341       1.127166       2.060818
       3.550000       0.401140       1.154170       2.061534
       3.560000       0.424152       1.189715       2.061874
       3.570000       0.447379       1.231151       2.061782
       3.580000       0.470794       1.275855       2.061252
       3.590000       0.494333       1.321333       2.060326
       3.600000       0.517905       1.365242       2.059080
       3.610000       0.541388       1.405379       2.057629
       3.620000       0.564637       1.439689       2.056113
       3.630000       0.587486       1.466337       2.054693
       3.640000       0.609761       1.483877       2.053537
       3.650000       0.631292       1.491524       2.052790
       3.660000       0.651930       1.489483       2.052553
       3.670000       0.671554       1.479204       2.052851
       3.680000       0.690077       1.463395       2.053627
       3.690000       0.707437       1.445646       2.054743
       3.700000       0.723577       1.429736       2.056008
       3.710000       0.738446       1.418849       2.057211
       3.720000       0.751996       1.415003       2.058162
       3.730000       0.764192       1.418854       2.058728
       3.740000       0.775018       1.429854       2.058866
       3.750000       0.784465       1.446560       2.058636
       3.760000       0.792508       1.466961       2.058184
       3.770000       0.799085       1.488760       2.057716
       3.780000       0.804106       1.509621       2.057446
       3.790000       0.807500       1.527426       2.057551
       3.800000       0.809300       1.540534       2.058139
       3.810000       0.809721       1.547991       2.059242
       3.820000       0.809226       1.549624       2.060819
       3.830000       0.808491       1.545958       2.062770
       3.840000       0.808287       1.537943       2.064946
       3.850000       0.809286       1.526584       2.067160
       3.860000       0.811872       1.512627       2.069198
       3.870000       0.816027       1.496448       2.070849
       3.880000       0.821322       1.478158       2.071932
       3.890000       0.827009       1.457812       2.072329
       3.900000       0.832167       1.435556       2.072011
       3.910000       0.835869       1.411574       2.071038
       3.920000       0.837368       1.385874       2.069537
       3.930000       0.836263       1.358033       2.067673
       3.940000       0.832622       1.327108       2.065612
       3.950000       0.827027       1.291814       2.063512
       3.960000       0.820493       1.250967       2.061515
       3.970000       0.814280       1.204016       2.059745
       3.980000       0.809663       1.151491       2.058299
       3.990000       0.807714       1.095195       2.057236
       4.000000       0.809173       1.038092       2.056567
       4.010000       0.814397       0.983958       2.056265
       4.020000       0.823391       0.936878       2.056285
       4.030000       0.835887       0.900657       2.056587
       4.040000       0.851453       0.878241       2.057156
       4.050000       0.869584       0.871283       2.057999
       4.060000       0.889778       0.879968       2.059135
       4.070000       0.911576       0.903138       2.060564
       4.080000       0.934581       0.938623       2.062256
       4.090000       0.958463       0.983657       2.064143
       4.100000       0.982968       1.035234       2.066127
       4.110000       1.007920       1.090372       2.068093
       4.120000       1.033221       1.146257       2.069934
       4.130000       1.058843       1.200323       2.071553
       4.140000       1.084807       1.250311       2.072882
       4.150000       1.111157       1.294362       2.073890
       4.160000       1.137921       1.331148       2.074586
       4.170000       1.165075       1.360035       2.075017
       4.180000       1.192514       1.381173       2.075260
       4.190000       1.220043       1.395453       2.075401
       4.200000       1.247378       1.404302       2.075523
       4.210000       1.274167       1.409398       2.075694
       4.220000       1.300013       1.412416       2.075951
       4.230000       1.324505       1.414872       2.076303
       4.240000       1.347253       1.418035       2.076727
       4.250000       1.367920       1.422820       2.077182
       4.260000       1.386268       1.429655       2.077622
       4.270000       1.402190       1.438394       2.078012
       4.280000       1.415731       1.448385       2.078333
       4.290000       1.427092       1.458722       2.078594
       4.300000       1.436578       1.468625       2.078834
       4.310000       1.444529       1.477820       2.079125
       4.320000       1.451231       1.486771       2.079565
       4.330000       1.456854       1.496664       2.080262
       4.340000       1.461443       1.509143       2.081310
       4.350000       1.464973       1.525882       2.082755
       4.360000       1.467422       1.548193       2.084576
       4.370000       1.468855       1.576773       2.086671
       4.380000       1.469474       1.611646       2.088873
       4.390000       1.469642       1.652237       2.090964
       4.400000       1.469886       1.697504       2.092707
       4.410000       1.470870       1.746057       2.093868
       4.420000       1.473331       1.796258       2.094240
       4.430000       1.477956       1.846279       2.093651
       4.440000       1.485242       1.894179       2.091986
       4.450000       1.495357       1.938014       2.089196
       4.460000       1.508065       1.976025       2.085322
       4.470000       1.522733       2.006867       2.080507
       4.480000       1.538430       2.029826       2.074997
       4.490000       1.554064       2.044915       2.069123
       4.500000       1.568569       2.052796       2.063261
       4.510000       1.581093       2.054542       2.057786
       4.520000       1.591189       2.051351       2.053024
       4.530000       1.598946       2.044330       2.049213
       4.540000       1.605030       2.034373       2.046485
       4.550000       1.610577       2.022111       2.044872
       4.560000       1.616967       2.007878       2.044321
       4.570000       1.625532       1.991670       2.044725
       4.580000       1.637303       1.973139       2.045961
       4.590000       1.652870       1.951659       2.047915
       4.600000       1.672368       1.926471       2.050493
       4.610000       1.695556       1.896886       2.053610
       4.620000       1.721948       1.862506       2.057167
       4.630000       1.750939       1.823373       2.061033
       4.640000       1.781904       1.780003       2.065026
       4.650000       1.814245       1.733268       2.068927
       4.660000       1.847401       1.684144       2.072495
       4.670000       1.880823       1.633462       2.075505
       4.680000       1.913926       1.581789       2.077769
       4.690000       1.946051       1.529542       2.079155
       4.700000       1.976449       1.477245       2.079586
       4.710000       2.004296       1.425783       2.079030
       4.720000       2.028760       1.376496       2.077487
       4.730000       2.049097       1.331058       2.074987
       4.740000       2.064770       1.291222       2.071595
       4.750000       2.075530       1.258518       2.067433
       4.760000       2.081440       1.233948       2.062688
       4.770000       2.082795       1.217739       2.057613
       4.780000       2.079994       1.209181       2.052492
       4.790000       2.073404       1.206651       2.047608
       4.800000       2.063264       1.207838       2.043202
       4.810000       2.049651       1.210098       2.039453
       4.820000       2.032463       1.210827       2.036469
       4.830000       2.011399       1.207716       2.034297
       4.840000       1.985947       1.198894       2.032932
       4.850000       1.955404       1.183019       2.032337
       4.860000       1.918982       1.159432       2.032451
       4.870000       1.875983       1.128405       2.033197
       4.880000       1.826025       1.091371       2.034484
       4.890000       1.769254       1.050956       2.036199
       4.900000       1.706505       1.010675       2.038210
       4.910000       1.639362       0.974348       2.040361
       4.920000       1.570093       0.945441       2.042485
       4.930000       1.501432       0.926548       2.044422
       4.940000       1.436231       0.919149       2.046033
       4.950000       1.377046       0.923624       2.047229
       4.960000       1.325799       0.939453       2.047985
       4.970000       1.283597       0.965500       2.048353
       4.980000       1.250728       1.000303       2.048456
       4.990000       1.226743       1.042266       2.048465
       5.000000       1.210578       1.089746       2.048562
       5.010000       1.200685       1.141026       2.048902
       5.020000       1.195212       1.194252       2.049589
       5.030000       1.192243       1.247402       2.050665
       5.040000       1.190070       1.298317       2.052118
       5.050000       1.187440       1.344816       2.053893
       5.060000       1.183692       1.384840       2.055912
       5.070000       1.178754       1.416619       2.058082
       5.080000       1.173020       1.438813       2.060314
       5.090000       1.167175       1.450614       2.062527
       5.100000       1.162033       1.451838       2.064653
       5.110000       1.158426       1.442983       2.066641
       5.120000       1.157131       1.425285       2.068464
       5.130000       1.158829       1.400693       2.070120
       5.140000       1.164072       1.371744       2.071632
       5.150000       1.173275       1.341284       2.073045
       5.160000       1.186719       1.312097       2.074411
       5.170000       1.204531       1.286531       2.075774
       5.180000       1.226642       1.266249       2.077162
       5.190000       1.252752       1.252138       2.078574
       5.200000       1.282323       1.244405       2.079994
       5.210000       1.314643       1.242761       2.081388
       5.220000       1.348918       1.246659       2.082729
       5.230000       1.384368       1.255501       2.084006
       5.240000       1.420244       1.268759       2.085229
       5.250000       1.455788       1.285979       2.086436
       5.260000       1.490129       1.306689       2.087683
       5.270000       1.522206       1.330268       2.089041
       5.280000       1.550741       1.355894       2.090588
       5.290000       1.574303       1.382576       2.092407
       5.300000       1.591446       1.409267       2.094578
       5.310000       1.600877       1.434979       2.097170
       5.320000       1.601610       1.458857       2.100235
       5.330000       1.593048       1.480179       2.103792
       5.340000       1.574976       1.498304       2.107823
       5.350000       1.547478       1.512574       2.112266
       5.360000       1.510852       1.522203       2.117021
       5.370000       1.465587       1.526250       2.121955
       5.380000       1.412475       1.523724       2.126924
       5.390000       1.352819       1.513872       2.131793
       5.400000       1.288622       1.496551       2.136448
       5.410000       1.222596       1.472510       2.140810
       5.420000       1.157891       1.443412       2.144832
       5.430000       1.097616       1.411513       2.148496
       5.440000       1.044313       1.379104       2.151797
       5.450000       0.999600       1.347965       2.154737
       5.460000       0.964065       1.319044       2.157308
       5.470000       0.937409       1.292498       2.159488
       5.480000       0.918732       1.268017       2.161242
       5.490000       0.906861       1.245263       2.162534
       5.500000       0.900660       1.224231       2.163341
       5.510000       0.899248       1.205394       2.163667
       5.520000       0.902091       1.189617       2.163551
       5.530000       0.908949       1.177911       2.163065
       5.540000       0.919750       1.171166       2.162306
       5.550000       0.934451       1.169976       2.161382
       5.560000       0.952965       1.174593       2.160398
       5.570000       0.975161       1.184968       2.159446
       5.580000       1.000891       1.200791       2.158595
       5.590000       1.029992       1.221457       2.157895
       5.600000       1.062262       1.246011       2.157377
       5.610000       1.097420       1.273141       2.157046
       5.620000       1.135106       1.301319       2.156891
       5.630000       1.174900       1.329072       2.156882
       5.640000       1.216351       1.355312       2.156988
       5.650000       1.258976       1.379578       2.157192
       5.660000       1.302229       1.402075       2.157518
       5.670000       1.345441       1.423453       2.158029
       5.680000       1.387774       1.444402       2.158832
       5.690000       1.428202       1.465204       2.160058
       5.700000       1.465554       1.485455       2.161837
       5.710000       1.498607       1.504038       2.164276
       5.720000       1.526217       1.519345       2.167444
       5.730000       1.547466       1.529649       2.171362
       5.740000       1.561783       1.533501       2.176008
       5.750000       1.569030       1.530068       2.181323
       5.760000       1.569529       1.519344       2.187220
       5.770000       1.564040       1.502245       2.193600
       5.780000       1.553658       1.480551       2.200352
       5.790000       1.539632       1.456721       2.207360
       5.800000       1.523118       1.433586       2.214504
       5.810000       1.504944       1.413955       2.221662
       5.820000       1.485483       1.400198       2.228709
       5.830000       1.464705       1.393885       2.235527
       5.840000       1.442415       1.395576       2.242003
       5.850000       1.418566       1.404800       2.248042
       5.860000       1.393529       1.420208       2.253570
       5.870000       1.368159       1.439833       2.258541
       5.880000       1.343671       1.461363       2.262946
       5.890000       1.321358       1.482398       2.266810
       5.900000       1.302299       1.500673       2.270192
       5.910000       1.287136       1.514287       2.273174
       5.920000       1.275993       1.521897       2.275840
       5.930000       1.268520       1.522854       2.278267
       5.940000       1.264049       1.517270       2.280504
       5.950000       1.261796       1.505990       2.282576
       5.960000       1.261049       1.490491       2.284487
       5.970000       1.261286       1.472688       2.286224
       5.980000       1.262199       1.454627       2.287778
       5.990000       1.263661       1.438108       2.289142
       6.000000       1.265656       1.424338       2.290320
       6.010000       1.268254       1.413734       2.291328
       6.020000       1.271605       1.405979       2.292190
       6.030000       1.275948       1.400287       2.292933
       6.040000       1.281593       1.395767       2.293586
       6.050000       1.288865       1.391728       2.294181
       6.060000       1.298031       1.387823       2.294759
       6.070000       1.309232       1.384033       2.295379
       6.080000       1.322455       1.380575       2.296127
       6.090000       1.337575       1.377809       2.297116
       6.100000       1.354433       1.376169       2.298473
       6.110000       1.372922       1.376127       2.300318
       6.120000       1.393024       1.378162       2.302740
       6.130000       1.414791       1.382739       2.305782
       6.140000       1.438280       1.390290       2.309426
       6.150000       1.463488       1.401193       2.313610
       6.160000       1.490305       1.415733       2.318238
       6.170000       1.518504       1.434029       2.323204
       6.180000       1.547724       1.455926       2.328399
       6.190000       1.577461       1.480890       2.333714
       6.200000       1.607031       1.507946       2.339040
       6.210000       1.635580       1.535703       2.344262
       6.220000       1.662132       1.562476       2.349267
       6.230000       1.685691       1.586475       2.353951
       6.240000       1.705355       1.605997       2.358245
       6.250000       1.720378       1.619620       2.362128
       6.260000       1.730175       1.626356       2.365637
       6.270000       1.734291       1.625759       2.368871
       6.280000       1.732388       1.617960       2.371968
       6.290000       1.724279       1.603615       2.375092
       6.300000       1.710011       1.583771       2.378399
       6.310000       1.689979       1.559711       2.382024
       6.320000       1.665003       1.532839       2.386052
       6.330000       1.636343       1.504654       2.390514
       6.340000       1.605592       1.476753       2.395378
       6.350000       1.574489       1.450794       2.400562
       6.360000       1.544697       1.428383       2.405938
       6.370000       1.517629       1.410890       2.411358
       6.380000       1.494359       1.399278       2.416668
       6.390000       1.475598       1.394021       2.421727
       6.400000       1.461763       1.395153       2.426429
       6.410000       1.453081       1.402416       2.430712
       6.420000       1.449706       1.415413       2.434559
       6.430000       1.451765       1.433669       2.437992
       6.440000       1.459300       1.456576       2.441063
       6.450000       1.472098       1.483261       2.443837
       6.460000       1.489506       1.512521       2.446370
       6.470000       1.510311       1.542864       2.448694
       6.480000       1.532760       1.572680       2.450792
       6.490000       1.554715       1.600451       2.452585
       6.500000       1.573912       1.624929       2.453947
       6.510000       1.588250       1.645216       2.454736
       6.520000       1.596036       1.660753       2.454846
       6.530000       1.596163       1.671273       2.454262
       6.540000       1.588177       1.676756       2.453083
       6.550000       1.572254       1.677409       2.451519
       6.560000       1.549093       1.673616       2.449852
       6.570000       1.519723       1.665847       2.448380
       6.580000       1.485279       1.654498       2.447372
       6.590000       1.446758       1.639765       2.447039
       6.600000       1.404840       1.621610       2.447513
       6.610000       1.359802       1.599871       2.448847
       6.620000       1.311572       1.574474       2.451013
       6.630000       1.259861       1.545603       2.453918
       6.640000       1.204320       1.513705       2.457424
       6.650000       1.144632       1.479247       2.461369
       6.660000       1.080547       1.442365       2.465592
       6.670000       1.011916       1.402598       2.469962
       6.680000       0.938763       1.358875       2.474389
       6.690000       0.861407       1.309770       2.478839
       6.700000       0.780539       1.253898       2.483326
       6.710000       0.697182       1.190287       2.487903
       6.720000       0.612550       1.118622       2.492632
       6.730000       0.527853       1.039323       2.497572
       6.740000       0.444160       0.953512       2.502763
       6.750000       0.362357       0.862901       2.508227
       6.760000       0.283207       0.769632       2.513978
       6.770000       0.207429       0.676079       2.520020
       6.780000       0.135735       0.584615       2.526355
       6.790000       0.068772       0.497352       2.532968
       6.800000       0.006994       0.415910       2.539831
       6.810000      -0.049467       0.341270       2.546892
       6.820000      -0.100857       0.273796       2.554094
       6.830000      -0.147733       0.213398       2.561378
       6.840000      -0.190816       0.159775       2.568702
       6.850000      -0.230823       0.112613       2.576041
       6.860000      -0.268347       0.071680       2.583396
       6.870000      -0.303781       0.036809       2.590781
       6.880000      -0.337266       0.007867       2.598213
       6.890000      -0.368670      -0.015242       2.605701
       6.900000      -0.397571      -0.032480       2.613227
       6.910000      -0.423276      -0.043537       2.620742
       6.920000      -0.444875      -0.047754       2.628174
       6.930000      -0.461363      -0.044225       2.635449
       6.940000      -0.471809      -0.032089       2.642512
       6.950000      -0.475555      -0.010919       2.649351
       6.960000      -0.472372       0.018941       2.656000
       6.970000      -0.462564       0.056227       2.662531
       6.980000      -0.446974       0.098831       2.669043
       6.990000      -0.426921       0.144063       2.675648
       7.000000      -0.404065       0.189018       2.682469
       7.010000      -0.380216       0.230961       2.689621
       7.020000      -0.357124       0.267662       2.697206
       7.030000      -0.336300       0.297635       2.705285
       7.040000      -0.318888       0.320239       2.713868
       7.050000      -0.305604       0.335640       2.722921
       7.060000      -0.296713       0.344640       2.732388
       7.070000      -0.292027       0.348445       2.742226
       7.080000      -0.290921       0.348407       2.752432
       7.090000      -0.292399       0.345803       2.763060
       7.100000      -0.295257       0.341636       2.774204
       7.110000      -0.298319       0.336479       2.785975
       7.120000      -0.300692       0.330391       2.798472
       7.130000      -0.301927       0.322935       2.811762
       7.140000      -0.302018       0.313340       2.825862
       7.150000      -0.301233       0.300750       2.840744
       7.160000      -0.299886       0.284472       2.856333
       7.170000      -0.298124       0.264152       2.872515
       7.180000      -0.295831       0.239836       2.889138
       7.190000      -0.292650       0.211941       2.906030
       7.200000      -0.288116       0.181171       2.923014
       7.210000      -0.281830       0.148404       2.939930
       7.220000      -0.273617       0.114590       2.956665
       7.230000      -0.263600       0.080685       2.973159
       7.240000      -0.252171       0.047636       2.989415
       7.250000      -0.239873       0.016393       3.005483
       7.260000      -0.227264      -0.012115       3.021437
       7.270000      -0.214806      -0.037118       3.037356
       7.280000      -0.202839      -0.058230       3.053301
       7.290000      -0.191609      -0.075692       3.069299
       7.300000      -0.181335      -0.090513       3.085328
       7.310000      -0.172258      -0.104416       3.101291
       7.320000      -0.164647      -0.119571       3.116994
       7.330000      -0.158751      -0.138173       3.132116
       7.340000      -0.154716      -0.161955       3.146212
       7.350000      -0.152530      -0.191771       3.158737
       7.360000      -0.152012      -0.227365       3.169097
       7.370000      -0.152868      -0.267421       3.176732
       7.380000      -0.154761      -0.309875       3.181196
       7.390000      -0.157373      -0.352400       3.182232
       7.400000      -0.160436      -0.392893       3.179811
       7.410000      -0.163751      -0.429806       3.174119
       7.420000      -0.167186      -0.462274       3.165517
       7.430000      -0.170658      -0.490055       3.154467
       7.440000      -0.174091      -0.513347       3.141465
       7.450000      -0.177356      -0.532569       3.127002
       7.460000      -0.180206      -0.548158       3.111550
       7.470000      -0.182238      -0.560396       3.095570
       7.480000      -0.182907      -0.569323       3.079536
       7.490000      -0.181593      -0.574753       3.063928
       7.500000      -0.177729      -0.576426       3.049207
       7.510000      -0.170946      -0.574224       3.035746
       7.520000      -0.161195      -0.568370       3.023762
       7.530000      -0.148794      -0.559531       3.013276
       7.540000      -0.134389      -0.548794       3.004125
       7.550000      -0.118829      -0.537582       2.996029
       7.560000      -0.103006      -0.527522       2.988676
       7.570000      -0.087696      -0.520288       2.981797
       7.580000      -0.073451      -0.517419       2.975207
       7.590000      -0.060548      -0.520114       2.968808
       7.600000      -0.049017      -0.529062       2.962583
       7.610000      -0.038698      -0.544338       2.956566
       7.620000      -0.029327      -0.565387       2.950815
       7.630000      -0.020605      -0.591106       2.945367
       7.640000      -0.012254      -0.619988       2.940192
       7.650000      -0.004059      -0.650332       2.935160
       7.660000       0.004106      -0.680456       2.930044
       7.670000       0.012273      -0.708913       2.924548
       7.680000       0.020386      -0.734625       2.918378
       7.690000       0.028345      -0.756929       2.911297
       7.700000       0.036038      -0.775521       2.903176
       7.710000       0.043371      -0.790330       2.894007
       7.720000       0.050270      -0.801395       2.883888
       7.730000       0.056653      -0.808770       2.872991
       7.740000       0.062411      -0.812487       2.861532
       7.750000       0.067408      -0.812586       2.849754
       7.760000       0.071500      -0.809160       2.837917
       7.770000       0.074559      -0.802419       2.826300
       7.780000       0.076514      -0.792709       2.815203
       7.790000       0.077364      -0.780489       2.804954
       7.800000       0.077200      -0.766285       2.795918
       7.810000       0.076180      -0.750654       2.788493
       7.820000       0.074497      -0.734189       2.783082
       7.830000       0.072343      -0.717529       2.780043
       7.840000       0.069891      -0.701334       2.779636
       7.850000       0.067327      -0.686198       2.782002
       7.860000       0.064902      -0.672499       2.787176
       7.870000       0.062969      -0.660270       2.795117
       7.880000       0.061982      -0.649147       2.805742
       7.890000       0.062450      -0.638437       2.818939
       7.900000       0.064858      -0.627299       2.834579
       7.910000       0.069590      -0.614978       2.852529
       7.920000       0.076863      -0.601007       2.872670
       7.930000       0.086707      -0.585309       2.894910
       7.940000       0.098965      -0.568188       2.919177
       7.950000       0.113333      -0.550208       2.945399
       7.960000       0.129395      -0.532032       2.973466
       7.970000       0.146668      -0.514255       3.003206
       7.980000       0.164635      -0.497273       3.034384
       7.990000       0.182787      -0.481223       3.066708
       8.000000       0.200649      -0.465987       3.099842
       8.010000       0.217804      -0.451286       3.133396
       8.020000       0.233902      -0.436803       3.166922
       8.030000       0.248668      -0.422300       3.199906
       8.040000       0.261910      -0.407674       3.231777
       8.050000       0.273517      -0.392930       3.261929
       8.060000       0.283455      -0.378105       3.289751
       8.070000       0.291755      -0.363193       3.314639
       8.080000       0.298502      -0.348116       3.335996
       8.090000       0.303838      -0.332752       3.353228
       8.100000       0.307967      -0.317000       3.365745
       8.110000       0.311149      -0.300846       3.373001
       8.120000       0.313674      -0.284400       3.374548
       8.130000       0.315823      -0.267886       3.370110
       8.140000       0.317832      -0.251588       3.359625
       8.150000       0.319879      -0.235773       3.343258
       8.160000       0.322077      -0.220646       3.321387
       8.170000       0.324480      -0.206325       3.294563
       8.180000       0.327085      -0.192873       3.263489
       8.190000       0.329838      -0.180321       3.229006
       8.200000       0.332653      -0.168694       3.192096
       8.210000       0.335435      -0.158002       3.153862
       8.220000       0.338115      -0.148221       3.115477
       8.230000       0.340672      -0.139257       3.078096
       8.240000       0.343152      -0.130924       3.042752
       8.250000       0.345665      -0.122926       3.010264
       8.260000       0.348370      -0.114873       2.981191
       8.270000       0.351432      -0.106340       2.955850
       8.280000       0.354976      -0.096949       2.934386
       8.290000       0.359028      -0.086450       2.916869
       8.300000       0.363498      -0.074766       2.903367
       8.310000       0.368193      -0.061970       2.893961
       8.320000       0.372860      -0.048240       2.888691
       8.330000       0.377257      -0.033798       2.887471
       8.340000       0.381213      -0.018891       2.890004
       8.350000       0.384665      -0.003788       2.895735
       8.360000       0.387661       0.011208       2.903859
       8.370000       0.390332       0.025782       2.913370
       8.380000       0.392826       0.039650       2.923168
       8.390000       0.395244       0.052644       2.932193
       8.400000       0.397603       0.064768       2.939583
       8.410000       0.399831       0.076231       2.944828
       8.420000       0.401803       0.087403       2.947894
       8.430000       0.403399       0.098723       2.949262
       8.440000       0.404557       0.110572       2.949866
       8.450000       0.405317       0.123188       2.950917
       8.460000       0.405852       0.136622       2.953654
       8.470000       0.406471       0.150785       2.959089
       8.480000       0.407592       0.165543       2.967828
       8.490000       0.409683       0.180834       2.980007
       8.500000       0.413167       0.196757       2.995346
       8.510000       0.418343       0.213596       3.013286
       8.520000       0.425316       0.231770       3.033147
       8.530000       0.433977       0.251716       3.054295
       8.540000       0.444036       0.273766       3.076269
       8.550000       0.455076       0.298047       3.098863
       8.560000       0.466629       0.324443       3.122133
       8.570000       0.478244       0.352614       3.146316
       8.580000       0.489534       0.382056       3.171703
       8.590000       0.500209       0.412173       3.198496
       8.600000       0.510086       0.442360       3.226742
       8.610000       0.519085       0.472058       3.256355
       8.620000       0.527229       0.500781       3.287210
       8.630000       0.534625       0.528108       3.319261
       8.640000       0.541441       0.553652       3.352597
       8.650000       0.547863       0.577025       3.387422
       8.660000       0.554071       0.597833       3.423947
       8.670000       0.560210       0.615716       3.462280
       8.680000       0.566392       0.630406       3.502344
       8.690000       0.572688       0.641783       3.543841
       8.700000       0.579127       0.649906       3.586242
       8.710000       0.585692       0.654994       3.628762
       8.720000       0.592325       0.657370       3.670280
       8.730000       0.598945       0.657378       3.709228
       8.740000       0.605465       0.655280       3.743489
       8.750000       0.611815       0.651197       3.770353
       8.760000       0.617939       0.645110       3.786598
       8.770000       0.623802       0.636958       3.788714
       8.780000       0.629380       0.626782       3.773243
       8.790000       0.634675       0.614866       3.737196
       8.800000       0.639721       0.601769       3.678466
       8.810000       0.644595       0.588229       3.596126
       8.820000       0.649403       0.574964       3.490603
       8.830000       0.654257       0.562471       3.363683
       8.840000       0.659248       0.550939       3.218398
       8.850000       0.664424       0.540316       3.058811
       8.860000       0.669783       0.530483       2.889703
       8.870000       0.675280       0.521433       2.716192
       8.880000       0.680851       0.513339       2.543337
       8.890000       0.686446       0.506494       2.375794
       8.900000       0.692059       0.501159       2.217555
       8.910000       0.697750       0.497413       2.071764
       8.920000       0.703649       0.495063       1.940593
       8.930000       0.709936       0.493638       1.825181
       8.940000       0.716811       0.492454       1.725647
       8.950000       0.724463       0.490718       1.641185
       8.960000       0.733039       0.487650       1.570237
       8.970000       0.742625       0.482623       1.510752
       8.980000       0.753238       0.475295       1.460502
       8.990000       0.764811       0.465697       1.417395
       9.000000       0.777200       0.454245       1.379675
       9.010000       0.790183       0.441659       1.345956
       9.020000       0.803483       0.428792       1.315125
       9.030000       0.816791       0.416430       1.286212
       9.040000       0.829799       0.405117       1.258349
       9.050000       0.842224       0.395056       1.230848
       9.060000       0.853821       0.386122       1.203383
       9.070000       0.864376       0.377942       1.176156
       9.080000       0.873699       0.370000       1.149951
       9.090000       0.881612       0.361736       1.126007
       9.100000       0.887951       0.352633       1.105738
       9.110000       0.892594       0.342336       1.090385
       9.120000       0.895489       0.330802       1.080722
       9.130000       0.896688       0.318440       1.076895
       9.140000       0.896361       0.306191       1.078408
       9.150000       0.894780       0.295457       1.084237
       9.160000       0.892268       0.287881       1.093028
       9.170000       0.889143       0.285024       1.103337
       9.180000       0.885671       0.288033       1.113897
       9.190000       0.882056       0.297429       1.123839
       9.200000       0.878450       0.313045       1.132827
       9.210000       0.874984       0.334108       1.141048
       9.220000       0.871780       0.359419       1.149061
       9.230000       0.868957       0.387557       1.157547
       9.240000       0.866631       0.417077       1.167027
       9.250000       0.864919       0.446670       1.177644
       9.260000       0.863956       0.475259       1.189042
       9.270000       0.863902       0.502008       1.200392
       9.280000       0.864939       0.526263       1.210551
       9.290000       0.867245       0.547427       1.218319
       9.300000       0.870965       0.564860       1.222730
       9.310000       0.876186       0.577837       1.223310
       9.320000       0.882938       0.585592       1.220219
       9.330000       0.891195       0.587429       1.214207
       9.340000       0.900892       0.582849       1.206414
       9.350000       0.911927       0.571624       1.198083
       9.360000       0.924165       0.553833       1.190295
       9.370000       0.937435       0.529841       1.183831
       9.380000       0.951538       0.500250       1.179153
       9.390000       0.966250       0.465829       1.176493
       9.400000       0.981326       0.427413       1.175960
       9.410000       0.996504       0.385815       1.177627
       9.420000       1.011505       0.341778       1.181533
       9.430000       1.026040       0.295979       1.187626
       9.440000       1.039838       0.249102       1.195664
       9.450000       1.052675       0.201922       1.205157
       9.460000       1.064414       0.155375       1.215370
       9.470000       1.075030       0.110556       1.225422
       9.480000       1.084602       0.068605       1.234457
       9.490000       1.093269       0.030520       1.241828
       9.500000       1.101163      -0.003062       1.247239
       9.510000       1.108340      -0.031988       1.250792
       9.520000       1.114742      -0.056564       1.252937
       9.530000       1.120207      -0.077363       1.254341
       9.540000       1.124528      -0.094955       1.255740
       9.550000       1.127522      -0.109661       1.257793
       9.560000       1.129101      -0.121463       1.260979
       9.570000       1.129310      -0.130062       1.265537
       9.580000       1.128332      -0.135062       1.271448
       9.590000       1.126460      -0.136163       1.278460
       9.600000       1.124052      -0.133288       1.286138
       9.610000       1.121478      -0.126612       1.293929
       9.620000       1.119071      -0.116530       1.301225
       9.630000       1.117082      -0.103602       1.307402
       9.640000       1.115653      -0.088509       1.311841
       9.650000       1.114787      -0.072031       1.313941
       9.660000       1.114353      -0.055052       1.313142
       9.670000       1.114112      -0.038550       1.308993
       9.680000       1.113773      -0.023574       1.301233
       9.690000       1.113058      -0.011161       1.289857
       9.700000       1.111762      -0.002227       1.275110
       9.710000       1.109794       0.002551       1.257412
       9.720000       1.107174       0.002814       1.237217
       9.730000       1.103994      -0.001467       1.214877
       9.740000       1.100351      -0.010060       1.190554
       9.750000       1.096276      -0.022588       1.164221
       9.760000       1.091694      -0.038657       1.135750
       9.770000       1.086432      -0.057945       1.105058
       9.780000       1.080285      -0.080224       1.072224
       9.790000       1.073113      -0.105326       1.037544
       9.800000       1.064936      -0.133086       1.001483
       9.810000       1.055979      -0.163271       0.964558
       9.820000       1.046655      -0.195511       0.927218
       9.830000       1.037490      -0.229233       0.889790
       9.840000       1.029020      -0.263624       0.852520
       9.850000       1.021671      -0.297653       0.815685
       9.860000       1.015674      -0.330190       0.779699
       9.870000       1.011015      -0.360174       0.745144
       9.880000       1.007464      -0.386788       0.712679
       9.890000       1.004671      -0.409554       0.682860
       9.900000       1.002311      -0.428327       0.655930
       9.910000       1.000222      -0.443209       0.631678
       9.920000       0.998486      -0.454433       0.609464
       9.930000       0.997407      -0.462258       0.588392
       9.940000       0.997422      -0.466903       0.567595
       9.950000       0.998953      -0.468542       0.546506
       9.960000       1.002283      -0.467344       0.525023
       9.970000       1.007487      -0.463553       0.503529
       9.980000       1.014415      -0.457553       0.482775
       9.990000       1.022738      -0.449902       0.463665
      10.000000       1.032009      -0.441289       0.447030
      10.010000       1.041737      -0.432431       0.433417
      10.020000       1.051445      -0.423947       0.422966
      10.030000       1.060730      -0.416236       0.415374
      10.040000       1.069285      -0.409423       0.409961
      10.050000       1.076911      -0.403371       0.405824
      10.060000       1.083510      -0.397754       0.402052
      10.070000       1.089045      -0.392170       0.397931
      10.080000       1.093491      -0.386247       0.393083
      10.090000       1.096775      -0.379732       0.387499
      10.100000       1.098730      -0.372533       0.381444
      10.110000       1.099092      -0.364734       0.375291
      10.120000       1.097534      -0.356578       0.369340
      10.130000       1.093758      -0.348430       0.363679
      10.140000       1.087599      -0.340729       0.358134
      10.150000       1.079135      -0.333926       0.352315
      10.160000       1.068730      -0.328411       0.345730
      10.170000       1.057016      -0.324443       0.337925
      10.180000       1.044802      -0.322092       0.328578
      10.190000       1.032960      -0.321199       0.317526
      10.200000       1.022298      -0.321397       0.304736
      10.210000       1.013472      -0.322171       0.290278
      10.220000       1.006923      -0.322973       0.274355
      10.230000       1.002845      -0.323334       0.257366
      10.240000       1.001194      -0.322951       0.239966
      10.250000       1.001721      -0.321713       0.223070
      10.260000       1.004019      -0.319687       0.207752
      10.270000       1.007586      -0.317072       0.195084
      10.280000       1.011862      -0.314143       0.185946
      10.290000       1.016260      -0.311214       0.180864
      10.300000       1.020209      -0.308599       0.179928
      10.310000       1.023201      -0.306576       0.182791
      10.320000       1.024879      -0.305361       0.188752
      10.330000       1.025123      -0.305085       0.196895
      10.340000       1.024117      -0.305794       0.206254
      10.350000       1.022361      -0.307458       0.215963
      10.360000       1.020611      -0.309982       0.225361
      10.370000       1.019747      -0.313208       0.234015
      10.380000       1.020603      -0.316909       0.241699
      10.390000       1.023824      -0.320794       0.248343
      10.400000       1.029773      -0.324510       0.253985
      10.410000       1.038521      -0.327679       0.258765
      10.420000       1.049903      -0.329936       0.262923
      10.430000       1.063591      -0.330973       0.266794
      10.440000       1.079166      -0.330566       0.270774
      10.450000       1.096160      -0.328591       0.275268
      10.460000       1.114081      -0.325035       0.280654
      10.470000       1.132417      -0.320000       0.287281
      10.480000       1.150644      -0.313692       0.295480
      10.490000       1.168236      -0.306397       0.305578
      10.500000       1.184677      -0.298439       0.317871
      10.510000       1.199485      -0.290136       0.332575
      10.520000       1.212248      -0.281767       0.349792
      10.530000       1.222676      -0.273555       0.369503
      10.540000       1.230670      -0.265683       0.391595
      10.550000       1.236368      -0.258340       0.415903
      10.560000       1.240158      -0.251757       0.442241
      10.570000       1.242623      -0.246226       0.470410
      10.580000       1.244443      -0.242069       0.500192
      10.590000       1.246268      -0.239557       0.531334
      10.600000       1.248604      -0.238814       0.563540
      10.610000       1.251723      -0.239747       0.596473
      10.620000       1.255624      -0.242052       0.629787
      10.630000       1.260033      -0.245277       0.663162
      10.640000       1.264466      -0.248940       0.696344
      10.650000       1.268324      -0.252618       0.729149
      10.660000       1.271016      -0.255986       0.761431
      10.670000       1.272103      -0.258802       0.793018
      10.680000       1.271424      -0.260854       0.823634
      10.690000       1.269185      -0.261926       0.852854
      10.700000       1.265973      -0.261800       0.880079
      10.710000       1.262661      -0.260303       0.904552
      10.720000       1.260216      -0.257362       0.925377
      10.730000       1.259466      -0.253058       0.941534
      10.740000       1.260904      -0.247628       0.951882
      10.750000       1.264606      -0.241433       0.955163
      10.760000       1.270262      -0.234893       0.949994
      10.770000       1.277315      -0.228424       0.934894
      10.780000       1.285137      -0.222386       0.908353
      10.790000       1.293218      -0.217054       0.868981
      10.800000       1.301301      -0.212592       0.815741
      10.810000       1.309441      -0.209035       0.748224
      10.820000       1.317960      -0.206277       0.666873
      10.830000       1.327312      -0.204074       0.573087
      10.840000       1.337908      -0.202088       0.469144
      10.850000       1.349966      -0.199956       0.357947
      10.860000       1.363438      -0.197362       0.242673
      10.870000       1.378019      -0.194089       0.126418
      10.880000       1.393215      -0.190045       0.011911
      10.890000       1.408433      -0.185252      -0.098634
      10.900000       1.423070      -0.179834      -0.203546
      10.910000       1.436599      -0.173992      -0.301633
      10.920000       1.448641      -0.167978      -0.392066
      10.930000       1.459020      -0.162060      -0.474271
      10.940000       1.467787      -0.156475      -0.547837
      10.950000       1.475179      -0.151396      -0.612470
      10.960000       1.481512      -0.146902      -0.667977
      10.970000       1.487061      -0.142972      -0.714287
      10.980000       1.491969      -0.139494      -0.751512
      10.990000       1.496247      -0.136273      -0.779993
      11.000000       1.499845      -0.133053      -0.800324
      11.010000       1.502772      -0.129549      -0.813314
      11.020000       1.505185      -0.125497      -0.819917
      11.030000       1.507418      -0.120710      -0.821143
      11.040000       1.509938      -0.115120      -0.817973
      11.050000       1.513246      -0.108794      -0.811293
      11.060000       1.517774      -0.101906      -0.801852
      11.070000       1.523801      -0.094694      -0.790249
      11.080000       1.531400      -0.087400      -0.776948
      11.090000       1.540399      -0.080230      -0.762311
      11.100000       1.550341      -0.073338      -0.746633
      11.110000       1.560459      -0.066830      -0.730166
      11.120000       1.569679      -0.060776      -0.713116
      11.130000       1.576706      -0.055215      -0.695645
      11.140000       1.580184      -0.050138      -0.677871
      11.150000       1.578912      -0.045465      -0.659881
      11.160000       1.572041      -0.041037      -0.641746
      11.170000       1.559192      -0.036633      -0.623516
      11.180000       1.540466      -0.032009      -0.605222
      11.190000       1.516346      -0.026943      -0.586882
      11.200000       1.487551      -0.021277      -0.568522
      11.210000       1.454884      -0.014935      -0.550204
      11.220000       1.419112      -0.007923      -0.532042
      11.230000       1.380902      -0.000328      -0.514201
      11.240000       1.340832       0.007703      -0.496881
      11.250000       1.299472       0.015981      -0.480314
      11.260000       1.257483       0.024304      -0.464765
      11.270000       1.215676       0.032490      -0.450529
      11.280000       1.174960       0.040393      -0.437910
      11.290000       1.136173       0.047934      -0.427147
      11.300000       1.099889       0.055096      -0.418329
      11.310000       1.066265       0.061924      -0.411300
      11.320000       1.035026       0.068513      -0.405622
      11.330000       1.005580       0.074983      -0.400623
      11.340000       0.977203       0.081468      -0.395530
      11.350000       0.949244       0.088098      -0.389641
      11.360000       0.921285       0.094990      -0.382493
      11.370000       0.893236       0.102242      -0.373971
      11.380000       0.865348       0.109933      -0.364333
      11.390000       0.838124       0.118111      -0.354172
      11.400000       0.812157       0.126784      -0.344322
      11.410000       0.787937       0.135903      -0.335745
      11.420000       0.765691       0.145355      -0.329410
      11.430000       0.745313       0.154978      -0.326164
      11.440000       0.726376       0.164575      -0.326607
      11.450000       0.708240       0.173957      -0.330992
      11.460000       0.690194       0.182973      -0.339167
      11.470000       0.671637       0.191538      -0.350581
      11.480000       0.652230       0.199642      -0.364361
      11.490000       0.631997       0.207345      -0.379451
      11.500000       0.611320       0.214752      -0.394781
      11.510000       0.590818       0.221980      -0.409426
      11.520000       0.571179       0.229130      -0.422723
      11.530000       0.552979       0.236260      -0.434291
      11.540000       0.536549       0.243371      -0.443978
      11.550000       0.521900       0.250399      -0.451757
      11.560000       0.508692       0.257232      -0.457621
      11.570000       0.496276       0.263723      -0.461529
      11.580000       0.483794       0.269725      -0.463407
      11.590000       0.470348       0.275120      -0.463194
      11.600000       0.455184       0.279838      -0.460906
      11.610000       0.437829       0.283868      -0.456669
      11.620000       0.418132       0.287249      -0.450731
      11.630000       0.396228       0.290055      -0.443436
      11.640000       0.372447       0.292374      -0.435167
      11.650000       0.347218       0.294295      -0.426288
      11.660000       0.321016       0.295919      -0.417073
      11.670000       0.294324       0.297369      -0.407670
      11.680000       0.267635       0.298798      -0.398084
      11.690000       0.241490       0.300387      -0.388205
      11.700000       0.216544       0.302318      -0.377863
      11.710000       0.193595       0.304742      -0.366897
      11.720000       0.173551       0.307740      -0.355201
      11.730000       0.157289       0.311309      -0.342753
      11.740000       0.145469       0.315369      -0.329592
      11.750000       0.138378       0.319799      -0.315803
      11.760000       0.135868       0.324479      -0.301491
      11.770000       0.137418       0.329332      -0.286790
      11.780000       0.142272       0.334328      -0.271875
      11.790000       0.149619       0.339459      -0.256976
      11.800000       0.158753       0.344712      -0.242383
      11.810000       0.169165       0.350034      -0.228427
      11.820000       0.180553       0.355330      -0.215452
      11.830000       0.192747       0.360486      -0.203776
      11.840000       0.205618       0.365395      -0.193646
      11.850000       0.218991       0.369998      -0.185206
      11.860000       0.232633       0.374300      -0.178467
      11.870000       0.246284       0.378364      -0.173310
      11.880000       0.259710       0.382282      -0.169484
      11.890000       0.272721       0.386137      -0.166622
      11.900000       0.285141       0.389966      -0.164264
      11.910000       0.296739       0.393747      -0.161902
      11.920000       0.307174       0.397410      -0.159053
      11.930000       0.315998       0.400867      -0.155336
      11.940000       0.322741       0.404065      -0.150539
      11.950000       0.327048       0.407022      -0.144650
      11.960000       0.328826       0.409841      -0.137841
      11.970000       0.328318       0.412687      -0.130419
      11.980000       0.326070       0.415728      -0.122763
      11.990000       0.322778       0.419075      -0.115251
      12.000000       0.319083       0.422737      -0.108220
      12.010000       0.315388       0.426611      -0.101931
      12.020000       0.311780       0.430509      -0.096568
      12.030000       0.308080       0.434200      -0.092237
      12.040000       0.304009       0.437466      -0.088967
      12.050000       0.299360       0.440140      -0.086709
      12.060000       0.294129       0.442133      -0.085327
      12.070000       0.288529       0.443436      -0.084605
      12.080000       0.282913       0.444108      -0.084258
      12.090000       0.277629       0.444255      -0.083953
      12.100000       0.272884       0.444007      -0.083332
      12.110000       0.268646       0.443511      -0.082032
      12.120000       0.264597       0.442926      -0.079710
      12.130000       0.260151       0.442420      -0.076069
      12.140000       0.254516       0.442169      -0.070894
      12.150000       0.246811       0.442338      -0.064072
      12.160000       0.236206       0.443073      -0.055613
      12.170000       0.222062       0.444485      -0.045654
      12.180000       0.204067       0.446641      -0.034451
      12.190000       0.182331       0.449564      -0.022351
      12.200000       0.157464       0.453230      -0.009759
      12.210000       0.130583       0.457577       0.002896
      12.220000       0.103225       0.462509       0.015204
      12.230000       0.077150       0.467911       0.026805
      12.240000       0.054074       0.473650       0.037410
      12.250000       0.035416       0.479581       0.046817
      12.260000       0.022141       0.485543       0.054909
      12.270000       0.014725       0.491366       0.061636
      12.280000       0.013214       0.496880       0.066999
      12.290000       0.017308       0.501935       0.071028
      12.300000       0.026452       0.506427       0.073788
      12.310000       0.039887       0.510320       0.075384
      12.320000       0.056700       0.513649       0.075978
      12.330000       0.075870       0.516511       0.075787
      12.340000       0.096317       0.519040       0.075070
      12.350000       0.116954       0.521377       0.074107
      12.360000       0.136743       0.523642       0.073175
      12.370000       0.154753       0.525928       0.072538
      12.380000       0.170219       0.528289       0.072445
      12.390000       0.182597       0.530741       0.073128
      12.400000       0.191615       0.533255       0.074789
      12.410000       0.197292       0.535747       0.077569
      12.420000       0.199936       0.538068       0.081510
      12.430000       0.200103       0.540007       0.086535
      12.440000       0.198546       0.541307       0.092451
      12.450000       0.196142       0.541705       0.098978
      12.460000       0.193800       0.540966       0.105793
      12.470000       0.192349       0.538923       0.112567
      12.480000       0.192413       0.535493       0.118984
      12.490000       0.194325       0.530697       0.124753
      12.500000       0.198086       0.524660       0.129615
      12.510000       0.203406       0.517608       0.133359
      12.520000       0.209798       0.509850       0.135856
      12.530000       0.216692       0.501730       0.137097
      12.540000       0.223560       0.493575       0.137206
      12.550000       0.230023       0.485640       0.136444
      12.560000       0.235928       0.478086       0.135176
      12.570000       0.241388       0.471003       0.133819
      12.580000       0.246755       0.464459       0.132779
      12.590000       0.252534       0.458567       0.132400
      12.600000       0.259240       0.453521       0.132915
      12.610000       0.267242       0.449587       0.134432
      12.620000       0.276649       0.447047       0.136940
      12.630000       0.287248       0.446125       0.140335
      12.640000       0.298533       0.446904       0.144466
      12.650000       0.309780       0.449295       0.149172
      12.660000       0.320175       0.453037       0.154311
      12.670000       0.328941       0.457736       0.159769
      12.680000       0.335455       0.462909       0.165445
      12.690000       0.339317       0.468053       0.171227
      12.700000       0.340354       0.472690       0.176967
      12.710000       0.338556       0.476420       0.182474
      12.720000       0.333979       0.478952       0.187523
      12.730000       0.326661       0.480119       0.191885
      12.740000       0.316588       0.479876       0.195365
      12.750000       0.303715       0.478290       0.197844
      12.760000       0.288038       0.475522       0.199306
      12.770000       0.269660       0.471816       0.199860
      12.780000       0.248827       0.467470       0.199736
      12.790000       0.225915       0.462805       0.199258
      12.800000       0.201384       0.458125       0.198799
      12.810000       0.175729       0.453675       0.198722
      12.820000       0.149466       0.449607       0.199329
      12.830000       0.123146       0.445976       0.200820
      12.840000       0.097395       0.442770       0.203276
      12.850000       0.072957       0.439969       0.206678
      12.860000       0.050681       0.437600       0.210937
      12.870000       0.031450       0.435778       0.215928
      12.880000       0.016052       0.434696       0.221525
      12.890000       0.005052       0.434580       0.227598
      12.900000      -0.001294       0.435620       0.234012
      12.910000      -0.003052       0.437910       0.240608
      12.920000      -0.000571       0.441410       0.247201
      12.930000       0.005594       0.445934       0.253583
      12.940000       0.014741       0.451161       0.259546
      12.950000       0.026079       0.456664       0.264909
      12.960000       0.038782       0.461953       0.269549
      12.970000       0.052045       0.466540       0.273418
      12.980000       0.065145       0.470000       0.276546
      12.990000       0.077507       0.472034       0.279020
      13.000000       0.088769       0.472497       0.280954
      13.010000       0.098824       0.471401       0.282459
      13.020000       0.107835       0.468890       0.283622
      13.030000       0.116196       0.465192       0.284510
      13.040000       0.124435       0.460560       0.285188
      13.050000       0.133079       0.455220       0.285737
      13.060000       0.142523       0.449328       0.286264
      13.070000       0.152946       0.442955       0.286898
      13.080000       0.164293       0.436092       0.287767
      13.090000       0.176323       0.428685       0.288974
      13.100000       0.188695       0.420678       0.290583
      13.110000       0.201058       0.412061       0.292620
      13.120000       0.213137       0.402917       0.295079
      13.130000       0.224771       0.393449       0.297937
      13.140000       0.235909       0.383983       0.301161
      13.150000       0.246564       0.374953       0.304716
      13.160000       0.256735       0.366839       0.308559
      13.170000       0.266334       0.360091       0.312633
      13.180000       0.275160       0.355046       0.316871
      13.190000       0.282919       0.351852       0.321194
      13.200000       0.289287       0.350428       0.325521
      13.210000       0.294004       0.350476       0.329780
      13.220000       0.296942       0.351525       0.333907
      13.230000       0.298150       0.353021       0.337850
      13.240000       0.297840       0.354403       0.341568
      13.250000       0.296324       0.355186       0.345042
      13.260000       0.293921       0.354998       0.348277
      13.270000       0.290862       0.353594       0.351323
      13.280000       0.287246       0.350849       0.354277
      13.290000       0.283057       0.346733       0.357276
      13.300000       0.278239       0.341303       0.360478
      13.310000       0.272776       0.334680       0.364032
      13.320000       0.266743       0.327045       0.368051
      13.330000       0.260304       0.318619       0.372590
      13.340000       0.253682       0.309655       0.377645
      13.350000       0.247114       0.300432       0.383154
      13.360000       0.240832       0.291237       0.389012
      13.370000       0.235070       0.282355       0.395086
      13.380000       0.230068       0.274053       0.401230
      13.390000       0.226068       0.266571       0.407305
      13.400000       0.223270       0.260122       0.413190
      13.410000       0.221774       0.254899       0.418791
      13.420000       0.221530       0.251075       0.424046
      13.430000       0.222328       0.248805       0.428918
      13.440000       0.223814       0.248211       0.433391
      13.450000       0.225543       0.249366       0.437461
      13.460000       0.227043       0.252271       0.441143
      13.470000       0.227867       0.256842       0.444478
      13.480000       0.227632       0.262912       0.447535
      13.490000       0.226031       0.270233       0.450415
      13.500000       0.222819       0.278494       0.453240
      13.510000       0.217803       0.287329       0.456136
      13.520000       0.210834       0.296334       0.459221
      13.530000       0.201819       0.305090       0.462590
      13.540000       0.190756       0.313187       0.466315
      13.550000       0.177769       0.320251       0.470448
      13.560000       0.163161       0.325977       0.475021
      13.570000       0.147440       0.330141       0.480047
      13.580000       0.131315       0.332614       0.485514
      13.590000       0.115633       0.333373       0.491388
      13.600000       0.101282       0.332508       0.497616
      13.610000       0.089059       0.330236       0.504135
      13.620000       0.079582       0.326890       0.510887
      13.630000       0.073227       0.322897       0.517829
      13.640000       0.070138       0.318708       0.524930
      13.650000       0.070253       0.314742       0.532171
      13.660000       0.073350       0.311320       0.539535
      13.670000       0.079080       0.308639       0.547000
      13.680000       0.087004       0.306763       0.554532
      13.690000       0.096622       0.305644       0.562087
      13.700000       0.107421       0.305150       0.569622
      13.710000       0.118919       0.305106       0.577095
      13.720000       0.130707       0.305340       0.584477
      13.730000       0.142476       0.305730       0.591751
      13.740000       0.154026       0.306234       0.598915
      13.750000       0.165246       0.306901       0.605979
      13.760000       0.176084       0.307844       0.612963
      13.770000       0.186494       0.309205       0.619898
      13.780000       0.196410       0.311110       0.626807
      13.790000       0.205742       0.313635       0.633707
      13.800000       0.214383       0.316790       0.640592
      13.810000       0.222245       0.320508       0.647430
      13.820000       0.229283       0.324643       0.654169
      13.830000       0.235522       0.328965       0.660734
      13.840000       0.241076       0.333166       0.667038
      13.850000       0.246143       0.336859       0.672992
      13.860000       0.250973       0.339598       0.678512
      13.870000       0.255820       0.340897       0.683522
      13.880000       0.260890       0.340287       0.687954
      13.890000       0.266299       0.337379       0.691739
      13.900000       0.272059       0.331962       0.694806
      13.910000       0.278092       0.324089       0.697086
      13.920000       0.284260       0.314120       0.698521
      13.930000       0.290406       0.302705       0.699076
      13.940000       0.296393       0.290687       0.698744
      13.950000       0.302125       0.278951       0.697542
      13.960000       0.307568       0.268267       0.695496
      13.970000       0.312746       0.259190       0.692626
      13.980000       0.317723       0.252010       0.688932
      13.990000       0.322576       0.246776       0.684388
      14.000000       0.327358       0.243341       0.678943
      14.010000       0.332071       0.241429       0.672538
      14.020000       0.336661       0.240694       0.665111
      14.030000       0.341040       0.240778       0.656616
      14.040000       0.345123       0.241354       0.647044
      14.050000       0.348863       0.242143       0.636436
      14.060000       0.352280       0.242924       0.624887
      14.070000       0.355474       0.243526       0.612543
      14.080000       0.358613       0.243817       0.599584
      14.090000       0.361906       0.243696       0.586197
      14.100000       0.365544       0.243081       0.572558
      14.110000       0.369643       0.241901       0.558822
      14.120000       0.374192       0.240085       0.545126
      14.130000       0.379045       0.237562       0.531592
      14.140000       0.383932       0.234253       0.518334
      14.150000       0.388505       0.230085       0.505442
      14.160000       0.392384       0.225007       0.492980
      14.170000       0.395214       0.219016       0.480972
      14.180000       0.396716       0.212198       0.469418
      14.190000       0.396736       0.204750       0.458304
      14.200000       0.395277       0.196980       0.447632
      14.210000       0.392498       0.189282       0.437437
      14.220000       0.388688       0.182057       0.427794
      14.230000       0.384205       0.175640       0.418814
      14.240000       0.379416       0.170230       0.410621
      14.250000       0.374632       0.165858       0.403332
      14.260000       0.370059       0.162404       0.397028
      14.270000       0.365762       0.159649       0.391741
      14.280000       0.361655       0.157341       0.387455
      14.290000       0.357540       0.155263       0.384117
      14.300000       0.353166       0.153282       0.381657
      14.310000       0.348326       0.151380       0.379999
      14.320000       0.342922       0.149651       0.379081
      14.330000       0.336989       0.148274       0.378863
      14.340000       0.330669       0.147474       0.379329
      14.350000       0.324136       0.147465       0.380496
      14.360000       0.317545       0.148408       0.382404
      14.370000       0.311008       0.150396       0.385110
      14.380000       0.304614       0.153439       0.388668
      14.390000       0.298457       0.157484       0.393113
      14.400000       0.292661       0.162423       0.398447
      14.410000       0.287375       0.168105       0.404632
      14.420000       0.282756       0.174353       0.411590
      14.430000       0.278947       0.180977       0.419211
      14.440000       0.276070       0.187782       0.427363
      14.450000       0.274220       0.194590       0.435909
      14.460000       0.273463       0.201244       0.444711
      14.470000       0.273831       0.207621       0.453638
      14.480000       0.275313       0.213626       0.462570
      14.490000       0.277842       0.219190       0.471396
      14.500000       0.281285       0.224267       0.480014
      14.510000       0.285445       0.228832       0.488335
      14.520000       0.290071       0.232884       0.496280
      14.530000       0.294899       0.236448       0.503781
      14.540000       0.299690       0.239567       0.510786
      14.550000       0.304279       0.242297       0.517248
      14.560000       0.308606       0.244693       0.523136
      14.570000       0.312725       0.246799       0.528430
      14.580000       0.316783       0.248647       0.533142
      14.590000       0.320980       0.250253       0.537327
      14.600000       0.325512       0.251626       0.541090
      14.610000       0.330530       0.252782       0.544585
      14.620000       0.336107       0.253757       0.547993
      14.630000       0.342236       0.254606       0.551495
      14.640000       0.348836       0.255403       0.555234
      14.650000       0.355770       0.256223       0.559303
      14.660000       0.362851       0.257122       0.563739
      14.670000       0.369866       0.258130       0.568527
      14.680000       0.376581       0.259246       0.573624
      14.690000       0.382775       0.260453       0.578968
      14.700000       0.388266       0.261742       0.584501
      14.710000       0.392941       0.263119       0.590169
      14.720000       0.396776       0.264623       0.595935
      14.730000       0.399843       0.266312       0.601771
      14.740000       0.402306       0.268245       0.607661
      14.750000       0.404402       0.270463       0.613597
      14.760000       0.406415       0.272980       0.619581
      14.770000       0.408645       0.275779       0.625622
      14.780000       0.411363       0.278826       0.631742
      14.790000       0.414780       0.282081       0.637966
      14.800000       0.419021       0.285509       0.644316
      14.810000       0.424110       0.289070       0.650803
      14.820000       0.429968       0.292722       0.657421
      14.830000       0.436421       0.296408       0.664139
      14.840000       0.443224       0.300061       0.670909
      14.850000       0.450075       0.303617       0.677672
      14.860000       0.456645       0.307020       0.684373
      14.870000       0.462608       0.310232       0.690971
      14.880000       0.467660       0.313231       0.697450
      14.890000       0.471556       0.316014       0.703819
      14.900000       0.474139       0.318591       0.710108
      14.910000       0.475376       0.320990       0.716361
      14.920000       0.475372       0.323249       0.722621
      14.930000       0.474361       0.325406       0.728919
      14.940000       0.472665       0.327490       0.735272
      14.950000       0.470625       0.329504       0.741685
      14.960000       0.468526       0.331432       0.748160
      14.970000       0.466549       0.333240       0.754707
      14.980000       0.464756       0.334898       0.761347
      14.990000       0.463113       0.336392       0.768113
      15.000000       0.461533       0.337732       0.775037
      15.010000       0.459911       0.338953       0.782144
      15.020000       0.458144       0.340105       0.789436
      15.030000       0.456124       0.341242       0.796887
      15.040000       0.453735       0.342405       0.804444
      15.050000       0.450853       0.343618       0.812025
      15.060000       0.447359       0.344884       0.819532
      15.070000       0.443170       0.346189       0.826850
      15.080000       0.438259       0.347514       0.833865
      15.090000       0.432649       0.348839       0.840469
      15.100000       0.426405       0.350154       0.846572
      15.110000       0.419593       0.351456       0.852122
      15.120000       0.412242       0.352743       0.857100
      15.130000       0.404324       0.354014       0.861528
      15.140000       0.395744       0.355263       0.865450
      15.150000       0.386381       0.356486       0.868908
      15.160000       0.376146       0.357688       0.871920
      15.170000       0.365061       0.358887       0.874459
      15.180000       0.353312       0.360111       0.876444
      15.190000       0.341261       0.361393       0.877753
      15.200000       0.329406       0.362759       0.878238
      15.210000       0.318295       0.364228       0.877742
      15.220000       0.308441       0.365807       0.876115
      15.230000       0.300243       0.367495       0.873221
      15.240000       0.293942       0.369276       0.868941
      15.250000       0.289611       0.371119       0.863179
      15.260000       0.287168       0.372969       0.855863
      15.270000       0.286410       0.374752       0.846952
      15.280000       0.287044       0.376381       0.836446
      15.290000       0.288738       0.377773       0.824397
      15.300000       0.291164       0.378862       0.810914
      15.310000       0.294040       0.379611       0.796157
      15.320000       0.297172       0.380022       0.780317
      15.330000       0.300467       0.380137       0.763587
      15.340000       0.303925       0.380027       0.746131
      15.350000       0.307607       0.379781       0.728068
      15.360000       0.311577       0.379483       0.709464
      15.370000       0.315860       0.379196       0.690346
      15.380000       0.320410       0.378953       0.670725
      15.390000       0.325121       0.378759       0.650606
      15.400000       0.329861       0.378607       0.630004
      15.410000       0.334515       0.378494       0.608963
      15.420000       0.339032       0.378435       0.587566
      15.430000       0.343441       0.378464       0.565968
      15.440000       0.347846       0.378623       0.544406
      15.450000       0.352393       0.378949       0.523203
      15.460000       0.357229       0.379464       0.502734
      15.470000       0.362474       0.380174       0.483375
      15.480000       0.368192       0.381076       0.465449
      15.490000       0.374394       0.382163       0.449180
      15.500000       0.381035       0.383430       0.434674
      15.510000       0.388028       0.384870       0.421925
      15.520000       0.395250       0.386470       0.410837
      15.530000       0.402558       0.388202       0.401250
      15.540000       0.409806       0.390030       0.392969
      15.550000       0.416859       0.391907       0.385776
      15.560000       0.423606       0.393780       0.379450
      15.570000       0.429964       0.395594       0.373780
      15.580000       0.435876       0.397299       0.368585
      15.590000       0.441298       0.398848       0.363722
      15.600000       0.446190       0.400209       0.359089
      15.610000       0.450511       0.401359       0.354617
      15.620000       0.454218       0.402294       0.350264
      15.630000       0.457276       0.403028       0.346003
      15.640000       0.459668       0.403596       0.341831
      15.650000       0.461400       0.404050       0.337762
      15.660000       0.462499       0.404450       0.333836
      15.670000       0.463000       0.404852       0.330110
      15.680000       0.462926       0.405296       0.326638
      15.690000       0.462272       0.405804       0.323455
      15.700000       0.460998       0.406378       0.320558
      15.710000       0.459030       0.407010       0.317899
      15.720000       0.456275       0.407689       0.315399
      15.730000       0.452646       0.408407       0.312974
      15.740000       0.448088       0.409159       0.310578
      15.750000       0.442621       0.409947       0.308232
      15.760000       0.436370       0.410785       0.306040
      15.770000       0.429577       0.411696       0.304173
      15.780000       0.422587       0.412721       0.302838
      15.790000       0.415795       0.413903       0.302236
      15.800000       0.409582       0.415287       0.302535
      15.810000       0.404242       0.416906       0.303853
      15.820000       0.399933       0.418779       0.306251
      15.830000       0.396651       0.420907       0.309731
      15.840000       0.394249       0.423274       0.314236
      15.850000       0.392488       0.425847       0.319655
      15.860000       0.391108       0.428584       0.325841
      15.870000       0.389900       0.431435       0.332626
      15.880000       0.388762       0.434348       0.339847
      15.890000       0.387708       0.437271       0.347356
      15.900000       0.386846       0.440150       0.355033
      15.910000       0.386317       0.442924       0.362782
      15.920000       0.386237       0.445524       0.370534
      15.930000       0.386650       0.447876       0.378240
      15.940000       0.387523       0.449903       0.385870
      15.950000       0.388768       0.451534       0.393406
      15.960000       0.390271       0.452720       0.400839
      15.970000       0.391924       0.453439       0.408169
      15.980000       0.393632       0.453707       0.415401
      15.990000       0.395308       0.453573       0.422541
      16.000000       0.396872       0.453116       0.429598
      16.010000       0.398244       0.452439       0.436570
      16.020000       0.399353       0.451651       0.443441
      16.030000       0.400135       0.450858       0.450176
      16.040000       0.400540       0.450153       0.456721
      16.050000       0.400533       0.449612       0.463013
      16.060000       0.400099       0.449299       0.468986
      16.070000       0.399249       0.449264       0.474585
      16.080000       0.398026       0.449547       0.479773
      16.090000       0.396513       0.450173       0.484540
      16.100000       0.394831       0.451150       0.488892
      16.110000       0.393133       0.452460       0.492856
      16.120000       0.391604       0.454065       0.496471
      16.130000       0.390439       0.455906       0.499782
      16.140000       0.389827       0.457914       0.502844
      16.150000       0.389932       0.460009       0.505717
      16.160000       0.390870       0.462114       0.508467
      16.170000       0.392694       0.464148       0.511160
      16.180000       0.395383       0.466031       0.513857
      16.190000       0.398845       0.467693       0.516613
      16.200000       0.402926       0.469077       0.519468
      16.210000       0.407426       0.470147       0.522457
      16.220000       0.412127       0.470900       0.525598
      16.230000       0.416813       0.471359       0.528900
      16.240000       0.421295       0.471576       0.532353
      16.250000       0.425423       0.471624       0.535930
      16.260000       0.429101       0.471586       0.539589
      16.270000       0.432291       0.471546       0.543275
      16.280000       0.435007       0.471582       0.546926
      16.290000       0.437312       0.471756       0.550485
      16.300000       0.439306       0.472111       0.553903
      16.310000       0.441113       0.472671       0.557151
      16.320000       0.442868       0.473441       0.560217
      16.330000       0.444705       0.474416       0.563108
      16.340000       0.446738       0.475584       0.565844
      16.350000       0.449057       0.476924       0.568455
      16.360000       0.451711       0.478414       0.570972
      16.370000       0.454714       0.480028       0.573434
      16.380000       0.458044       0.481734       0.575878
      16.390000       0.461651       0.483491       0.578339
      16.400000       0.465453       0.485248       0.580835
      16.410000       0.469345       0.486945       0.583367
      16.420000       0.473188       0.488515       0.585908
      16.430000       0.476816       0.489887       0.588411
      16.440000       0.480029       0.490997       0.590812
      16.450000       0.482598       0.491790       0.593049
      16.460000       0.484269       0.492221       0.595067
      16.470000       0.484772       0.492261       0.596834
      16.480000       0.483835       0.491901       0.598337
      16.490000       0.481213       0.491152       0.599581
      16.500000       0.476719       0.490054       0.600582
      16.510000       0.470279       0.488678       0.601366
      16.520000       0.461981       0.487124       0.601962
      16.530000       0.452106       0.485505       0.602405
      16.540000       0.441140       0.483936       0.602727
      16.550000       0.429727       0.482513       0.602964
      16.560000       0.418577       0.481307       0.603154
      16.570000       0.408361       0.480360       0.603337
      16.580000       0.399606       0.479686       0.603556
      16.590000       0.392642       0.479279       0.603846
      16.600000       0.387584       0.479121       0.604229
      16.610000       0.384371       0.479190       0.604708
      16.620000       0.382811       0.479463       0.605265
      16.630000       0.382645       0.479920       0.605864
      16.640000       0.383591       0.480544       0.606462
      16.650000       0.385376       0.481314       0.607021
      16.660000       0.387746       0.482206       0.607516
      16.670000       0.390470       0.483189       0.607947
      16.680000       0.393332       0.484226       0.608340
      16.690000       0.396138       0.485277       0.608741
      16.700000       0.398729       0.486303       0.609212
      16.710000       0.401004       0.487271       0.609811
      16.720000       0.402934       0.488157       0.610588
      16.730000       0.404578       0.488955       0.611577
      16.740000       0.406068       0.489673       0.612801
      16.750000       0.407585       0.490331       0.614268
      16.760000       0.409315       0.490959       0.615977
      16.770000       0.411414       0.491584       0.617920
      16.780000       0.413972       0.492222       0.620076
      16.790000       0.417005       0.492880       0.622414
      16.800000       0.420453       0.493552       0.624894
      16.810000       0.424198       0.494229       0.627473
      16.820000       0.428086       0.494901       0.630105
      16.830000       0.431948       0.495563       0.632752
      16.840000       0.435625       0.496213       0.635382
      16.850000       0.438987       0.496852       0.637975
      16.860000       0.441949       0.497480       0.640521
      16.870000       0.444478       0.498103       0.643020
      16.880000       0.446586       0.498733       0.645477
      16.890000       0.448321       0.499390       0.647892
      16.900000       0.449745       0.500105       0.650261
      16.910000       0.450914       0.500915       0.652570
      16.920000       0.451872       0.501853       0.654793
      16.930000       0.452648       0.502944       0.656899
      16.940000       0.453264       0.504189       0.658859
      16.950000       0.453744       0.505568       0.660650
      16.960000       0.454115       0.507043       0.662259
      16.970000       0.454411       0.508557       0.663686
      16.980000       0.454667       0.510049       0.664942
      16.990000       0.454904       0.511461       0.666040
      17.000000       0.455116       0.512742       0.666996
      17.010000       0.455262       0.513852       0.667832
      17.020000       0.455273       0.514771       0.668578
      17.030000       0.455074       0.515496       0.669273
      17.040000       0.454605       0.516043       0.669966
      17.050000       0.453846       0.516451       0.670707
      17.060000       0.452820       0.516772       0.671538
      17.070000       0.451589       0.517068       0.672484
      17.080000       0.450241       0.517396       0.673553
      17.090000       0.448873       0.517798       0.674740
      17.100000       0.447578       0.518292       0.676032
      17.110000       0.446433       0.518864       0.677416
      17.120000       0.445493       0.519478       0.678882
      17.130000       0.444786       0.520077       0.680423
      17.140000       0.444314       0.520604       0.682035
      17.150000       0.444053       0.521019       0.683711
      17.160000       0.443968       0.521303       0.685439
      17.170000       0.444021       0.521469       0.687200
      17.180000       0.444192       0.521553       0.688966
      17.190000       0.444491       0.521605       0.690709
      17.200000       0.444962       0.521674       0.692402
      17.210000       0.445679       0.521801       0.694031
      17.220000       0.446726       0.522016       0.695594
      17.230000       0.448175       0.522335       0.697099
      17.240000       0.450067       0.522767       0.698561
      17.250000       0.452401       0.523309       0.699993
      17.260000       0.455128       0.523958       0.701403
      17.270000       0.458164       0.524703       0.702793
      17.280000       0.461401       0.525531       0.704156
      17.290000       0.464718       0.526424       0.705485
      17.300000       0.467998       0.527360       0.706774
      17.310000       0.471135       0.528313       0.708023
      17.320000       0.474046       0.529254       0.709234
      17.330000       0.476668       0.530162       0.710416
      17.340000       0.478958       0.531016       0.711576
      17.350000       0.480887       0.531808       0.712716
      17.360000       0.482437       0.532531       0.713834
      17.370000       0.483602       0.533180       0.714925
      17.380000       0.484397       0.533749       0.715978
      17.390000       0.484864       0.534228       0.716989
      17.400000       0.485078       0.534607       0.717962
      17.410000       0.485135       0.534882       0.718915
      17.420000       0.485146       0.535057       0.719880
      17.430000       0.485214       0.535144       0.720895
      17.440000       0.485421       0.535158       0.721993
      17.450000       0.485808       0.535112       0.723194
      17.460000       0.486381       0.535007       0.724498
      17.470000       0.487112       0.534839       0.725886
      17.480000       0.487958       0.534595       0.727328
      17.490000       0.488879       0.534273       0.728797
      17.500000       0.489852       0.533883       0.730279
      17.510000       0.490871       0.533459       0.731775
      17.520000       0.491944       0.533056       0.733303
      17.530000       0.493079       0.532751       0.734893
      17.540000       0.494265       0.532619       0.736576
      17.550000       0.495476       0.532725       0.738380
      17.560000       0.496669       0.533108       0.740324
      17.570000       0.497797       0.533774       0.742414
      17.580000       0.498821       0.534699       0.744642
      17.590000       0.499714       0.535836       0.746989
      17.600000       0.500462       0.537122       0.749428
      17.610000       0.501065       0.538500       0.751924
      17.620000       0.501531       0.539916       0.754443
      17.630000       0.501873       0.541335       0.756951
      17.640000       0.502108       0.542737       0.759423
      17.650000       0.502252       0.544112       0.761837
      17.660000       0.502322       0.545456       0.764180
      17.670000       0.502336       0.546767       0.766448
      17.680000       0.502308       0.548040       0.768639
      17.690000       0.502258       0.549264       0.770760
      17.700000       0.502203       0.550429       0.772824
      17.710000       0.502158       0.551521       0.774844
      17.720000       0.502131       0.552524       0.776837
      17.730000       0.502123       0.553423       0.778818
      17.740000       0.502130       0.554201       0.780800
      17.750000       0.502153       0.554847       0.782791
      17.760000       0.502194       0.555353       0.784797
      17.770000       0.502263       0.555725       0.786819
      17.780000       0.502366       0.555977       0.788854
      17.790000       0.502507       0.556139       0.790898
      17.800000       0.502693       0.556254       0.792949
      17.810000       0.502934       0.556369       0.795013
      17.820000       0.503247       0.556538       0.797105
      17.830000       0.503653       0.556811       0.799254
      17.840000       0.504168       0.557224       0.801491
      17.850000       0.504797       0.557801       0.803850
      17.860000       0.505530       0.558545       0.806358
      17.870000       0.506345       0.559439       0.809032
      17.880000       0.507218       0.560451       0.811876
      17.890000       0.508132       0.561534       0.814889
      17.900000       0.509078       0.562635       0.818063
      17.910000       0.510060       0.563701       0.821386
      17.920000       0.511093       0.564685       0.824842
      17.930000       0.512192       0.565556       0.828411
      17.940000       0.513375       0.566298       0.832067
      17.950000       0.514655       0.566916       0.835783
      17.960000       0.516036       0.567426       0.839528
      17.970000       0.517517       0.567853       0.843278
      17.980000       0.519083       0.568221       0.847013
      17.990000       0.520709       0.568548       0.850721
      18.000000       0.522363       0.568841       0.854393
      18.010000       0.524010       0.569098       0.858021
      18.020000       0.525615       0.569309       0.861590
      18.030000       0.527149       0.569469       0.865082
      18.040000       0.528596       0.569573       0.868474
      18.050000       0.529952       0.569626       0.871741
      18.060000       0.531230       0.569641       0.874865
      18.070000       0.532449       0.569637       0.877837
      18.080000       0.533631       0.569634       0.880657
      18.090000       0.534791       0.569655       0.883330
      18.100000       0.535929       0.569717       0.885865
      18.110000       0.537037       0.569833       0.888268
      18.120000       0.538105       0.570008       0.890542
      18.130000       0.539129       0.570238       0.892689
      18.140000       0.540121       0.570514       0.894708
      18.150000       0.541112       0.570822       0.896595
      18.160000       0.542153       0.571150       0.898345
      18.170000       0.543303       0.571486       0.899952
      18.180000       0.544628       0.571827       0.901411
      18.190000       0.546180       0.572176       0.902728
      18.200000       0.547994       0.572546       0.903925
      18.210000       0.550073       0.572951       0.905046
      18.220000       0.552396       0.573408       0.906157
      18.230000       0.554920       0.573929       0.907343
      18.240000       0.557597       0.574521       0.908688
      18.250000       0.560378       0.575186       0.910265
      18.260000       0.563228       0.575927       0.912126
      18.270000       0.566127       0.576742       0.914291
      18.280000       0.569064       0.577633       0.916749
      18.290000       0.572033       0.578604       0.919451
      18.300000       0.575019       0.579664       0.922318
      18.310000       0.577996       0.580819       0.925247
      18.320000       0.580918       0.582074       0.928128
      18.330000       0.583725       0.583427       0.930860
      18.340000       0.586348       0.584861       0.933367
      18.350000       0.588714       0.586349       0.935604
      18.360000       0.590759       0.587851       0.937562
      18.370000       0.592431       0.589324       0.939257
      18.380000       0.593697       0.590721       0.940714
      18.390000       0.594547       0.592000       0.941952
      18.400000       0.594976       0.593126       0.942968
      18.410000       0.594981       0.594075       0.943728
      18.420000       0.594539       0.594834       0.944165
      18.430000       0.593599       0.595402       0.944177
      18.440000       0.592079       0.595792       0.943633
      18.450000       0.589880       0.596021       0.942388
      18.460000       0.586901       0.596110       0.940307
      18.470000       0.583064       0.596082       0.937282
      18.480000       0.578335       0.595961       0.933253
      18.490000       0.572748       0.595771       0.928214
      18.500000       0.566419       0.595537       0.922211
      18.510000       0.559558       0.595285       0.915341
      18.520000       0.552454       0.595039       0.907740
      18.530000       0.545442       0.594822       0.899577
      18.540000       0.538865       0.594647       0.891030
      18.550000       0.533024       0.594524       0.882268
      18.560000       0.528143       0.594455       0.873442
      18.570000       0.524347       0.594437       0.864684
      18.580000       0.521662       0.594469       0.856121
      18.590000       0.520031       0.594547       0.847883
      18.600000       0.519338       0.594673       0.840107
      18.610000       0.519437       0.594846       0.832914
      18.620000       0.520170       0.595072       0.826389
      18.630000       0.521395       0.595357       0.820554
      18.640000       0.522987       0.595715       0.815364
      18.650000       0.524846       0.596161       0.810722
      18.660000       0.526902       0.596710       0.806505
      18.670000       0.529103       0.597371       0.802595
      18.680000       0.531417       0.598144       0.798893
      18.690000       0.533816       0.599014       0.795312
      18.700000       0.536278       0.599960       0.791762
      18.710000       0.538776       0.600954       0.788134
      18.720000       0.541280       0.601974       0.784292
      18.730000       0.543759       0.603000       0.780092
      18.740000       0.546183       0.604021       0.775399
      18.750000       0.548527       0.605030       0.770124
      18.760000       0.550773       0.606021       0.764256
      18.770000       0.552909       0.606988       0.757873
      18.780000       0.554927       0.607926       0.751140
      18.790000       0.556823       0.608826       0.744287
      18.800000       0.558593       0.609679       0.737562
      18.810000       0.560234       0.610474       0.731198
      18.820000       0.561743       0.611194       0.725380
      18.830000       0.563121       0.611819       0.720241
      18.840000       0.564376       0.612325       0.715853
      18.850000       0.565527       0.612687       0.712245
      18.860000       0.566609       0.612885       0.709401
      18.870000       0.567669       0.612907       0.707275
      18.880000       0.568763       0.612755       0.705802
      18.890000       0.569947       0.612447       0.704901
      18.900000       0.571268       0.612013       0.704499
      18.910000       0.572760       0.611492       0.704534
      18.920000       0.574438       0.610926       0.704960
      18.930000       0.576303       0.610354       0.705749
      18.940000       0.578345       0.609814       0.706884
      18.950000       0.580549       0.609336       0.708344
      18.960000       0.582895       0.608945       0.710104
      18.970000       0.585366       0.608662       0.712124
      18.980000       0.587945       0.608500       0.714348
      18.990000       0.590619       0.608471       0.716709
      19.000000       0.593381       0.608577       0.719134
      19.010000       0.596224       0.608823       0.721556
      19.020000       0.599147       0.609205       0.723925
      19.030000       0.602149       0.609717       0.726211
      19.040000       0.605222       0.610351       0.728402
      19.050000       0.608355       0.611091       0.730493
      19.060000       0.611528       0.611917       0.732468
      19.070000       0.614709       0.612807       0.734289
      19.080000       0.617860       0.613732       0.735897
      19.090000       0.620930       0.614662       0.737218
      19.100000       0.623866       0.615568       0.738178
      19.110000       0.626610       0.616421       0.738711
      19.120000       0.629098       0.617201       0.738773
      19.130000       0.631262       0.617897       0.738343
      19.140000       0.633025       0.618512       0.737426
      19.150000       0.634301       0.619060       0.736046
      19.160000       0.634991       0.619567       0.734238
      19.170000       0.634991       0.620061       0.732053
      19.180000       0.634201       0.620569       0.729550
      19.190000       0.632543       0.621112       0.726807
      19.200000       0.629978       0.621699       0.723920
      19.210000       0.626523       0.622325       0.720999
      19.220000       0.622258       0.622969       0.718163
      19.230000       0.617314       0.623600       0.715528
      19.240000       0.611861       0.624181       0.713194
      19.250000       0.606077       0.624674       0.711240
      19.260000       0.600140       0.625047       0.709712
      19.270000       0.594220       0.625277       0.708629
      19.280000       0.588477       0.625354       0.707989
      19.290000       0.583071       0.625280       0.707776
      19.300000       0.578160       0.625068       0.707967
      19.310000       0.573891       0.624745       0.708532
      19.320000       0.570388       0.624344       0.709431
      19.330000       0.567731       0.623906       0.710619
      19.340000       0.565950       0.623469       0.712051
      19.350000       0.565021       0.623070       0.713692
      19.360000       0.564876       0.622740       0.715523
      19.370000       0.565417       0.622499       0.717539
      19.380000       0.566535       0.622359       0.719751
      19.390000       0.568119       0.622323       0.722168
      19.400000       0.570068       0.622391       0.724793
      19.410000       0.572296       0.622559       0.727610
      19.420000       0.574727       0.622821       0.730587
      19.430000       0.577299       0.623175       0.733674
      19.440000       0.579960       0.623611       0.736814
      19.450000       0.582666       0.624120       0.739957
      19.460000       0.585380       0.624689       0.743067
      19.470000       0.588076       0.625302       0.746126
      19.480000       0.590734       0.625944       0.749130
      19.490000       0.593341       0.626606       0.752080
      19.500000       0.595893       0.627280       0.754972
      19.510000       0.598385       0.627961       0.757789
      19.520000       0.600818       0.628646       0.760504
      19.530000       0.603188       0.629326       0.763077
      19.540000       0.605489       0.629987       0.765470
      19.550000       0.607712       0.630611       0.767642
      19.560000       0.609845       0.631181       0.769559
      19.570000       0.611880       0.631681       0.771188
      19.580000       0.613811       0.632103       0.772504
      19.590000       0.615638       0.632453       0.773492
      19.600000       0.617361       0.632746       0.774154
      19.610000       0.618980       0.633005       0.774507
      19.620000       0.620487       0.633254       0.774589
      19.630000       0.621862       0.633518       0.774451
      19.640000       0.623073       0.633813       0.774157
      19.650000       0.624084       0.634149       0.773780
      19.660000       0.624857       0.634529       0.773395
      19.670000       0.625369       0.634950       0.773077
      19.680000       0.625621       0.635408       0.772891
      19.690000       0.625639       0.635895       0.772884
      19.700000       0.625475       0.636408       0.773077
      19.710000       0.625200       0.636943       0.773466
      19.720000       0.624889       0.637497       0.774020
      19.730000       0.624612       0.638068       0.774695
      19.740000       0.624423       0.638651       0.775440
      19.750000       0.624354       0.639237       0.776204
      19.760000       0.624416       0.639813       0.776948
      19.770000       0.624596       0.640364       0.777642
      19.780000       0.624866       0.640874       0.778261
      19.790000       0.625186       0.641325       0.778791
      19.800000       0.625515       0.641706       0.779231
      19.810000       0.625815       0.642013       0.779605
      19.820000       0.626056       0.642249       0.779968
      19.830000       0.626217       0.642429       0.780406
      19.840000       0.626291       0.642578       0.781018
      19.850000       0.626281       0.642726       0.781896
      19.860000       0.626201       0.642905       0.783096
      19.870000       0.626073       0.643142       0.784624
      19.880000       0.625922       0.643460       0.786437
      19.890000       0.625768       0.643871       0.788454
      19.900000       0.625623       0.644381       0.790571
      19.910000       0.625487       0.644988       0.792676
      19.920000       0.625352       0.645683       0.794663
      19.930000       0.625204       0.646454       0.796430
      19.940000       0.625029       0.647281       0.797883
      19.950000       0.624813       0.648146       0.798935
      19.960000       0.624551       0.649028       0.799505
      19.970000       0.624246       0.649910       0.799515
      19.980000       0.623912       0.650774       0.798893
      19.990000       0.623574       0.651608       0.797575
      20.000000       0.623266       0.652403       0.795511
