  # energy grid [eV]     epsi_x  epsi_y  epsi_z
       0.000000            NaN            NaN            NaN
       0.010000       0.003414       0.003531       0.009576
       0.020000       0.006833       0.007073       0.019284
       0.030000       0.010262       0.010640       0.029256
       0.040000       0.013704       0.014244       0.039624
       0.050000       0.017165       0.017898       0.050514
       0.060000       0.020649       0.021614       0.062048
       0.070000       0.024162       0.025407       0.074328
       0.080000       0.027710       0.029293       0.087429
       0.090000       0.031296       0.033287       0.101377
       0.100000       0.034928       0.037407       0.116122
       0.110000       0.038610       0.041671       0.131510
       0.120000       0.042350       0.046100       0.147253
       0.130000       0.046154       0.050718       0.162910
       0.140000       0.050030       0.055549       0.177904
       0.150000       0.053984       0.060622       0.191561
       0.160000       0.058027       0.065969       0.203211
       0.170000       0.062166       0.071625       0.212302
       0.180000       0.066411       0.077629       0.218509
       0.190000       0.070774       0.084029       0.221785
       0.200000       0.075266       0.090874       0.222338
       0.210000       0.079899       0.098222       0.220535
       0.220000       0.084686       0.106141       0.216794
       0.230000       0.089641       0.114703       0.211490
       0.240000       0.094778       0.123991       0.204939
       0.250000       0.100111       0.134098       0.197422
       0.260000       0.105652       0.145125       0.189236
       0.270000       0.111412       0.157178       0.180715
       0.280000       0.117395       0.170369       0.172218
       0.290000       0.123601       0.184806       0.164087
       0.300000       0.130025       0.200581       0.156600
       0.310000       0.136653       0.217756       0.149928
       0.320000       0.143466       0.236341       0.144126
       0.330000       0.150442       0.256267       0.139127
       0.340000       0.157559       0.277353       0.134767
       0.350000       0.164799       0.299295       0.130819
       0.360000       0.172145       0.321662       0.127037
       0.370000       0.179589       0.343943       0.123214
       0.380000       0.187132       0.365632       0.119229
       0.390000       0.194791       0.386358       0.115073
       0.400000       0.202606       0.406002       0.110835
       0.410000       0.210642       0.424774       0.106678
       0.420000       0.218983       0.443199       0.102788
       0.430000       0.227726       0.462015       0.099343
       0.440000       0.236963       0.482021       0.096487
       0.450000       0.246781       0.503901       0.094326
       0.460000       0.257254       0.528070       0.092926
       0.470000       0.268438       0.554548       0.092321
       0.480000       0.280382       0.582879       0.092512
       0.490000       0.293123       0.612097       0.093475
       0.500000       0.306697       0.640769       0.095152
       0.510000       0.321145       0.667165       0.097449
       0.520000       0.336524       0.689549       0.100229
       0.530000       0.352920       0.706564       0.103314
       0.540000       0.370456       0.717593       0.106487
       0.550000       0.389300       0.722970       0.109505
       0.560000       0.409660       0.723935       0.112126
       0.570000       0.431780       0.722370       0.114125
       0.580000       0.455927       0.720427       0.115323
       0.590000       0.482390       0.720164       0.115594
       0.600000       0.511471       0.723294       0.114878
       0.610000       0.543485       0.731040       0.113188
       0.620000       0.578749       0.744071       0.110617
       0.630000       0.617570       0.762461       0.107338
       0.640000       0.660226       0.785640       0.103582
       0.650000       0.706918       0.812335       0.099611
       0.660000       0.757716       0.840523       0.095676
       0.670000       0.812478       0.867473       0.091991
       0.680000       0.870745       0.889956       0.088714
       0.690000       0.931634       0.904672       0.085941
       0.700000       0.993751       0.908854       0.083711
       0.710000       1.055179       0.900894       0.082016
       0.720000       1.113603       0.880721       0.080812
       0.730000       1.166611       0.849780       0.080030
       0.740000       1.212171       0.810620       0.079594
       0.750000       1.249154       0.766270       0.079429
       0.760000       1.277699       0.719657       0.079479
       0.770000       1.299280       0.673226       0.079705
       0.780000       1.316417       0.628778       0.080091
       0.790000       1.332186       0.587485       0.080634
       0.800000       1.349717       0.549997       0.081334
       0.810000       1.371839       0.516579       0.082182
       0.820000       1.400921       0.487240       0.083146
       0.830000       1.438874       0.461831       0.084177
       0.840000       1.487248       0.440119       0.085206
       0.850000       1.547358       0.421844       0.086163
       0.860000       1.620412       0.406741       0.086981
       0.870000       1.707612       0.394568       0.087604
       0.880000       1.810220       0.385109       0.087981
       0.890000       1.929597       0.378186       0.088058
       0.900000       2.067206       0.373652       0.087777
       0.910000       2.224574       0.371399       0.087085
       0.920000       2.403212       0.371346       0.085956
       0.930000       2.604487       0.373440       0.084403
       0.940000       2.829435       0.377650       0.082491
       0.950000       3.078510       0.383952       0.080323
       0.960000       3.351266       0.392322       0.078030
       0.970000       3.645952       0.402716       0.075746
       0.980000       3.959049       0.415049       0.073594
       0.990000       4.284798       0.429174       0.071668
       1.000000       4.614914       0.444864       0.070028
       1.010000       4.938754       0.461811       0.068697
       1.020000       5.244158       0.479638       0.067660
       1.030000       5.518960       0.497947       0.066875
       1.040000       5.752723       0.516377       0.066285
       1.050000       5.938015       0.534659       0.065825
       1.060000       6.070742       0.552655       0.065444
       1.070000       6.149648       0.570362       0.065107
       1.080000       6.175644       0.587909       0.064806
       1.090000       6.151525       0.605557       0.064557
       1.100000       6.082060       0.623700       0.064398
       1.110000       5.973816       0.642845       0.064378
       1.120000       5.834200       0.663569       0.064555
       1.130000       5.669833       0.686427       0.064984
       1.140000       5.485050       0.711868       0.065711
       1.150000       5.281388       0.740158       0.066764
       1.160000       5.058451       0.771341       0.068149
       1.170000       4.815745       0.805213       0.069846
       1.180000       4.554561       0.841302       0.071810
       1.190000       4.278968       0.878856       0.073980
       1.200000       3.995543       0.916858       0.076281
       1.210000       3.712127       0.954124       0.078642
       1.220000       3.436333       0.989524       0.080993
       1.230000       3.174391       1.022288       0.083267
       1.240000       2.930596       1.052317       0.085392
       1.250000       2.707280       1.080343       0.087289
       1.260000       2.505101       1.107845       0.088873
       1.270000       2.323463       1.136766       0.090071
       1.280000       2.160944       1.169107       0.090836
       1.290000       2.015677       1.206552       0.091155
       1.300000       1.885679       1.250169       0.091043
       1.310000       1.769109       1.300213       0.090525
       1.320000       1.664430       1.356010       0.089624
       1.330000       1.570475       1.415934       0.088351
       1.340000       1.486417       1.477491       0.086722
       1.350000       1.411674       1.537574       0.084771
       1.360000       1.345809       1.592874       0.082563
       1.370000       1.288448       1.640403       0.080194
       1.380000       1.239220       1.677997       0.077779
       1.390000       1.197734       1.704692       0.075432
       1.400000       1.163550       1.720898       0.073248
       1.410000       1.136155       1.728353       0.071294
       1.420000       1.114929       1.729848       0.069601
       1.430000       1.099093       1.728760       0.068168
       1.440000       1.087670       1.728474       0.066975
       1.450000       1.079454       1.731839       0.065994
       1.460000       1.073048       1.740775       0.065197
       1.470000       1.066971       1.756070       0.064569
       1.480000       1.059850       1.777351       0.064107
       1.490000       1.050671       1.803183       0.063824
       1.500000       1.038987       1.831292       0.063741
       1.510000       1.025017       1.858957       0.063893
       1.520000       1.009575       1.883576       0.064318
       1.530000       0.993872       1.903333       0.065058
       1.540000       0.979259       1.917727       0.066153
       1.550000       0.967016       1.927730       0.067638
       1.560000       0.958211       1.935454       0.069533
       1.570000       0.953652       1.943444       0.071843
       1.580000       0.953884       1.953869       0.074553
       1.590000       0.959212       1.967894       0.077624
       1.600000       0.969730       1.985367       0.080993
       1.610000       0.985338       2.004892       0.084580
       1.620000       1.005764       2.024201       0.088289
       1.630000       1.030583       2.040736       0.092020
       1.640000       1.059261       2.052255       0.095675
       1.650000       1.091210       2.057323       0.099165
       1.660000       1.125826       2.055546       0.102411
       1.670000       1.162513       2.047519       0.105349
       1.680000       1.200671       2.034538       0.107928
       1.690000       1.239698       2.018236       0.110113
       1.700000       1.279036       2.000307       0.111879
       1.710000       1.318276       1.982399       0.113206
       1.720000       1.357295       1.966137       0.114076
       1.730000       1.396315       1.953139       0.114471
       1.740000       1.435824       1.944910       0.114381
       1.750000       1.476361       1.942611       0.113824
       1.760000       1.518258       1.946796       0.112855
       1.770000       1.561466       1.957248       0.111576
       1.780000       1.605576       1.972991       0.110132
       1.790000       1.650038       1.992486       0.108689
       1.800000       1.694469       2.013885       0.107416
       1.810000       1.738885       2.035220       0.106452
       1.820000       1.783700       2.054444       0.105887
       1.830000       1.829500       2.069359       0.105754
       1.840000       1.876715       2.077622       0.106027
       1.850000       1.925371       2.076952       0.106626
       1.860000       1.975067       2.065574       0.107432
       1.870000       2.025157       2.042747       0.108313
       1.880000       2.075005       2.009146       0.109150
       1.890000       2.124157       1.966903       0.109862
       1.900000       2.172344       1.919278       0.110427
       1.910000       2.219379       1.870061       0.110874
       1.920000       2.265075       1.822903       0.111270
       1.930000       2.309273       1.780763       0.111693
       1.940000       2.351942       1.745539       0.112210
       1.950000       2.393217       1.717918       0.112870
       1.960000       2.433275       1.697390       0.113715
       1.970000       2.472084       1.682436       0.114792
       1.980000       2.509149       1.670859       0.116167
       1.990000       2.543362       1.660248       0.117922
       2.000000       2.572963       1.648473       0.120145
       2.010000       2.595571       1.634062       0.122913
       2.020000       2.608265       1.616320       0.126271
       2.030000       2.607765       1.595195       0.130226
       2.040000       2.590785       1.571013       0.134737
       2.050000       2.554540       1.544275       0.139709
       2.060000       2.497344       1.515603       0.144991
       2.070000       2.419131       1.485794       0.150379
       2.080000       2.321726       1.455854       0.155619
       2.090000       2.208703       1.426903       0.160428
       2.100000       2.084836       1.399968       0.164521
       2.110000       1.955296       1.375746       0.167632
       2.120000       1.824893       1.354475       0.169548
       2.130000       1.697555       1.335957       0.170128
       2.140000       1.576140       1.319713       0.169327
       2.150000       1.462492       1.305172       0.167206
       2.160000       1.357640       1.291780       0.163938
       2.170000       1.262002       1.278995       0.159783
       2.180000       1.175565       1.266195       0.155050
       2.190000       1.098016       1.252626       0.150046
       2.200000       1.028851       1.237468       0.145039
       2.210000       0.967458       1.220005       0.140224
       2.220000       0.913181       1.199816       0.135724
       2.230000       0.865364       1.176846       0.131600
       2.240000       0.823363       1.151311       0.127865
       2.250000       0.786549       1.123497       0.124514
       2.260000       0.754300       1.093594       0.121541
       2.270000       0.726001       1.061652       0.118950
       2.280000       0.701066       1.027681       0.116757
       2.290000       0.678974       0.991814       0.114979
       2.300000       0.659312       0.954454       0.113628
       2.310000       0.641805       0.916329       0.112701
       2.320000       0.626314       0.878434       0.112172
       2.330000       0.612793       0.841896       0.111994
       2.340000       0.601225       0.807814       0.112100
       2.350000       0.591568       0.777132       0.112411
       2.360000       0.583711       0.750572       0.112848
       2.370000       0.577482       0.728623       0.113340
       2.380000       0.572680       0.711572       0.113837
       2.390000       0.569131       0.699547       0.114315
       2.400000       0.566745       0.692558       0.114780
       2.410000       0.565533       0.690507       0.115261
       2.420000       0.565584       0.693183       0.115804
       2.430000       0.566996       0.700217       0.116461
       2.440000       0.569800       0.711027       0.117274
       2.450000       0.573894       0.724752       0.118280
       2.460000       0.579019       0.740217       0.119503
       2.470000       0.584785       0.755939       0.120967
       2.480000       0.590755       0.770250       0.122688
       2.490000       0.596551       0.781509       0.124667
       2.500000       0.601966       0.788400       0.126880
       2.510000       0.607032       0.790221       0.129269
       2.520000       0.612025       0.787046       0.131737
       2.530000       0.617401       0.779682       0.134161
       2.540000       0.623684       0.769425       0.136402
       2.550000       0.631343       0.757707       0.138307
       2.560000       0.640675       0.745746       0.139720
       2.570000       0.651736       0.734308       0.140489
       2.580000       0.664330       0.723607       0.140486
       2.590000       0.678072       0.713353       0.139636
       2.600000       0.692496       0.702918       0.137944
       2.610000       0.707190       0.691586       0.135506
       2.620000       0.721898       0.678800       0.132496
       2.630000       0.736543       0.664352       0.129133
       2.640000       0.751187       0.648438       0.125646
       2.650000       0.765930       0.631594       0.122237
       2.660000       0.780832       0.614548       0.119064
       2.670000       0.795862       0.598065       0.116236
       2.680000       0.810898       0.582806       0.113814
       2.690000       0.825730       0.569252       0.111823
       2.700000       0.840050       0.557655       0.110262
       2.710000       0.853398       0.548037       0.109107
       2.720000       0.865118       0.540220       0.108322
       2.730000       0.874345       0.533893       0.107861
       2.740000       0.880061       0.528696       0.107675
       2.750000       0.881220       0.524323       0.107715
       2.760000       0.876916       0.520587       0.107927
       2.770000       0.866552       0.517443       0.108250
       2.780000       0.849993       0.514955       0.108607
       2.790000       0.827660       0.513215       0.108915
       2.800000       0.800505       0.512277       0.109096
       2.810000       0.769876       0.512102       0.109090
       2.820000       0.737287       0.512554       0.108875
       2.830000       0.704174       0.513448       0.108464
       2.840000       0.671702       0.514614       0.107902
       2.850000       0.640673       0.515972       0.107244
       2.860000       0.611522       0.517560       0.106541
       2.870000       0.584374       0.519498       0.105828
       2.880000       0.559125       0.521915       0.105126
       2.890000       0.535528       0.524860       0.104449
       2.900000       0.513277       0.528243       0.103816
       2.910000       0.492074       0.531839       0.103263
       2.920000       0.471694       0.535333       0.102846
       2.930000       0.452028       0.538397       0.102639
       2.940000       0.433088       0.540755       0.102719
       2.950000       0.414983       0.542209       0.103154
       2.960000       0.397873       0.542641       0.103992
       2.970000       0.381918       0.541994       0.105246
       2.980000       0.367246       0.540282       0.106895
       2.990000       0.353943       0.537608       0.108879
       3.000000       0.342052       0.534171       0.111116
       3.010000       0.331582       0.530245       0.113502
       3.020000       0.322510       0.526102       0.115934
       3.030000       0.314790       0.521931       0.118308
       3.040000       0.308346       0.517787       0.120522
       3.050000       0.303082       0.513603       0.122469
       3.060000       0.298876       0.509253       0.124031
       3.070000       0.295592       0.504657       0.125089
       3.080000       0.293079       0.499854       0.125535
       3.090000       0.291182       0.495017       0.125290
       3.100000       0.289749       0.490410       0.124327
       3.110000       0.288636       0.486304       0.122674
       3.120000       0.287718       0.482906       0.120415
       3.130000       0.286896       0.480331       0.117677
       3.140000       0.286110       0.478604       0.114612
       3.150000       0.285349       0.477699       0.111374
       3.160000       0.284648       0.477566       0.108108
       3.170000       0.284080       0.478159       0.104931
       3.180000       0.283733       0.479444       0.101938
       3.190000       0.283698       0.481417       0.099202
       3.200000       0.284059       0.484110       0.096782
       3.210000       0.284893       0.487609       0.094732
       3.220000       0.286266       0.492038       0.093100
       3.230000       0.288232       0.497544       0.091926
       3.240000       0.290825       0.504283       0.091237
       3.250000       0.294056       0.512410       0.091037
       3.260000       0.297914       0.522093       0.091309
       3.270000       0.302375       0.533522       0.092007
       3.280000       0.307405       0.546907       0.093057
       3.290000       0.312957       0.562442       0.094366
       3.300000       0.318965       0.580243       0.095828
       3.310000       0.325328       0.600279       0.097335
       3.320000       0.331911       0.622309       0.098785
       3.330000       0.338556       0.645854       0.100089
       3.340000       0.345123       0.670216       0.101165
       3.350000       0.351525       0.694551       0.101945
       3.360000       0.357763       0.717998       0.102373
       3.370000       0.363930       0.739838       0.102425
       3.380000       0.370202       0.759645       0.102118
       3.390000       0.376785       0.777397       0.101521
       3.400000       0.383875       0.793504       0.100742
       3.410000       0.391598       0.808745       0.099913
       3.420000       0.399981       0.824123       0.099156
       3.430000       0.408946       0.840675       0.098566
       3.440000       0.418321       0.859282       0.098199
       3.450000       0.427882       0.880526       0.098071
       3.460000       0.437381       0.904618       0.098172
       3.470000       0.446567       0.931420       0.098480
       3.480000       0.455178       0.960529       0.098973
       3.490000       0.462924       0.991383       0.099633
       3.500000       0.469484       1.023356       0.100444
       3.510000       0.474532       1.055804       0.101384
       3.520000       0.477783       1.088080       0.102419
       3.530000       0.479066       1.119536       0.103498
       3.540000       0.478382       1.149515       0.104564
       3.550000       0.475931       1.177337       0.105557
       3.560000       0.472090       1.202257       0.106417
       3.570000       0.467345       1.223417       0.107085
       3.580000       0.462203       1.239839       0.107512
       3.590000       0.457123       1.250475       0.107656
       3.600000       0.452473       1.254326       0.107497
       3.610000       0.448529       1.250603       0.107041
       3.620000       0.445493       1.238911       0.106325
       3.630000       0.443512       1.219430       0.105413
       3.640000       0.442698       1.193021       0.104392
       3.650000       0.443128       1.161195       0.103352
       3.660000       0.444852       1.125918       0.102380
       3.670000       0.447896       1.089286       0.101547
       3.680000       0.452267       1.053181       0.100905
       3.690000       0.457957       1.019022       0.100483
       3.700000       0.464951       0.987663       0.100296
       3.710000       0.473225       0.959442       0.100341
       3.720000       0.482764       0.934350       0.100606
       3.730000       0.493581       0.912217       0.101064
       3.740000       0.505737       0.892882       0.101678
       3.750000       0.519363       0.876276       0.102399
       3.760000       0.534662       0.862428       0.103171
       3.770000       0.551892       0.851416       0.103936
       3.780000       0.571348       0.843291       0.104641
       3.790000       0.593326       0.838027       0.105238
       3.800000       0.618108       0.835487       0.105687
       3.810000       0.645934       0.835432       0.105959
       3.820000       0.676999       0.837549       0.106035
       3.830000       0.711441       0.841491       0.105907
       3.840000       0.749337       0.846904       0.105582
       3.850000       0.790678       0.853449       0.105088
       3.860000       0.835345       0.860787       0.104472
       3.870000       0.883076       0.868572       0.103800
       3.880000       0.933449       0.876444       0.103157
       3.890000       0.985901       0.884065       0.102632
       3.900000       1.039798       0.891174       0.102309
       3.910000       1.094528       0.897653       0.102259
       3.920000       1.149597       0.903554       0.102543
       3.930000       1.204695       0.909093       0.103203
       3.940000       1.259706       0.914584       0.104268
       3.950000       1.314689       0.920350       0.105752
       3.960000       1.369845       0.926612       0.107650
       3.970000       1.425498       0.933405       0.109940
       3.980000       1.482112       0.940543       0.112582
       3.990000       1.540325       0.947638       0.115515
       4.000000       1.600957       0.954189       0.118662
       4.010000       1.664922       0.959700       0.121925
       4.020000       1.733010       0.963823       0.125199
       4.030000       1.805561       0.966466       0.128381
       4.040000       1.882128       0.967851       0.131390
       4.050000       1.961221       0.968487       0.134184
       4.060000       2.040260       0.969074       0.136767
       4.070000       2.115782       0.970394       0.139180
       4.080000       2.183921       0.973205       0.141483
       4.090000       2.241061       0.978166       0.143721
       4.100000       2.284497       0.985786       0.145908
       4.110000       2.312888       0.996377       0.148019
       4.120000       2.326368       1.010016       0.150003
       4.130000       2.326317       1.026519       0.151811
       4.140000       2.314941       1.045460       0.153420
       4.150000       2.294859       1.066221       0.154851
       4.160000       2.268823       1.088087       0.156166
       4.170000       2.239592       1.110358       0.157450
       4.180000       2.209881       1.132470       0.158793
       4.190000       2.182273       1.154111       0.160264
       4.200000       2.159079       1.175322       0.161907
       4.210000       2.142163       1.196535       0.163727
       4.220000       2.132823       1.218538       0.165700
       4.230000       2.131769       1.242360       0.167772
       4.240000       2.139204       1.269101       0.169865
       4.250000       2.154963       1.299757       0.171885
       4.260000       2.178656       1.335069       0.173735
       4.270000       2.209775       1.375434       0.175339
       4.280000       2.247769       1.420839       0.176663
       4.290000       2.292055       1.470841       0.177730
       4.300000       2.341936       1.524579       0.178614
       4.310000       2.396407       1.580835       0.179422
       4.320000       2.453889       1.638170       0.180265
       4.330000       2.512016       1.695126       0.181232
       4.340000       2.567632       1.750443       0.182374
       4.350000       2.617116       1.803225       0.183708
       4.360000       2.657032       1.852993       0.185216
       4.370000       2.684913       1.899636       0.186853
       4.380000       2.699854       1.943322       0.188555
       4.390000       2.702660       1.984399       0.190237
       4.400000       2.695458       2.023279       0.191802
       4.410000       2.680965       2.060245       0.193151
       4.420000       2.661718       2.095200       0.194193
       4.430000       2.639572       2.127475       0.194859
       4.440000       2.615580       2.155841       0.195114
       4.450000       2.590212       2.178814       0.194959
       4.460000       2.563727       2.195152       0.194432
       4.470000       2.536477       2.204324       0.193607
       4.480000       2.509031       2.206716       0.192595
       4.490000       2.482111       2.203468       0.191535
       4.500000       2.456459       2.196060       0.190580
       4.510000       2.432716       2.185831       0.189867
       4.520000       2.411356       2.173612       0.189495
       4.530000       2.392633       2.159534       0.189508
       4.540000       2.376487       2.143002       0.189898
       4.550000       2.362454       2.122821       0.190624
       4.560000       2.349665       2.097470       0.191630
       4.570000       2.337014       2.065502       0.192871
       4.580000       2.323467       2.025987       0.194315
       4.590000       2.308392       1.978886       0.195949
       4.600000       2.291757       1.925223       0.197759
       4.610000       2.274099       1.866998       0.199709
       4.620000       2.256308       1.806870       0.201722
       4.630000       2.239331       1.747710       0.203671
       4.640000       2.223900       1.692183       0.205391
       4.650000       2.210365       1.642439       0.206697
       4.660000       2.198620       1.599975       0.207428
       4.670000       2.188119       1.565652       0.207466
       4.680000       2.177966       1.539796       0.206757
       4.690000       2.167059       1.522357       0.205306
       4.700000       2.154279       1.513040       0.203167
       4.710000       2.138682       1.511416       0.200433
       4.720000       2.119674       1.516966       0.197223
       4.730000       2.097133       1.529085       0.193676
       4.740000       2.071423       1.547037       0.189930
       4.750000       2.043326       1.569873       0.186113
       4.760000       2.013922       1.596349       0.182338
       4.770000       1.984519       1.624898       0.178701
       4.780000       1.956631       1.653713       0.175290
       4.790000       1.931970       1.680955       0.172185
       4.800000       1.912380       1.705044       0.169467
       4.810000       1.899680       1.724931       0.167213
       4.820000       1.895465       1.740252       0.165493
       4.830000       1.900909       1.751279       0.164357
       4.840000       1.916609       1.758712       0.163827
       4.850000       1.942483       1.763373       0.163883
       4.860000       1.977718       1.765945       0.164458
       4.870000       2.020762       1.766824       0.165428
       4.880000       2.069366       1.766129       0.166618
       4.890000       2.120671       1.763806       0.167824
       4.900000       2.171354       1.759785       0.168830
       4.910000       2.217859       1.754120       0.169442
       4.920000       2.256740       1.747080       0.169510
       4.930000       2.285098       1.739152       0.168942
       4.940000       2.300992       1.730963       0.167711
       4.950000       2.303685       1.723125       0.165847
       4.960000       2.293626       1.716046       0.163425
       4.970000       2.272177       1.709786       0.160554
       4.980000       2.241246       1.703987       0.157358
       4.990000       2.202952       1.697924       0.153975
       5.000000       2.159416       1.690622       0.150539
       5.010000       2.112674       1.681019       0.147176
       5.020000       2.064649       1.668108       0.143996
       5.030000       2.017129       1.651080       0.141089
       5.040000       1.971719       1.629461       0.138528
       5.050000       1.929761       1.603272       0.136371
       5.060000       1.892246       1.573131       0.134661
       5.070000       1.859745       1.540244       0.133427
       5.080000       1.832416       1.506239       0.132683
       5.090000       1.810098       1.472884       0.132426
       5.100000       1.792474       1.441808       0.132644
       5.110000       1.779256       1.414301       0.133313
       5.120000       1.770338       1.391252       0.134405
       5.130000       1.765855       1.373201       0.135890
       5.140000       1.766174       1.360434       0.137739
       5.150000       1.771786       1.353081       0.139926
       5.160000       1.783125       1.351171       0.142428
       5.170000       1.800344       1.354625       0.145213
       5.180000       1.823095       1.363200       0.148235
       5.190000       1.850406       1.376430       0.151428
       5.200000       1.880691       1.393586       0.154697
       5.210000       1.911954       1.413719       0.157929
       5.220000       1.942106       1.435779       0.161003
       5.230000       1.969343       1.458794       0.163806
       5.240000       1.992422       1.482028       0.166248
       5.250000       2.010766       1.505065       0.168268
       5.260000       2.024367       1.527774       0.169833
       5.270000       2.033561       1.550178       0.170924
       5.280000       2.038782       1.572265       0.171525
       5.290000       2.040354       1.593801       0.171603
       5.300000       2.038387       1.614217       0.171118
       5.310000       2.032766       1.632624       0.170027
       5.320000       2.023261       1.647981       0.168311
       5.330000       2.009716       1.659363       0.165990
       5.340000       1.992234       1.666220       0.163132
       5.350000       1.971290       1.668529       0.159847
       5.360000       1.947688       1.666772       0.156272
       5.370000       1.922396       1.661787       0.152552
       5.380000       1.896337       1.654571       0.148823
       5.390000       1.870212       1.646098       0.145211
       5.400000       1.844421       1.637211       0.141822
       5.410000       1.819112       1.628573       0.138747
       5.420000       1.794321       1.620667       0.136058
       5.430000       1.770174       1.613819       0.133814
       5.440000       1.747058       1.608249       0.132050
       5.450000       1.725683       1.604099       0.130785
       5.460000       1.707020       1.601442       0.130020
       5.470000       1.692167       1.600259       0.129742
       5.480000       1.682208       1.600376       0.129931
       5.490000       1.678097       1.601407       0.130562
       5.500000       1.680561       1.602743       0.131609
       5.510000       1.690003       1.603612       0.133048
       5.520000       1.706397       1.603223       0.134857
       5.530000       1.729232       1.600952       0.137016
       5.540000       1.757520       1.596503       0.139502
       5.550000       1.789885       1.589981       0.142283
       5.560000       1.824714       1.581846       0.145315
       5.570000       1.860326       1.572739       0.148545
       5.580000       1.895090       1.563257       0.151914
       5.590000       1.927482       1.553744       0.155366
       5.600000       1.956113       1.544185       0.158847
       5.610000       1.979776       1.534247       0.162314
       5.620000       1.997584       1.523447       0.165732
       5.630000       2.009169       1.511406       0.169080
       5.640000       2.014869       1.498059       0.172359
       5.650000       2.015796       1.483746       0.175587
       5.660000       2.013709       1.469118       0.178798
       5.670000       2.010719       1.454933       0.182030
       5.680000       2.008867       1.441813       0.185316
       5.690000       2.009722       1.430065       0.188663
       5.700000       2.014077       1.419617       0.192050
       5.710000       2.021829       1.410059       0.195410
       5.720000       2.032067       1.400754       0.198638
       5.730000       2.043302       1.390980       0.201597
       5.740000       2.053782       1.380068       0.204137
       5.750000       2.061803       1.367508       0.206121
       5.760000       2.065976       1.352992       0.207451
       5.770000       2.065441       1.336417       0.208079
       5.780000       2.060007       1.317850       0.208014
       5.790000       2.050176       1.297503       0.207318
       5.800000       2.037017       1.275728       0.206089
       5.810000       2.021920       1.253024       0.204444
       5.820000       2.006287       1.230049       0.202508
       5.830000       1.991292       1.207589       0.200398
       5.840000       1.977780       1.186487       0.198221
       5.850000       1.966301       1.167545       0.196070
       5.860000       1.957228       1.151436       0.194023
       5.870000       1.950833       1.138653       0.192147
       5.880000       1.947275       1.129494       0.190501
       5.890000       1.946519       1.124063       0.189144
       5.900000       1.948248       1.122266       0.188136
       5.910000       1.951863       1.123802       0.187544
       5.920000       1.956595       1.128139       0.187430
       5.930000       1.961703       1.134528       0.187844
       5.940000       1.966673       1.142069       0.188814
       5.950000       1.971358       1.149844       0.190343
       5.960000       1.975985       1.157087       0.192399
       5.970000       1.981017       1.163339       0.194918
       5.980000       1.986908       1.168510       0.197799
       5.990000       1.993840       1.172846       0.200908
       6.000000       2.001567       1.176800       0.204080
       6.010000       2.009469       1.180881       0.207137
       6.020000       2.016800       1.185521       0.209911
       6.030000       2.023015       1.190995       0.212277
       6.040000       2.027992       1.197370       0.214179
       6.050000       2.032030       1.204474       0.215644
       6.060000       2.035600       1.211878       0.216777
       6.070000       2.039021       1.218940       0.217737
       6.080000       2.042208       1.224947       0.218699
       6.090000       2.044635       1.229326       0.219829
       6.100000       2.045508       1.231863       0.221252
       6.110000       2.044024       1.232826       0.223045
       6.120000       2.039574       1.232920       0.225233
       6.130000       2.031790       1.233095       0.227781
       6.140000       2.020475       1.234305       0.230601
       6.150000       2.005528       1.237325       0.233556
       6.160000       1.986963       1.242685       0.236476
       6.170000       1.965012       1.250712       0.239181
       6.180000       1.940212       1.261627       0.241513
       6.190000       1.913406       1.275597       0.243362
       6.200000       1.885605       1.292721       0.244687
       6.210000       1.857825       1.312939       0.245511
       6.220000       1.830961       1.335911       0.245919
       6.230000       1.805740       1.360925       0.246032
       6.240000       1.782743       1.386877       0.245986
       6.250000       1.762415       1.412341       0.245919
       6.260000       1.745062       1.435710       0.245955
       6.270000       1.730811       1.455385       0.246188
       6.280000       1.719600       1.469981       0.246668
       6.290000       1.711202       1.478526       0.247396
       6.300000       1.705283       1.480621       0.248314
       6.310000       1.701475       1.476524       0.249315
       6.320000       1.699424       1.467100       0.250247
       6.330000       1.698793       1.453649       0.250941
       6.340000       1.699266       1.437648       0.251236
       6.350000       1.700548       1.420493       0.251019
       6.360000       1.702369       1.403291       0.250249
       6.370000       1.704492       1.386728       0.248975
       6.380000       1.706732       1.371042       0.247325
       6.390000       1.709011       1.356085       0.245485
       6.400000       1.711446       1.341486       0.243662
       6.410000       1.714418       1.326885       0.242055
       6.420000       1.718536       1.312137       0.240823
       6.430000       1.724464       1.297433       0.240069
       6.440000       1.732657       1.283250       0.239843
       6.450000       1.743132       1.270196       0.240141
       6.460000       1.755379       1.258820       0.240927
       6.470000       1.768478       1.249495       0.242147
       6.480000       1.781395       1.242425       0.243744
       6.490000       1.793345       1.237741       0.245665
       6.500000       1.804084       1.235635       0.247876
       6.510000       1.814013       1.236435       0.250356
       6.520000       1.824083       1.240577       0.253099
       6.530000       1.835551       1.248472       0.256110
       6.540000       1.849725       1.260329       0.259393
       6.550000       1.867739       1.276000       0.262938
       6.560000       1.890412       1.294902       0.266712
       6.570000       1.918144       1.316048       0.270645
       6.580000       1.950833       1.338158       0.274622
       6.590000       1.987822       1.359817       0.278491
       6.600000       2.027896       1.379621       0.282075
       6.610000       2.069393       1.396285       0.285205
       6.620000       2.110429       1.408715       0.287744
       6.630000       2.149220       1.416074       0.289617
       6.640000       2.184393       1.417816       0.290814
       6.650000       2.215162       1.413683       0.291385
       6.660000       2.241324       1.403682       0.291420
       6.670000       2.263098       1.388075       0.291028
       6.680000       2.280904       1.367428       0.290321
       6.690000       2.295160       1.342698       0.289402
       6.700000       2.306133       1.315242       0.288367
       6.710000       2.313868       1.286700       0.287311
       6.720000       2.318242       1.258752       0.286331
       6.730000       2.319125       1.232857       0.285532
       6.740000       2.316627       1.210071       0.285018
       6.750000       2.311296       1.191008       0.284876
       6.760000       2.304189       1.175914       0.285164
       6.770000       2.296764       1.164817       0.285901
       6.780000       2.290629       1.157656       0.287067
       6.790000       2.287241       1.154324       0.288610
       6.800000       2.287646       1.154628       0.290455
       6.810000       2.292353       1.158176       0.292508
       6.820000       2.301355       1.164295       0.294676
       6.830000       2.314269       1.172013       0.296880
       6.840000       2.330508       1.180171       0.299072
       6.850000       2.349407       1.187626       0.301248
       6.860000       2.370247       1.193496       0.303447
       6.870000       2.392201       1.197380       0.305727
       6.880000       2.414244       1.199466       0.308150
       6.890000       2.435109       1.200501       0.310759
       6.900000       2.453351       1.201630       0.313571
       6.910000       2.467569       1.204186       0.316571
       6.920000       2.476732       1.209471       0.319720
       6.930000       2.480511       1.218625       0.322942
       6.940000       2.479413       1.232559       0.326131
       6.950000       2.474641       1.251956       0.329144
       6.960000       2.467707       1.277291       0.331824
       6.970000       2.459932       1.308841       0.334015
       6.980000       2.452066       1.346659       0.335603
       6.990000       2.444156       1.390522       0.336538
       7.000000       2.435736       1.439874       0.336854
       7.010000       2.426239       1.493777       0.336666
       7.020000       2.415430       1.550906       0.336149
       7.030000       2.403651       1.609593       0.335505
       7.040000       2.391731       1.667916       0.334923
       7.050000       2.380648       1.723825       0.334548
       7.060000       2.371113       1.775264       0.334470
       7.070000       2.363306       1.820315       0.334718
       7.080000       2.356874       1.857354       0.335287
       7.090000       2.351155       1.885237       0.336153
       7.100000       2.345519       1.903444       0.337292
       7.110000       2.339649       1.912125       0.338690
       7.120000       2.333674       1.912003       0.340342
       7.130000       2.328103       1.904182       0.342242
       7.140000       2.323608       1.889919       0.344387
       7.150000       2.320744       1.870405       0.346779
       7.160000       2.319703       1.846596       0.349433
       7.170000       2.320194       1.819127       0.352379
       7.180000       2.321503       1.788367       0.355664
       7.190000       2.322711       1.754619       0.359337
       7.200000       2.322966       1.718384       0.363437
       7.210000       2.321731       1.680556       0.367978
       7.220000       2.318881       1.642454       0.372950
       7.230000       2.314632       1.605663       0.378320
       7.240000       2.309345       1.571754       0.384045
       7.250000       2.303319       1.542024       0.390078
       7.260000       2.296677       1.517323       0.396380
       7.270000       2.289387       1.498020       0.402923
       7.280000       2.281411       1.484071       0.409699
       7.290000       2.272859       1.475149       0.416718
       7.300000       2.264110       1.470792       0.424008
       7.310000       2.255821       1.470552       0.431618
       7.320000       2.248845       1.474096       0.439605
       7.330000       2.244076       1.481239       0.448032
       7.340000       2.242286       1.491897       0.456957
       7.350000       2.244003       1.506000       0.466419
       7.360000       2.249446       1.523411       0.476429
       7.370000       2.258510       1.543868       0.486960
       7.380000       2.270799       1.566976       0.497952
       7.390000       2.285694       1.592229       0.509332
       7.400000       2.302486       1.619067       0.521037
       7.410000       2.320556       1.646954       0.533053
       7.420000       2.339539       1.675450       0.545421
       7.430000       2.359409       1.704244       0.558228
       7.440000       2.380412       1.733134       0.571575
       7.450000       2.402896       1.761991       0.585533
       7.460000       2.427079       1.790735       0.600109
       7.470000       2.452844       1.819317       0.615236
       7.480000       2.479633       1.847712       0.630784
       7.490000       2.506489       1.875902       0.646583
       7.500000       2.532260       1.903886       0.662447
       7.510000       2.555900       1.931712       0.678191
       7.520000       2.576767       1.959498       0.693642
       7.530000       2.594785       1.987425       0.708654
       7.540000       2.610432       2.015654       0.723129
       7.550000       2.624567       2.044223       0.737033
       7.560000       2.638143       2.072941       0.750395
       7.570000       2.651885       2.101315       0.763292
       7.580000       2.665986       2.128542       0.775816
       7.590000       2.679920       2.153590       0.788050
       7.600000       2.692423       2.175372       0.800058
       7.610000       2.701661       2.192987       0.811902
       7.620000       2.705553       2.205953       0.823663
       7.630000       2.702180       2.214343       0.835465
       7.640000       2.690197       2.218778       0.847472
       7.650000       2.669114       2.220244       0.859871
       7.660000       2.639351       2.219776       0.872842
       7.670000       2.602044       2.218088       0.886533
       7.680000       2.558662       2.215292       0.901047
       7.690000       2.510594       2.210805       0.916429
       7.700000       2.458869       2.203476       0.932666
       7.710000       2.404075       2.191887       0.949680
       7.720000       2.346478       2.174712       0.967329
       7.730000       2.286267       2.151076       0.985419
       7.740000       2.223831       2.120824       1.003713
       7.750000       2.159973       2.084673       1.021958
       7.760000       2.095965       2.044180       1.039922
       7.770000       2.033419       2.001505       1.057433
       7.780000       1.974032       1.959006       1.074414
       7.790000       1.919293       1.918810       1.090904
       7.800000       1.870290       1.882494       1.107038
       7.810000       1.827653       1.850964       1.123007
       7.820000       1.791618       1.824514       1.138968
       7.830000       1.762143       1.802993       1.154971
       7.840000       1.738989       1.785956       1.170888
       7.850000       1.721727       1.772758       1.186390
       7.860000       1.709705       1.762567       1.200972
       7.870000       1.702022       1.754348       1.214002
       7.880000       1.697526       1.746848       1.224805
       7.890000       1.694875       1.738612       1.232757
       7.900000       1.692640       1.728076       1.237377
       7.910000       1.689451       1.713731       1.238409
       7.920000       1.684172       1.694374       1.235860
       7.930000       1.676053       1.669358       1.230010
       7.940000       1.664850       1.638774       1.221360
       7.950000       1.650830       1.603462       1.210568
       7.960000       1.634668       1.564856       1.198375
       7.970000       1.617237       1.524710       1.185552
       7.980000       1.599329       1.484786       1.172859
       7.990000       1.581415       1.446581       1.160996
       8.000000       1.563516       1.411134       1.150550
       8.010000       1.545233       1.378944       1.141944
       8.020000       1.525904       1.349984       1.135417
       8.030000       1.504792       1.323810       1.131040
       8.040000       1.481242       1.299710       1.128748
       8.050000       1.454769       1.276868       1.128390
       8.060000       1.425116       1.254512       1.129774
       8.070000       1.392313       1.232036       1.132713
       8.080000       1.356740       1.209108       1.137094
       8.090000       1.319164       1.185728       1.142942
       8.100000       1.280706       1.162252       1.150452
       8.110000       1.242708       1.139329       1.159959
       8.120000       1.206544       1.117804       1.171849
       8.130000       1.173437       1.098571       1.186435
       8.140000       1.144330       1.082451       1.203854
       8.150000       1.119836       1.070085       1.224012
       8.160000       1.100247       1.061877       1.246588
       8.170000       1.085574       1.057960       1.271079
       8.180000       1.075577       1.058179       1.296885
       8.190000       1.069792       1.062078       1.323399
       8.200000       1.067541       1.068886       1.350098
       8.210000       1.067971       1.077532       1.376609
       8.220000       1.070117       1.086713       1.402733
       8.230000       1.073015       1.095033       1.428406
       8.240000       1.075834       1.101192       1.453622
       8.250000       1.077994       1.104203       1.478340
       8.260000       1.079234       1.103537       1.502419
       8.270000       1.079606       1.099173       1.525608
       8.280000       1.079382       1.091505       1.547582
       8.290000       1.078924       1.081168       1.568018
       8.300000       1.078528       1.068818       1.586655
       8.310000       1.078315       1.054976       1.603344
       8.320000       1.078193       1.039953       1.618059
       8.330000       1.077890       1.023888       1.630876
       8.340000       1.077042       1.006853       1.641944
       8.350000       1.075300       0.988968       1.651461
       8.360000       1.072416       0.970482       1.659669
       8.370000       1.068299       0.951790       1.666847
       8.380000       1.063030       0.933395       1.673300
       8.390000       1.056830       0.915850       1.679293
       8.400000       1.050002       0.899679       1.684971
       8.410000       1.042851       0.885325       1.690273
       8.420000       1.035629       0.873095       1.694882
       8.430000       1.028522       0.863141       1.698238
       8.440000       1.021669       0.855455       1.699633
       8.450000       1.015195       0.849879       1.698373
       8.460000       1.009211       0.846131       1.693976
       8.470000       1.003778       0.843832       1.686336
       8.480000       0.998845       0.842550       1.675802
       8.490000       0.994199       0.841848       1.663152
       8.500000       0.989451       0.841343       1.649491
       8.510000       0.984097       0.840781       1.636115
       8.520000       0.977625       0.840095       1.624388
       8.530000       0.969657       0.839445       1.615632
       8.540000       0.960040       0.839211       1.611046
       8.550000       0.948878       0.839934       1.611650
       8.560000       0.936487       0.842251       1.618258
       8.570000       0.923328       0.846815       1.631467
       8.580000       0.909933       0.854226       1.651673
       8.590000       0.896870       0.864972       1.679095
       8.600000       0.884694       0.879355       1.713830
       8.610000       0.873905       0.897420       1.755924
       8.620000       0.864876       0.918881       1.805454
       8.630000       0.857801       0.943066       1.862598
       8.640000       0.852672       0.968903       1.927652
       8.650000       0.849285       0.994972       2.000981
       8.660000       0.847294       1.019652       2.082910
       8.670000       0.846271       1.041334       2.173602
       8.680000       0.845761       1.058666       2.272943
       8.690000       0.845315       1.070735       2.380472
       8.700000       0.844491       1.077121       2.495352
       8.710000       0.842848       1.077835       2.616377
       8.720000       0.839965       1.073183       2.742027
       8.730000       0.835483       1.063649       2.870571
       8.740000       0.829176       1.049820       3.000199
       8.750000       0.821018       1.032360       3.129152
       8.760000       0.811207       1.011999       3.255803
       8.770000       0.800157       0.989514       3.378636
       8.780000       0.788426       0.965711       3.496160
       8.790000       0.776632       0.941391       3.606814
       8.800000       0.765368       0.917330       3.708921
       8.810000       0.755133       0.894236       3.800742
       8.820000       0.746296       0.872722       3.880603
       8.830000       0.739086       0.853276       3.947058
       8.840000       0.733599       0.836255       3.999040
       8.850000       0.729818       0.821890       4.035982
       8.860000       0.727638       0.810300       4.057886
       8.870000       0.726877       0.801505       4.065348
       8.880000       0.727291       0.795439       4.059539
       8.890000       0.728565       0.791953       4.042153
       8.900000       0.730323       0.790826       4.015288
       8.910000       0.732161       0.791788       3.981280
       8.920000       0.733710       0.794554       3.942463
       8.930000       0.734719       0.798880       3.900918
       8.940000       0.735112       0.804601       3.858256
       8.950000       0.735009       0.811667       3.815521
       8.960000       0.734695       0.820137       3.773218
       8.970000       0.734556       0.830166       3.731429
       8.980000       0.735003       0.841973       3.689943
       8.990000       0.736392       0.855829       3.648340
       9.000000       0.738974       0.872036       3.606034
       9.010000       0.742853       0.890913       3.562357
       9.020000       0.747991       0.912765       3.516690
       9.030000       0.754243       0.937849       3.468642
       9.040000       0.761428       0.966328       3.418177
       9.050000       0.769427       0.998238       3.365620
       9.060000       0.778251       1.033453       3.311511
       9.070000       0.788077       1.071669       3.256384
       9.080000       0.799215       1.112411       3.200565
       9.090000       0.812031       1.155075       3.144103
       9.100000       0.826868       1.199017       3.086847
       9.110000       0.843979       1.243669       3.028604
       9.120000       0.863505       1.288625       2.969289
       9.130000       0.885489       1.333680       2.909011
       9.140000       0.909923       1.378781       2.848090
       9.150000       0.936810       1.423928       2.787033
       9.160000       0.966212       1.469038       2.726485
       9.170000       0.998279       1.513826       2.667173
       9.180000       1.033225       1.557718       2.609816
       9.190000       1.071273       1.599836       2.555046
       9.200000       1.112598       1.639064       2.503344
       9.210000       1.157263       1.674206       2.455021
       9.220000       1.205192       1.704169       2.410243
       9.230000       1.256149       1.728135       2.369074
       9.240000       1.309743       1.745658       2.331505
       9.250000       1.365457       1.756716       2.297471
       9.260000       1.422694       1.761731       2.266858
       9.270000       1.480846       1.761567       2.239523
       9.280000       1.539366       1.757456       2.215338
       9.290000       1.597822       1.750829       2.194236
       9.300000       1.655922       1.743065       2.176233
       9.310000       1.713471       1.735260       2.161368
       9.320000       1.770281       1.728119       2.149574
       9.330000       1.826016       1.722011       2.140511
       9.340000       1.880050       1.717176       2.133456
       9.350000       1.931355       1.713951       2.127302
       9.360000       1.978491       1.712958       2.120703
       9.370000       2.019708       1.715155       2.112325
       9.380000       2.053144       1.721772       2.101126
       9.390000       2.077085       1.734159       2.086570
       9.400000       2.090215       1.753597       2.068705
       9.410000       2.091782       1.781129       2.048096
       9.420000       2.081660       1.817414       2.025640
       9.430000       2.060321       1.862620       2.002362
       9.440000       2.028789       1.916338       1.979240
       9.450000       1.988598       1.977529       1.957122
       9.460000       1.941732       2.044495       1.936703
       9.470000       1.890512       2.114895       1.918530
       9.480000       1.837383       2.185819       1.903002
       9.490000       1.784632       2.253938       1.890333
       9.500000       1.734135       2.315759       1.880516
       9.510000       1.687221       2.367977       1.873312
       9.520000       1.644691       2.407895       1.868302
       9.530000       1.606980       2.433840       1.864992
       9.540000       1.574379       2.445472       1.862929
       9.550000       1.547204       2.443883       1.861784
       9.560000       1.525864       2.431427       1.861401
       9.570000       1.510809       2.411310       1.861796
       9.580000       1.502416       2.387058       1.863134
       9.590000       1.500871       2.362034       1.865697
       9.600000       1.506073       2.339126       1.869843
       9.610000       1.517570       2.320645       1.875956
       9.620000       1.534513       2.308345       1.884384
       9.630000       1.555630       2.303442       1.895374
       9.640000       1.579230       2.306579       1.909026
       9.650000       1.603256       2.317710       1.925275
       9.660000       1.625401       2.335988       1.943896
       9.670000       1.643316       2.359714       1.964530
       9.680000       1.654870       2.386417       1.986720
       9.690000       1.658444       2.413093       2.009945
       9.700000       1.653177       2.436627       2.033679
       9.710000       1.639102       2.454289       2.057455
       9.720000       1.617119       2.464166       2.080930
       9.730000       1.588823       2.465364       2.103933
       9.740000       1.556217       2.457916       2.126487
       9.750000       1.521385       2.442460       2.148790
       9.760000       1.486194       2.419851       2.171185
       9.770000       1.452069       2.390856       2.194112
       9.780000       1.419896       2.356040       2.218039
       9.790000       1.390047       2.315839       2.243375
       9.800000       1.362506       2.270743       2.270372
       9.810000       1.337046       2.221523       2.299039
       9.820000       1.313396       2.169377       2.329123
       9.830000       1.291356       2.115981       2.360164
       9.840000       1.270841       2.063380       2.391603
       9.850000       1.251862       2.013753       2.422879
       9.860000       1.234475       1.969124       2.453484
       9.870000       1.218731       1.931111       2.482960
       9.880000       1.204647       1.900798       2.510878
       9.890000       1.192203       1.878729       2.536844
       9.900000       1.181351       1.864977       2.560541
       9.910000       1.172018       1.859228       2.581803
       9.920000       1.164100       1.860825       2.600672
       9.930000       1.157470       1.868751       2.617402
       9.940000       1.151981       1.881589       2.632404
       9.950000       1.147485       1.897466       2.646142
       9.960000       1.143836       1.914054       2.659037
       9.970000       1.140904       1.928673       2.671413
       9.980000       1.138581       1.938561       2.683498
       9.990000       1.136806       1.941293       2.695471
      10.000000       1.135595       1.935276       2.707485
      10.010000       1.135075       1.920110       2.719660
      10.020000       1.135487       1.896667       2.732022
      10.030000       1.137176       1.866825       2.744429
      10.040000       1.140553       1.832973       2.756489
      10.050000       1.146051       1.797469       2.767526
      10.060000       1.154086       1.762234       2.776604
      10.070000       1.165025       1.728521       2.782641
      10.080000       1.179147       1.696877       2.784591
      10.090000       1.196592       1.667232       2.781648
      10.100000       1.217285       1.639103       2.773404
      10.110000       1.240854       1.611837       2.759903
      10.120000       1.266544       1.584857       2.741594
      10.130000       1.293182       1.557841       2.719217
      10.140000       1.319236       1.530796       2.693673
      10.150000       1.342987       1.504031       2.665912
      10.160000       1.362801       1.478048       2.636849
      10.170000       1.377430       1.453426       2.607291
      10.180000       1.386222       1.430682       2.577883
      10.190000       1.389178       1.410175       2.549065
      10.200000       1.386843       1.392028       2.521043
      10.210000       1.380086       1.376128       2.493788
      10.220000       1.369853       1.362181       2.467073
      10.230000       1.356971       1.349808       2.440552
      10.240000       1.342028       1.338650       2.413886
      10.250000       1.325353       1.328440       2.386879
      10.260000       1.307078       1.319022       2.359567
      10.270000       1.287263       1.310333       2.332235
      10.280000       1.266034       1.302338       2.305341
      10.290000       1.243692       1.294946       2.279399
      10.300000       1.220767       1.287919       2.254853
      10.310000       1.197997       1.280824       2.231992
      10.320000       1.176247       1.273031       2.210924
      10.330000       1.156398       1.263798       2.191603
      10.340000       1.139228       1.252388       2.173891
      10.350000       1.125319       1.238175       2.157614
      10.360000       1.114980       1.220714       2.142600
      10.370000       1.108203       1.199765       2.128688
      10.380000       1.104672       1.175305       2.115721
      10.390000       1.103815       1.147558       2.103557
      10.400000       1.104925       1.117015       2.092083
      10.410000       1.107307       1.084417       2.081240
      10.420000       1.110434       1.050698       2.071016
      10.430000       1.114035       1.016879       2.061425
      10.440000       1.118104       0.983962       2.052476
      10.450000       1.122820       0.952831       2.044165
      10.460000       1.128423       0.924183       2.036492
      10.470000       1.135103       0.898491       2.029510
      10.480000       1.142937       0.875986       2.023364
      10.490000       1.151914       0.856673       2.018339
      10.500000       1.162003       0.840379       2.014876
      10.510000       1.173237       0.826826       2.013584
      10.520000       1.185729       0.815718       2.015199
      10.530000       1.199622       0.806824       2.020511
      10.540000       1.214967       0.800013       2.030265
      10.550000       1.231606       0.795255       2.045054
      10.560000       1.249092       0.792578       2.065251
      10.570000       1.266701       0.792035       2.090953
      10.580000       1.283518       0.793682       2.121975
      10.590000       1.298598       0.797580       2.157844
      10.600000       1.311134       0.803813       2.197839
      10.610000       1.320599       0.812477       2.241047
      10.620000       1.326834       0.823638       2.286444
      10.630000       1.330078       0.837271       2.332964
      10.640000       1.330929       0.853191       2.379569
      10.650000       1.330233       0.871005       2.425296
      10.660000       1.328888       0.890112       2.469299
      10.670000       1.327599       0.909722       2.510890
      10.680000       1.326665       0.928902       2.549571
      10.690000       1.325846       0.946631       2.585060
      10.700000       1.324364       0.961874       2.617334
      10.710000       1.321032       0.973670       2.646684
      10.720000       1.314485       0.981260       2.673764
      10.730000       1.303473       0.984212       2.699572
      10.740000       1.287153       0.982519       2.725352
      10.750000       1.265322       0.976625       2.752390
      10.760000       1.238514       0.967353       2.781760
      10.770000       1.207923       0.955746       2.814091
      10.780000       1.175187       0.942856       2.849402
      10.790000       1.142070       0.929553       2.887035
      10.800000       1.110160       0.916383       2.925706
      10.810000       1.080653       0.903534       2.963652
      10.820000       1.054263       0.890878       2.998885
      10.830000       1.031252       0.878095       3.029474
      10.840000       1.011529       0.864809       3.053821
      10.850000       0.994788       0.850745       3.070811
      10.860000       0.980606       0.835845       3.079831
      10.870000       0.968519       0.820327       3.080669
      10.880000       0.958067       0.804656       3.073354
      10.890000       0.948844       0.789439       3.058015
      10.900000       0.940556       0.775287       3.034801
      10.910000       0.933080       0.762696       3.003883
      10.920000       0.926489       0.751973       2.965542
      10.930000       0.921013       0.743218       2.920292
      10.940000       0.916948       0.736353       2.868987
      10.950000       0.914516       0.731174       2.812864
      10.960000       0.913747       0.727425       2.753489
      10.970000       0.914405       0.724870       2.692613
      10.980000       0.915994       0.723346       2.631971
      10.990000       0.917838       0.722784       2.573077
      11.000000       0.919208       0.723199       2.517057
      11.010000       0.919442       0.724666       2.464570
      11.020000       0.918017       0.727290       2.415807
      11.030000       0.914544       0.731191       2.370583
      11.040000       0.908736       0.736491       2.328475
      11.050000       0.900390       0.743292       2.288979
      11.060000       0.889412       0.751652       2.251655
      11.070000       0.875885       0.761559       2.216233
      11.080000       0.860116       0.772923       2.182663
      11.090000       0.842615       0.785575       2.151119
      11.100000       0.823996       0.799306       2.121934
      11.110000       0.804846       0.813928       2.095507
      11.120000       0.785619       0.829350       2.072177
      11.130000       0.766591       0.845642       2.052114
      11.140000       0.747896       0.863056       2.035265
      11.150000       0.729603       0.881992       2.021353
      11.160000       0.711803       0.902907       2.009934
      11.170000       0.694678       0.926193       2.000460
      11.180000       0.678517       0.952057       1.992353
      11.190000       0.663687       0.980432       1.985062
      11.200000       0.650570       1.010944       1.978134
      11.210000       0.639499       1.042935       1.971270
      11.220000       0.630709       1.075551       1.964378
      11.230000       0.624309       1.107861       1.957577
      11.240000       0.620294       1.138985       1.951172
      11.250000       0.618577       1.168223       1.945574
      11.260000       0.619030       1.195137       1.941211
      11.270000       0.621530       1.219578       1.938442
      11.280000       0.625988       1.241648       1.937493
      11.290000       0.632357       1.261598       1.938426
      11.300000       0.640615       1.279693       1.941114
      11.310000       0.650729       1.296118       1.945235
      11.320000       0.662616       1.310919       1.950279
      11.330000       0.676124       1.324034       1.955561
      11.340000       0.691031       1.335351       1.960269
      11.350000       0.707067       1.344789       1.963526
      11.360000       0.723929       1.352347       1.964475
      11.370000       0.741289       1.358135       1.962379
      11.380000       0.758791       1.362362       1.956702
      11.390000       0.776054       1.365275       1.947151
      11.400000       0.792705       1.367063       1.933672
      11.410000       0.808440       1.367747       1.916403
      11.420000       0.823085       1.367112       1.895618
      11.430000       0.836643       1.364713       1.871692
      11.440000       0.849271       1.359984       1.845092
      11.450000       0.861218       1.352390       1.816394
      11.460000       0.872724       1.341580       1.786278
      11.470000       0.883941       1.327485       1.755485
      11.480000       0.894874       1.310333       1.724729
      11.490000       0.905380       1.290590       1.694582
      11.500000       0.915207       1.268847       1.665379
      11.510000       0.924054       1.245701       1.637170
      11.520000       0.931644       1.221672       1.609732
      11.530000       0.937782       1.197182       1.582643
      11.540000       0.942409       1.172585       1.555391
      11.550000       0.945611       1.148213       1.527489
      11.560000       0.947608       1.124393       1.498574
      11.570000       0.948705       1.101425       1.468470
      11.580000       0.949251       1.079550       1.437193
      11.590000       0.949610       1.058928       1.404922
      11.600000       0.950143       1.039659       1.371945
      11.610000       0.951172       1.021824       1.338605
      11.620000       0.952913       1.005537       1.305260
      11.630000       0.955389       0.990955       1.272266
      11.640000       0.958364       0.978266       1.239967
      11.650000       0.961334       0.967639       1.208688
      11.660000       0.963598       0.959194       1.178720
      11.670000       0.964382       0.952987       1.150284
      11.680000       0.963002       0.949028       1.123498
      11.690000       0.958985       0.947314       1.098358
      11.700000       0.952126       0.947872       1.074743
      11.710000       0.942476       0.950791       1.052457
      11.720000       0.930272       0.956235       1.031296
      11.730000       0.915877       0.964430       1.011097
      11.740000       0.899733       0.975621       0.991766
      11.750000       0.882342       0.989993       0.973273
      11.760000       0.864259       1.007596       0.955629
      11.770000       0.846081       1.028284       0.938867
      11.780000       0.828421       1.051703       0.923033
      11.790000       0.811867       1.077315       0.908179
      11.800000       0.796924       1.104464       0.894346
      11.810000       0.783958       1.132444       0.881538
      11.820000       0.773167       1.160560       0.869693
      11.830000       0.764573       1.188177       0.858654
      11.840000       0.758043       1.214747       0.848164
      11.850000       0.753332       1.239832       0.837892
      11.860000       0.750126       1.263101       0.827470
      11.870000       0.748089       1.284300       0.816559
      11.880000       0.746903       1.303196       0.804914
      11.890000       0.746304       1.319515       0.792436
      11.900000       0.746098       1.332900       0.779198
      11.910000       0.746176       1.342926       0.765425
      11.920000       0.746511       1.349170       0.751444
      11.930000       0.747146       1.351296       0.737629
      11.940000       0.748176       1.349140       0.724340
      11.950000       0.749707       1.342739       0.711884
      11.960000       0.751827       1.332338       0.700495
      11.970000       0.754582       1.318375       0.690315
      11.980000       0.757975       1.301497       0.681396
      11.990000       0.761982       1.282555       0.673703
      12.000000       0.766586       1.262568       0.667139
      12.010000       0.771779       1.242624       0.661570
      12.020000       0.777556       1.223740       0.656849
      12.030000       0.783875       1.206724       0.652814
      12.040000       0.790628       1.192080       0.649283
      12.050000       0.797615       1.179977       0.646027
      12.060000       0.804566       1.170254       0.642768
      12.070000       0.811171       1.162476       0.639196
      12.080000       0.817133       1.156002       0.635009
      12.090000       0.822195       1.150088       0.629961
      12.100000       0.826163       1.144021       0.623921
      12.110000       0.828922       1.137261       0.616914
      12.120000       0.830446       1.129562       0.609137
      12.130000       0.830820       1.121028       0.600946
      12.140000       0.830229       1.112085       0.592795
      12.150000       0.828930       1.103401       0.585158
      12.160000       0.827208       1.095756       0.578443
      12.170000       0.825323       1.089896       0.572921
      12.180000       0.823494       1.086412       0.568694
      12.190000       0.821881       1.085649       0.565697
      12.200000       0.820600       1.087665       0.563723
      12.210000       0.819714       1.092255       0.562477
      12.220000       0.819220       1.099003       0.561617
      12.230000       0.819030       1.107356       0.560812
      12.240000       0.818947       1.116684       0.559781
      12.250000       0.818684       1.126322       0.558323
      12.260000       0.817906       1.135585       0.556344
      12.270000       0.816307       1.143766       0.553854
      12.280000       0.813695       1.150151       0.550967
      12.290000       0.810047       1.154059       0.547889
      12.300000       0.805502       1.154928       0.544896
      12.310000       0.800304       1.152391       0.542305
      12.320000       0.794715       1.146332       0.540420
      12.330000       0.788952       1.136883       0.539479
      12.340000       0.783160       1.124385       0.539615
      12.350000       0.777426       1.109314       0.540830
      12.360000       0.771821       1.092210       0.543003
      12.370000       0.766433       1.073607       0.545928
      12.380000       0.761382       1.053986       0.549366
      12.390000       0.756790       1.033764       0.553097
      12.400000       0.752733       1.013325       0.556946
      12.410000       0.749176       0.993070       0.560781
      12.420000       0.745950       0.973465       0.564491
      12.430000       0.742770       0.955053       0.567959
      12.440000       0.739302       0.938421       0.571054
      12.450000       0.735249       0.924142       0.573624
      12.460000       0.730424       0.912703       0.575516
      12.470000       0.724790       0.904466       0.576581
      12.480000       0.718469       0.899644       0.576697
      12.490000       0.711717       0.898300       0.575776
      12.500000       0.704884       0.900375       0.573779
      12.510000       0.698363       0.905713       0.570735
      12.520000       0.692533       0.914069       0.566737
      12.530000       0.687701       0.925096       0.561946
      12.540000       0.684054       0.938277       0.556562
      12.550000       0.681619       0.952852       0.550800
      12.560000       0.680246       0.967749       0.544855
      12.570000       0.679613       0.981596       0.538882
      12.580000       0.679285       0.992817       0.532973
      12.590000       0.678791       0.999827       0.527153
      12.600000       0.677734       1.001281       0.521376
      12.610000       0.675864       0.996310       0.515533
      12.620000       0.673114       0.984696       0.509467
      12.630000       0.669584       0.966913       0.503002
      12.640000       0.665491       0.944034       0.495980
      12.650000       0.661102       0.917508       0.488298
      12.660000       0.656686       0.888891       0.479948
      12.670000       0.652485       0.859611       0.471034
      12.680000       0.648702       0.830819       0.461759
      12.690000       0.645497       0.803353       0.452389
      12.700000       0.642988       0.777780       0.443210
      12.710000       0.641247       0.754455       0.434484
      12.720000       0.640287       0.733584       0.426429
      12.730000       0.640057       0.715249       0.419205
      12.740000       0.640443       0.699426       0.412909
      12.750000       0.641279       0.685994       0.407571
      12.760000       0.642366       0.674742       0.403152
      12.770000       0.643484       0.665397       0.399546
      12.780000       0.644413       0.657649       0.396606
      12.790000       0.644951       0.651197       0.394166
      12.800000       0.644932       0.645799       0.392073
      12.810000       0.644240       0.641315       0.390211
      12.820000       0.642792       0.637728       0.388507
      12.830000       0.640514       0.635136       0.386923
      12.840000       0.637305       0.633707       0.385441
      12.850000       0.633029       0.633624       0.384050
      12.860000       0.627531       0.635025       0.382745
      12.870000       0.620683       0.637961       0.381536
      12.880000       0.612428       0.642381       0.380449
      12.890000       0.602811       0.648124       0.379527
      12.900000       0.591990       0.654921       0.378815
      12.910000       0.580219       0.662399       0.378343
      12.920000       0.567817       0.670099       0.378114
      12.930000       0.555123       0.677513       0.378094
      12.940000       0.542447       0.684162       0.378223
      12.950000       0.530049       0.689673       0.378416
      12.960000       0.518135       0.693853       0.378577
      12.970000       0.506884       0.696722       0.378617
      12.980000       0.496482       0.698486       0.378454
      12.990000       0.487146       0.699475       0.378032
      13.000000       0.479119       0.700047       0.377319
      13.010000       0.472652       0.700511       0.376307
      13.020000       0.467973       0.701077       0.375007
      13.030000       0.465255       0.701845       0.373443
      13.040000       0.464598       0.702818       0.371650
      13.050000       0.466009       0.703936       0.369676
      13.060000       0.469396       0.705116       0.367588
      13.070000       0.474558       0.706277       0.365477
      13.080000       0.481186       0.707372       0.363452
      13.090000       0.488874       0.708399       0.361629
      13.100000       0.497147       0.709391       0.360115
      13.110000       0.505502       0.710382       0.358991
      13.120000       0.513463       0.711349       0.358299
      13.130000       0.520633       0.712164       0.358033
      13.140000       0.526742       0.712591       0.358131
      13.150000       0.531665       0.712319       0.358476
      13.160000       0.535436       0.711051       0.358902
      13.170000       0.538223       0.708578       0.359213
      13.180000       0.540296       0.704814       0.359199
      13.190000       0.541973       0.699759       0.358666
      13.200000       0.543565       0.693433       0.357465
      13.210000       0.545319       0.685803       0.355504
      13.220000       0.547388       0.676775       0.352760
      13.230000       0.549820       0.666247       0.349269
      13.240000       0.552574       0.654184       0.345108
      13.250000       0.555559       0.640685       0.340382
      13.260000       0.558678       0.626000       0.335204
      13.270000       0.561883       0.610499       0.329687
      13.280000       0.565196       0.594605       0.323933
      13.290000       0.568717       0.578726       0.318039
      13.300000       0.572586       0.563211       0.312103
      13.310000       0.576932       0.548319       0.306226
      13.320000       0.581818       0.534217       0.300517
      13.330000       0.587199       0.520993       0.295098
      13.340000       0.592905       0.508668       0.290089
      13.350000       0.598661       0.497233       0.285602
      13.360000       0.604133       0.486669       0.281724
      13.370000       0.608988       0.476972       0.278504
      13.380000       0.612957       0.468150       0.275942
      13.390000       0.615872       0.460222       0.273980
      13.400000       0.617679       0.453189       0.272504
      13.410000       0.618416       0.447031       0.271352
      13.420000       0.618172       0.441696       0.270332
      13.430000       0.617031       0.437106       0.269243
      13.440000       0.615025       0.433162       0.267905
      13.450000       0.612109       0.429746       0.266180
      13.460000       0.608173       0.426721       0.263986
      13.470000       0.603094       0.423934       0.261304
      13.480000       0.596800       0.421236       0.258171
      13.490000       0.589310       0.418509       0.254671
      13.500000       0.580759       0.415703       0.250920
      13.510000       0.571377       0.412847       0.247053
      13.520000       0.561449       0.410040       0.243211
      13.530000       0.551278       0.407425       0.239537
      13.540000       0.541137       0.405145       0.236160
      13.550000       0.531237       0.403312       0.233186
      13.560000       0.521694       0.401990       0.230691
      13.570000       0.512509       0.401194       0.228708
      13.580000       0.503560       0.400905       0.227234
      13.590000       0.494638       0.401075       0.226230
      13.600000       0.485492       0.401630       0.225634
      13.610000       0.475894       0.402478       0.225375
      13.620000       0.465705       0.403504       0.225385
      13.630000       0.454903       0.404578       0.225611
      13.640000       0.443578       0.405576       0.226015
      13.650000       0.431905       0.406396       0.226572
      13.660000       0.420093       0.406990       0.227265
      13.670000       0.408361       0.407380       0.228076
      13.680000       0.396917       0.407662       0.228982
      13.690000       0.385956       0.407991       0.229959
      13.700000       0.375654       0.408547       0.230977
      13.710000       0.366159       0.409486       0.232003
      13.720000       0.357583       0.410900       0.233004
      13.730000       0.349990       0.412784       0.233950
      13.740000       0.343402       0.415024       0.234821
      13.750000       0.337801       0.417403       0.235607
      13.760000       0.333139       0.419637       0.236315
      13.770000       0.329350       0.421404       0.236961
      13.780000       0.326368       0.422404       0.237567
      13.790000       0.324134       0.422398       0.238157
      13.800000       0.322601       0.421253       0.238756
      13.810000       0.321730       0.418956       0.239397
      13.820000       0.321479       0.415619       0.240127
      13.830000       0.321783       0.411449       0.241007
      13.840000       0.322548       0.406709       0.242109
      13.850000       0.323640       0.401673       0.243509
      13.860000       0.324899       0.396585       0.245276
      13.870000       0.326168       0.391641       0.247471
      13.880000       0.327336       0.386981       0.250140
      13.890000       0.328379       0.382709       0.253312
      13.900000       0.329373       0.378901       0.256995
      13.910000       0.330481       0.375615       0.261174
      13.920000       0.331911       0.372879       0.265806
      13.930000       0.333854       0.370684       0.270829
      13.940000       0.336441       0.368969       0.276176
      13.950000       0.339707       0.367632       0.281790
      13.960000       0.343583       0.366547       0.287636
      13.970000       0.347920       0.365599       0.293717
      13.980000       0.352522       0.364707       0.300061
      13.990000       0.357199       0.363836       0.306711
      14.000000       0.361806       0.362997       0.313706
      14.010000       0.366268       0.362219       0.321055
      14.020000       0.370564       0.361532       0.328727
      14.030000       0.374688       0.360938       0.336651
      14.040000       0.378605       0.360401       0.344726
      14.050000       0.382221       0.359845       0.352843
      14.060000       0.385385       0.359168       0.360908
      14.070000       0.387924       0.358273       0.368851
      14.080000       0.389691       0.357087       0.376633
      14.090000       0.390615       0.355577       0.384230
      14.100000       0.390730       0.353750       0.391617
      14.110000       0.390174       0.351639       0.398745
      14.120000       0.389162       0.349291       0.405531
      14.130000       0.387944       0.346754       0.411874
      14.140000       0.386772       0.344090       0.417684
      14.150000       0.385874       0.341382       0.422922
      14.160000       0.385442       0.338748       0.427630
      14.170000       0.385612       0.336344       0.431925
      14.180000       0.386453       0.334350       0.435959
      14.190000       0.387954       0.332932       0.439862
      14.200000       0.390033       0.332208       0.443687
      14.210000       0.392548       0.332207       0.447378
      14.220000       0.395330       0.332855       0.450778
      14.230000       0.398201       0.333982       0.453660
      14.240000       0.400990       0.335356       0.455785
      14.250000       0.403535       0.336732       0.456958
      14.260000       0.405687       0.337903       0.457070
      14.270000       0.407309       0.338735       0.456115
      14.280000       0.408276       0.339168       0.454169
      14.290000       0.408483       0.339197       0.451353
      14.300000       0.407848       0.338841       0.447791
      14.310000       0.406328       0.338120       0.443586
      14.320000       0.403927       0.337042       0.438816
      14.330000       0.400700       0.335606       0.433549
      14.340000       0.396741       0.333815       0.427868
      14.350000       0.392166       0.331676       0.421881
      14.360000       0.387096       0.329215       0.415731
      14.370000       0.381656       0.326481       0.409580
      14.380000       0.375986       0.323559       0.403592
      14.390000       0.370250       0.320570       0.397908
      14.400000       0.364633       0.317666       0.392638
      14.410000       0.359329       0.315015       0.387853
      14.420000       0.354521       0.312778       0.383588
      14.430000       0.350364       0.311094       0.379846
      14.440000       0.346977       0.310065       0.376609
      14.450000       0.344439       0.309755       0.373836
      14.460000       0.342785       0.310192       0.371471
      14.470000       0.342002       0.311362       0.369439
      14.480000       0.342035       0.313216       0.367655
      14.490000       0.342794       0.315670       0.366027
      14.500000       0.344167       0.318615       0.364459
      14.510000       0.346033       0.321940       0.362855
      14.520000       0.348270       0.325557       0.361118
      14.530000       0.350753       0.329427       0.359148
      14.540000       0.353361       0.333568       0.356845
      14.550000       0.355972       0.338057       0.354123
      14.560000       0.358464       0.343009       0.350923
      14.570000       0.360716       0.348543       0.347235
      14.580000       0.362618       0.354751       0.343099
      14.590000       0.364078       0.361662       0.338602
      14.600000       0.365046       0.369227       0.333861
      14.610000       0.365520       0.377326       0.328991
      14.620000       0.365554       0.385784       0.324095
      14.630000       0.365247       0.394411       0.319249
      14.640000       0.364729       0.403032       0.314501
      14.650000       0.364140       0.411515       0.309874
      14.660000       0.363595       0.419772       0.305375
      14.670000       0.363160       0.427755       0.300999
      14.680000       0.362819       0.435428       0.296739
      14.690000       0.362472       0.442745       0.292591
      14.700000       0.361941       0.449631       0.288567
      14.710000       0.361022       0.455987       0.284700
      14.720000       0.359535       0.461705       0.281051
      14.730000       0.357375       0.466702       0.277705
      14.740000       0.354540       0.470944       0.274764
      14.750000       0.351119       0.474465       0.272332
      14.760000       0.347258       0.477351       0.270508
      14.770000       0.343124       0.479723       0.269369
      14.780000       0.338876       0.481696       0.268965
      14.790000       0.334659       0.483364       0.269317
      14.800000       0.330605       0.484795       0.270411
      14.810000       0.326843       0.486042       0.272204
      14.820000       0.323496       0.487167       0.274631
      14.830000       0.320675       0.488259       0.277614
      14.840000       0.318466       0.489435       0.281072
      14.850000       0.316916       0.490824       0.284931
      14.860000       0.316031       0.492539       0.289130
      14.870000       0.315778       0.494639       0.293623
      14.880000       0.316108       0.497103       0.298381
      14.890000       0.316969       0.499815       0.303378
      14.900000       0.318324       0.502594       0.308585
      14.910000       0.320143       0.505232       0.313955
      14.920000       0.322393       0.507564       0.319413
      14.930000       0.325032       0.509507       0.324858
      14.940000       0.327994       0.511086       0.330167
      14.950000       0.331197       0.512407       0.335229
      14.960000       0.334548       0.513621       0.339965
      14.970000       0.337939       0.514871       0.344364
      14.980000       0.341263       0.516255       0.348492
      14.990000       0.344416       0.517806       0.352481
      15.000000       0.347319       0.519500       0.356507
      15.010000       0.349932       0.521267       0.360745
      15.020000       0.352271       0.523015       0.365338
      15.030000       0.354397       0.524650       0.370363
      15.040000       0.356391       0.526089       0.375836
      15.050000       0.358326       0.527273       0.381716
      15.060000       0.360229       0.528166       0.387937
      15.070000       0.362065       0.528754       0.394434
      15.080000       0.363736       0.529029       0.401156
      15.090000       0.365093       0.528982       0.408081
      15.100000       0.365980       0.528601       0.415196
      15.110000       0.366270       0.527896       0.422489
      15.120000       0.365909       0.526924       0.429917
      15.130000       0.364946       0.525809       0.437400
      15.140000       0.363532       0.524738       0.444825
      15.150000       0.361904       0.523927       0.452064
      15.160000       0.360348       0.523586       0.459011
      15.170000       0.359154       0.523882       0.465611
      15.180000       0.358567       0.524918       0.471886
      15.190000       0.358747       0.526720       0.477927
      15.200000       0.359743       0.529235       0.483877
      15.210000       0.361483       0.532317       0.489910
      15.220000       0.363782       0.535742       0.496200
      15.230000       0.366376       0.539221       0.502908
      15.240000       0.368964       0.542445       0.510163
      15.250000       0.371259       0.545138       0.518051
      15.260000       0.373039       0.547111       0.526612
      15.270000       0.374183       0.548297       0.535836
      15.280000       0.374688       0.548770       0.545665
      15.290000       0.374650       0.548715       0.555989
      15.300000       0.374237       0.548394       0.566651
      15.310000       0.373637       0.548081       0.577434
      15.320000       0.373015       0.547996       0.588052
      15.330000       0.372486       0.548252       0.598160
      15.340000       0.372103       0.548830       0.607369
      15.350000       0.371862       0.549585       0.615286
      15.360000       0.371721       0.550294       0.621572
      15.370000       0.371615       0.550716       0.626000
      15.380000       0.371469       0.550659       0.628495
      15.390000       0.371219       0.550013       0.629146
      15.400000       0.370810       0.548761       0.628172
      15.410000       0.370202       0.546951       0.625868
      15.420000       0.369363       0.544667       0.622533
      15.430000       0.368264       0.541995       0.618420
      15.440000       0.366889       0.539007       0.613718
      15.450000       0.365245       0.535758       0.608559
      15.460000       0.363371       0.532290       0.603044
      15.470000       0.361330       0.528635       0.597251
      15.480000       0.359181       0.524804       0.591237
      15.490000       0.356933       0.520787       0.585032
      15.500000       0.354520       0.516547       0.578639
      15.510000       0.351794       0.512024       0.572057
      15.520000       0.348551       0.507164       0.565303
      15.530000       0.344591       0.501933       0.558443
      15.540000       0.339788       0.496349       0.551591
      15.550000       0.334133       0.490493       0.544886
      15.560000       0.327750       0.484506       0.538448
      15.570000       0.320867       0.478574       0.532335
      15.580000       0.313759       0.472890       0.526521
      15.590000       0.306685       0.467615       0.520892
      15.600000       0.299840       0.462852       0.515271
      15.610000       0.293333       0.458632       0.509451
      15.620000       0.287188       0.454925       0.503246
      15.630000       0.281368       0.451653       0.496523
      15.640000       0.275808       0.448706       0.489237
      15.650000       0.270451       0.445949       0.481435
      15.660000       0.265271       0.443233       0.473253
      15.670000       0.260280       0.440398       0.464892
      15.680000       0.255522       0.437289       0.456589
      15.690000       0.251062       0.433783       0.448575
      15.700000       0.246964       0.429811       0.441034
      15.710000       0.243282       0.425378       0.434075
      15.720000       0.240044       0.420566       0.427719
      15.730000       0.237251       0.415510       0.421910
      15.740000       0.234876       0.410374       0.416526
      15.750000       0.232878       0.405314       0.411409
      15.760000       0.231208       0.400459       0.406380
      15.770000       0.229828       0.395891       0.401261
      15.780000       0.228727       0.391661       0.395885
      15.790000       0.227922       0.387798       0.390110
      15.800000       0.227466       0.384332       0.383820
      15.810000       0.227437       0.381300       0.376932
      15.820000       0.227920       0.378744       0.369388
      15.830000       0.228993       0.376694       0.361154
      15.840000       0.230712       0.375153       0.352223
      15.850000       0.233100       0.374090       0.342628
      15.860000       0.236142       0.373441       0.332456
      15.870000       0.239783       0.373116       0.321851
      15.880000       0.243929       0.373009       0.311007
      15.890000       0.248453       0.373020       0.300136
      15.900000       0.253214       0.373060       0.289442
      15.910000       0.258071       0.373061       0.279091
      15.920000       0.262907       0.372968       0.269206
      15.930000       0.267636       0.372726       0.259865
      15.940000       0.272213       0.372277       0.251109
      15.950000       0.276623       0.371561       0.242953
      15.960000       0.280874       0.370538       0.235401
      15.970000       0.284986       0.369207       0.228449
      15.980000       0.288978       0.367620       0.222089
      15.990000       0.292859       0.365883       0.216313
      16.000000       0.296633       0.364139       0.211107
      16.010000       0.300294       0.362541       0.206453
      16.020000       0.303835       0.361222       0.202326
      16.030000       0.307245       0.360259       0.198695
      16.040000       0.310508       0.359652       0.195525
      16.050000       0.313593       0.359319       0.192779
      16.060000       0.316468       0.359109       0.190415
      16.070000       0.319110       0.358832       0.188387
      16.080000       0.321526       0.358296       0.186633
      16.090000       0.323767       0.357342       0.185080
      16.100000       0.325940       0.355862       0.183640
      16.110000       0.328192       0.353804       0.182229
      16.120000       0.330688       0.351174       0.180774
      16.130000       0.333568       0.348023       0.179230
      16.140000       0.336901       0.344442       0.177583
      16.150000       0.340655       0.340549       0.175846
      16.160000       0.344667       0.336471       0.174048
      16.170000       0.348659       0.332324       0.172223
      16.180000       0.352267       0.328191       0.170406
      16.190000       0.355103       0.324108       0.168629
      16.200000       0.356820       0.320068       0.166922
      16.210000       0.357177       0.316044       0.165311
      16.220000       0.356067       0.312011       0.163817
      16.230000       0.353519       0.307978       0.162451
      16.240000       0.349658       0.303988       0.161216
      16.250000       0.344666       0.300125       0.160101
      16.260000       0.338745       0.296492       0.159088
      16.270000       0.332102       0.293201       0.158156
      16.280000       0.324949       0.290348       0.157286
      16.290000       0.317509       0.288003       0.156471
      16.300000       0.310010       0.286200       0.155720
      16.310000       0.302672       0.284939       0.155060
      16.320000       0.295691       0.284190       0.154525
      16.330000       0.289229       0.283903       0.154158
      16.340000       0.283405       0.284025       0.153998
      16.350000       0.278299       0.284502       0.154076
      16.360000       0.273943       0.285291       0.154412
      16.370000       0.270322       0.286353       0.155009
      16.380000       0.267376       0.287645       0.155847
      16.390000       0.264991       0.289107       0.156883
      16.400000       0.263018       0.290640       0.158053
      16.410000       0.261288       0.292101       0.159273
      16.420000       0.259637       0.293310       0.160455
      16.430000       0.257927       0.294073       0.161514
      16.440000       0.256062       0.294221       0.162386
      16.450000       0.253980       0.293645       0.163035
      16.460000       0.251652       0.292315       0.163455
      16.470000       0.249068       0.290281       0.163669
      16.480000       0.246245       0.287653       0.163718
      16.490000       0.243228       0.284580       0.163656
      16.500000       0.240088       0.281213       0.163542
      16.510000       0.236914       0.277683       0.163437
      16.520000       0.233790       0.274086       0.163397
      16.530000       0.230784       0.270469       0.163469
      16.540000       0.227931       0.266827       0.163681
      16.550000       0.225239       0.263119       0.164040
      16.560000       0.222700       0.259286       0.164521
      16.570000       0.220308       0.255285       0.165082
      16.580000       0.218069       0.251117       0.165662
      16.590000       0.216012       0.246839       0.166204
      16.600000       0.214188       0.242556       0.166659
      16.610000       0.212666       0.238397       0.166995
      16.620000       0.211515       0.234482       0.167198
      16.630000       0.210802       0.230895       0.167265
      16.640000       0.210577       0.227673       0.167201
      16.650000       0.210872       0.224807       0.167017
      16.660000       0.211701       0.222257       0.166724
      16.670000       0.213056       0.219968       0.166331
      16.680000       0.214908       0.217880       0.165846
      16.690000       0.217208       0.215936       0.165267
      16.700000       0.219887       0.214088       0.164592
      16.710000       0.222867       0.212287       0.163823
      16.720000       0.226067       0.210493       0.162966
      16.730000       0.229404       0.208667       0.162040
      16.740000       0.232800       0.206784       0.161073
      16.750000       0.236179       0.204836       0.160094
      16.760000       0.239460       0.202841       0.159124
      16.770000       0.242554       0.200836       0.158173
      16.780000       0.245363       0.198871       0.157236
      16.790000       0.247788       0.196991       0.156295
      16.800000       0.249743       0.195223       0.155329
      16.810000       0.251168       0.193567       0.154321
      16.820000       0.252045       0.192000       0.153259
      16.830000       0.252395       0.190486       0.152144
      16.840000       0.252277       0.188987       0.150988
      16.850000       0.251773       0.187474       0.149815
      16.860000       0.250973       0.185937       0.148654
      16.870000       0.249959       0.184380       0.147537
      16.880000       0.248808       0.182824       0.146492
      16.890000       0.247585       0.181297       0.145535
      16.900000       0.246358       0.179833       0.144668
      16.910000       0.245188       0.178464       0.143877
      16.920000       0.244133       0.177213       0.143135
      16.930000       0.243243       0.176093       0.142400
      16.940000       0.242563       0.175100       0.141630
      16.950000       0.242136       0.174218       0.140785
      16.960000       0.242013       0.173418       0.139838
      16.970000       0.242249       0.172670       0.138782
      16.980000       0.242901       0.171941       0.137630
      16.990000       0.244013       0.171207       0.136410
      17.000000       0.245603       0.170452       0.135163
      17.010000       0.247652       0.169667       0.133929
      17.020000       0.250099       0.168846       0.132738
      17.030000       0.252837       0.167983       0.131610
      17.040000       0.255723       0.167065       0.130548
      17.050000       0.258595       0.166080       0.129549
      17.060000       0.261292       0.165021       0.128607
      17.070000       0.263675       0.163897       0.127718
      17.080000       0.265637       0.162737       0.126885
      17.090000       0.267108       0.161589       0.126117
      17.100000       0.268044       0.160513       0.125424
      17.110000       0.268431       0.159566       0.124820
      17.120000       0.268280       0.158796       0.124314
      17.130000       0.267640       0.158237       0.123909
      17.140000       0.266592       0.157912       0.123610
      17.150000       0.265236       0.157827       0.123416
      17.160000       0.263679       0.157980       0.123325
      17.170000       0.262014       0.158353       0.123329
      17.180000       0.260311       0.158917       0.123409
      17.190000       0.258606       0.159628       0.123531
      17.200000       0.256907       0.160429       0.123645
      17.210000       0.255189       0.161253       0.123686
      17.220000       0.253411       0.162028       0.123581
      17.230000       0.251529       0.162682       0.123259
      17.240000       0.249519       0.163147       0.122668
      17.250000       0.247391       0.163374       0.121775
      17.260000       0.245189       0.163331       0.120581
      17.270000       0.242969       0.163006       0.119112
      17.280000       0.240782       0.162412       0.117418
      17.290000       0.238656       0.161580       0.115566
      17.300000       0.236584       0.160559       0.113634
      17.310000       0.234533       0.159410       0.111697
      17.320000       0.232461       0.158199       0.109829
      17.330000       0.230329       0.156989       0.108089
      17.340000       0.228128       0.155837       0.106525
      17.350000       0.225886       0.154792       0.105166
      17.360000       0.223667       0.153893       0.104026
      17.370000       0.221560       0.153173       0.103104
      17.380000       0.219658       0.152657       0.102393
      17.390000       0.218031       0.152359       0.101882
      17.400000       0.216712       0.152281       0.101559
      17.410000       0.215693       0.152408       0.101412
      17.420000       0.214923       0.152709       0.101427
      17.430000       0.214321       0.153139       0.101584
      17.440000       0.213793       0.153649       0.101858
      17.450000       0.213243       0.154191       0.102216
      17.460000       0.212593       0.154732       0.102625
      17.470000       0.211791       0.155250       0.103051
      17.480000       0.210811       0.155737       0.103466
      17.490000       0.209655       0.156194       0.103847
      17.500000       0.208343       0.156622       0.104177
      17.510000       0.206901       0.157024       0.104438
      17.520000       0.205357       0.157397       0.104615
      17.530000       0.203729       0.157733       0.104687
      17.540000       0.202034       0.158017       0.104631
      17.550000       0.200285       0.158230       0.104419
      17.560000       0.198505       0.158347       0.104028
      17.570000       0.196723       0.158347       0.103440
      17.580000       0.194977       0.158215       0.102653
      17.590000       0.193300       0.157948       0.101679
      17.600000       0.191713       0.157551       0.100546
      17.610000       0.190212       0.157034       0.099295
      17.620000       0.188766       0.156404       0.097975
      17.630000       0.187327       0.155662       0.096637
      17.640000       0.185839       0.154809       0.095329
      17.650000       0.184264       0.153849       0.094090
      17.660000       0.182593       0.152797       0.092951
      17.670000       0.180853       0.151683       0.091925
      17.680000       0.179095       0.150552       0.091016
      17.690000       0.177380       0.149452       0.090219
      17.700000       0.175758       0.148426       0.089524
      17.710000       0.174252       0.147509       0.088923
      17.720000       0.172848       0.146715       0.088413
      17.730000       0.171509       0.146043       0.087990
      17.740000       0.170176       0.145472       0.087653
      17.750000       0.168797       0.144974       0.087393
      17.760000       0.167336       0.144521       0.087198
      17.770000       0.165784       0.144088       0.087044
      17.780000       0.164158       0.143659       0.086904
      17.790000       0.162493       0.143223       0.086748
      17.800000       0.160828       0.142772       0.086550
      17.810000       0.159197       0.142297       0.086295
      17.820000       0.157629       0.141786       0.085981
      17.830000       0.156143       0.141217       0.085624
      17.840000       0.154757       0.140570       0.085249
      17.850000       0.153491       0.139819       0.084887
      17.860000       0.152370       0.138946       0.084572
      17.870000       0.151422       0.137940       0.084330
      17.880000       0.150668       0.136809       0.084179
      17.890000       0.150120       0.135581       0.084126
      17.900000       0.149777       0.134301       0.084165
      17.910000       0.149625       0.133028       0.084282
      17.920000       0.149636       0.131827       0.084455
      17.930000       0.149780       0.130757       0.084662
      17.940000       0.150022       0.129862       0.084885
      17.950000       0.150327       0.129168       0.085117
      17.960000       0.150662       0.128679       0.085360
      17.970000       0.150990       0.128382       0.085626
      17.980000       0.151280       0.128250       0.085932
      17.990000       0.151500       0.128248       0.086293
      18.000000       0.151628       0.128341       0.086715
      18.010000       0.151659       0.128492       0.087192
      18.020000       0.151605       0.128669       0.087708
      18.030000       0.151498       0.128841       0.088232
      18.040000       0.151387       0.128980       0.088732
      18.050000       0.151333       0.129062       0.089176
      18.060000       0.151398       0.129069       0.089544
      18.070000       0.151638       0.128989       0.089823
      18.080000       0.152094       0.128817       0.090017
      18.090000       0.152784       0.128557       0.090136
      18.100000       0.153701       0.128219       0.090197
      18.110000       0.154816       0.127822       0.090218
      18.120000       0.156087       0.127389       0.090222
      18.130000       0.157467       0.126950       0.090231
      18.140000       0.158905       0.126532       0.090267
      18.150000       0.160349       0.126159       0.090352
      18.160000       0.161736       0.125847       0.090501
      18.170000       0.162993       0.125609       0.090725
      18.180000       0.164043       0.125450       0.091024
      18.190000       0.164811       0.125374       0.091395
      18.200000       0.165242       0.125380       0.091830
      18.210000       0.165306       0.125459       0.092320
      18.220000       0.165006       0.125594       0.092860
      18.230000       0.164367       0.125754       0.093450
      18.240000       0.163430       0.125903       0.094095
      18.250000       0.162242       0.126007       0.094807
      18.260000       0.160850       0.126041       0.095597
      18.270000       0.159298       0.125996       0.096480
      18.280000       0.157621       0.125879       0.097464
      18.290000       0.155842       0.125711       0.098558
      18.300000       0.153974       0.125519       0.099769
      18.310000       0.152025       0.125332       0.101100
      18.320000       0.149999       0.125173       0.102553
      18.330000       0.147910       0.125058       0.104130
      18.340000       0.145772       0.124995       0.105825
      18.350000       0.143613       0.124983       0.107630
      18.360000       0.141460       0.125012       0.109535
      18.370000       0.139344       0.125068       0.111525
      18.380000       0.137291       0.125137       0.113585
      18.390000       0.135318       0.125204       0.115695
      18.400000       0.133435       0.125261       0.117839
      18.410000       0.131645       0.125303       0.120002
      18.420000       0.129945       0.125337       0.122174
      18.430000       0.128329       0.125379       0.124359
      18.440000       0.126790       0.125456       0.126578
      18.450000       0.125319       0.125609       0.128866
      18.460000       0.123908       0.125891       0.131267
      18.470000       0.122559       0.126364       0.133831
      18.480000       0.121286       0.127088       0.136601
      18.490000       0.120117       0.128120       0.139606
      18.500000       0.119091       0.129495       0.142857
      18.510000       0.118249       0.131224       0.146346
      18.520000       0.117620       0.133284       0.150044
      18.530000       0.117220       0.135625       0.153911
      18.540000       0.117044       0.138165       0.157899
      18.550000       0.117067       0.140802       0.161962
      18.560000       0.117250       0.143419       0.166064
      18.570000       0.117544       0.145898       0.170177
      18.580000       0.117897       0.148123       0.174279
      18.590000       0.118263       0.149998       0.178345
      18.600000       0.118608       0.151458       0.182338
      18.610000       0.118919       0.152474       0.186206
      18.620000       0.119200       0.153063       0.189882
      18.630000       0.119475       0.153277       0.193294
      18.640000       0.119776       0.153193       0.196366
      18.650000       0.120139       0.152891       0.199026
      18.660000       0.120594       0.152441       0.201205
      18.670000       0.121159       0.151891       0.202848
      18.680000       0.121837       0.151267       0.203925
      18.690000       0.122611       0.150575       0.204448
      18.700000       0.123446       0.149805       0.204484
      18.710000       0.124290       0.148942       0.204155
      18.720000       0.125079       0.147976       0.203623
      18.730000       0.125747       0.146912       0.203065
      18.740000       0.126229       0.145779       0.202651
      18.750000       0.126476       0.144632       0.202521
      18.760000       0.126459       0.143541       0.202772
      18.770000       0.126178       0.142576       0.203459
      18.780000       0.125657       0.141799       0.204593
      18.790000       0.124947       0.141244       0.206158
      18.800000       0.124113       0.140923       0.208115
      18.810000       0.123228       0.140817       0.210421
      18.820000       0.122366       0.140891       0.213034
      18.830000       0.121591       0.141097       0.215930
      18.840000       0.120954       0.141387       0.219101
      18.850000       0.120494       0.141726       0.222550
      18.860000       0.120230       0.142092       0.226278
      18.870000       0.120168       0.142475       0.230255
      18.880000       0.120298       0.142868       0.234409
      18.890000       0.120598       0.143258       0.238611
      18.900000       0.121036       0.143620       0.242691
      18.910000       0.121577       0.143920       0.246457
      18.920000       0.122181       0.144125       0.249729
      18.930000       0.122807       0.144206       0.252364
      18.940000       0.123419       0.144155       0.254279
      18.950000       0.123981       0.143981       0.255464
      18.960000       0.124466       0.143713       0.255978
      18.970000       0.124852       0.143393       0.255942
      18.980000       0.125125       0.143068       0.255512
      18.990000       0.125281       0.142777       0.254848
      19.000000       0.125319       0.142542       0.254082
      19.010000       0.125242       0.142356       0.253299
      19.020000       0.125055       0.142185       0.252537
      19.030000       0.124760       0.141977       0.251792
      19.040000       0.124364       0.141672       0.251043
      19.050000       0.123871       0.141222       0.250265
      19.060000       0.123291       0.140595       0.249445
      19.070000       0.122639       0.139781       0.248595
      19.080000       0.121932       0.138784       0.247747
      19.090000       0.121187       0.137624       0.246946
      19.100000       0.120417       0.136324       0.246242
      19.110000       0.119632       0.134918       0.245680
      19.120000       0.118835       0.133440       0.245292
      19.130000       0.118032       0.131927       0.245097
      19.140000       0.117226       0.130409       0.245103
      19.150000       0.116422       0.128912       0.245313
      19.160000       0.115625       0.127454       0.245721
      19.170000       0.114838       0.126052       0.246319
      19.180000       0.114061       0.124720       0.247088
      19.190000       0.113297       0.123473       0.247994
      19.200000       0.112545       0.122323       0.248992
      19.210000       0.111807       0.121276       0.250041
      19.220000       0.111085       0.120330       0.251114
      19.230000       0.110383       0.119473       0.252212
      19.240000       0.109702       0.118683       0.253367
      19.250000       0.109043       0.117928       0.254626
      19.260000       0.108408       0.117170       0.256040
      19.270000       0.107798       0.116369       0.257639
      19.280000       0.107219       0.115491       0.259424
      19.290000       0.106677       0.114509       0.261368
      19.300000       0.106176       0.113412       0.263421
      19.310000       0.105721       0.112204       0.265533
      19.320000       0.105310       0.110910       0.267669
      19.330000       0.104940       0.109571       0.269825
      19.340000       0.104604       0.108233       0.272022
      19.350000       0.104300       0.106944       0.274302
      19.360000       0.104024       0.105738       0.276701
      19.370000       0.103780       0.104634       0.279234
      19.380000       0.103570       0.103636       0.281876
      19.390000       0.103399       0.102730       0.284557
      19.400000       0.103270       0.101899       0.287162
      19.410000       0.103181       0.101124       0.289547
      19.420000       0.103126       0.100388       0.291565
      19.430000       0.103095       0.099682       0.293095
      19.440000       0.103077       0.099003       0.294068
      19.450000       0.103061       0.098353       0.294482
      19.460000       0.103038       0.097740       0.294392
      19.470000       0.103003       0.097175       0.293896
      19.480000       0.102954       0.096670       0.293101
      19.490000       0.102887       0.096235       0.292106
      19.500000       0.102800       0.095877       0.290987
      19.510000       0.102686       0.095597       0.289801
      19.520000       0.102537       0.095389       0.288595
      19.530000       0.102345       0.095241       0.287408
      19.540000       0.102099       0.095133       0.286278
      19.550000       0.101792       0.095032       0.285239
      19.560000       0.101417       0.094898       0.284316
      19.570000       0.100967       0.094684       0.283519
      19.580000       0.100436       0.094344       0.282841
      19.590000       0.099822       0.093844       0.282260
      19.600000       0.099121       0.093172       0.281744
      19.610000       0.098337       0.092335       0.281253
      19.620000       0.097477       0.091362       0.280751
      19.630000       0.096554       0.090294       0.280201
      19.640000       0.095586       0.089174       0.279572
      19.650000       0.094593       0.088045       0.278836
      19.660000       0.093598       0.086940       0.277970
      19.670000       0.092628       0.085886       0.276959
      19.680000       0.091708       0.084900       0.275809
      19.690000       0.090866       0.083995       0.274542
      19.700000       0.090127       0.083176       0.273204
      19.710000       0.089507       0.082451       0.271855
      19.720000       0.089014       0.081824       0.270556
      19.730000       0.088644       0.081302       0.269363
      19.740000       0.088383       0.080888       0.268315
      19.750000       0.088211       0.080588       0.267435
      19.760000       0.088105       0.080405       0.266740
      19.770000       0.088045       0.080340       0.266243
      19.780000       0.088010       0.080389       0.265956
      19.790000       0.087987       0.080546       0.265885
      19.800000       0.087962       0.080798       0.266023
      19.810000       0.087923       0.081126       0.266346
      19.820000       0.087858       0.081506       0.266812
      19.830000       0.087755       0.081909       0.267368
      19.840000       0.087602       0.082302       0.267955
      19.850000       0.087395       0.082655       0.268514
      19.860000       0.087137       0.082944       0.268994
      19.870000       0.086842       0.083162       0.269359
      19.880000       0.086531       0.083316       0.269598
      19.890000       0.086227       0.083430       0.269726
      19.900000       0.085953       0.083540       0.269792
      19.910000       0.085721       0.083682       0.269868
      19.920000       0.085541       0.083885       0.270043
      19.930000       0.085409       0.084170       0.270409
      19.940000       0.085321       0.084546       0.271042
      19.950000       0.085267       0.085009       0.271989
      19.960000       0.085233       0.085550       0.273253
      19.970000       0.085208       0.086153       0.274797
      19.980000       0.085179       0.086797       0.276557
      19.990000       0.085137       0.087459       0.278462
      20.000000       0.085073       0.088113       0.280457
