  # energy grid [eV]     epsr_x  epsr_y  epsr_z
       0.000000            NaN            NaN            NaN
       0.010000 -197255.380061  -91395.858296       2.186600
       0.020000  -49310.430905  -22846.223748       2.186736
       0.030000  -21913.217375  -10151.846292       2.186922
       0.040000  -12324.191784   -5708.813367       2.187092
       0.050000   -7885.841855   -3652.322944       2.187150
       0.060000   -5474.885337   -2535.216079       2.186960
       0.070000   -4021.153553   -1861.634870       2.186344
       0.080000   -3077.624631   -1424.453718       2.185073
       0.090000   -2430.743198   -1124.722687       2.182866
       0.100000   -1968.031577    -910.325741       2.179397
       0.110000   -1625.676148    -751.695118       2.174305
       0.120000   -1365.285587    -631.042365       2.167235
       0.130000   -1162.639303    -537.144972       2.157891
       0.140000   -1001.844463    -462.639062       2.146108
       0.150000    -872.122157    -402.530268       2.131922
       0.160000    -765.952703    -353.334376       2.115621
       0.170000    -677.960791    -312.560752       2.097737
       0.180000    -604.221429    -278.390766       2.078973
       0.190000    -541.814512    -249.471399       2.060081
       0.200000    -488.531186    -224.779186       2.041728
       0.210000    -442.675654    -203.528391       2.024402
       0.220000    -402.928543    -185.107696       2.008402
       0.230000    -368.250912    -169.035725       1.993888
       0.240000    -337.815657    -154.929266       1.980952
       0.250000    -310.957711    -142.480198       1.969674
       0.260000    -287.137399    -131.438515       1.960126
       0.270000    -265.913099    -121.599665       1.952338
       0.280000    -246.920618    -112.795003       1.946259
       0.290000    -229.857454    -104.884501       1.941729
       0.300000    -214.470669     -97.751141       1.938490
       0.310000    -200.547446     -91.296545       1.936223
       0.320000    -187.907686     -85.437544       1.934585
       0.330000    -176.398149     -80.103451       1.933263
       0.340000    -165.887781     -75.233874       1.932009
       0.350000    -156.263964     -70.776930       1.930679
       0.360000    -147.429489     -66.687769       1.929247
       0.370000    -139.300083     -62.927369       1.927803
       0.380000    -131.802398     -59.461542       1.926517
       0.390000    -124.872346     -56.260165       1.925588
       0.400000    -118.453738     -53.296620       1.925188
       0.410000    -112.497146     -50.547408       1.925420
       0.420000    -106.958965     -47.991873       1.926309
       0.430000    -101.800617     -45.611980       1.927803
       0.440000     -96.987874     -43.392082       1.929802
       0.450000     -92.490285     -41.318653       1.932171
       0.460000     -88.280684     -39.380004       1.934760
       0.470000     -84.334765     -37.565970       1.937412
       0.480000     -80.630726     -35.867595       1.939966
       0.490000     -77.148956     -34.276786       1.942260
       0.500000     -73.871771     -32.785966       1.944133
       0.510000     -70.783180     -31.387738       1.945425
       0.520000     -67.868693     -30.074638       1.945991
       0.530000     -65.115154     -28.839066       1.945715
       0.540000     -62.510599     -27.673437       1.944524
       0.550000     -60.044148     -26.570533       1.942407
       0.560000     -57.705902     -25.523905       1.939422
       0.570000     -55.486857     -24.528189       1.935697
       0.580000     -53.378820     -23.579227       1.931416
       0.590000     -51.374345     -22.674001       1.926810
       0.600000     -49.466661     -21.810443       1.922136
       0.610000     -47.649628     -20.987221       1.917663
       0.620000     -45.917693     -20.203545       1.913653
       0.630000     -44.265862     -19.459012       1.910324
       0.640000     -42.689683     -18.753456       1.907829
       0.650000     -41.185224     -18.086781       1.906231
       0.660000     -39.749054     -17.458712       1.905506
       0.670000     -38.378210     -16.868470       1.905557
       0.680000     -37.070123     -16.314407       1.906241
       0.690000     -35.822498     -15.793715       1.907391
       0.700000     -34.633118     -15.302372       1.908842
       0.710000     -33.499574     -14.835446       1.910441
       0.720000     -32.418944     -14.387722       1.912065
       0.730000     -31.387525     -13.954454       1.913619
       0.740000     -30.400722     -13.531961       1.915046
       0.750000     -29.453226     -13.117891       1.916321
       0.760000     -28.539478     -12.711121       1.917440
       0.770000     -27.654283     -12.311449       1.918413
       0.780000     -26.793346     -11.919233       1.919248
       0.790000     -25.953546     -11.535066       1.919941
       0.800000     -25.132914     -11.159566       1.920471
       0.810000     -24.330400     -10.793252       1.920801
       0.820000     -23.545565     -10.436489       1.920888
       0.830000     -22.778311     -10.089486       1.920693
       0.840000     -22.028694      -9.752305       1.920196
       0.850000     -21.296828      -9.424890       1.919400
       0.860000     -20.582863      -9.107096       1.918323
       0.870000     -19.887017      -8.798710       1.916996
       0.880000     -19.209640      -8.499476       1.915453
       0.890000     -18.551304      -8.209113       1.913734
       0.900000     -17.912910      -7.927328       1.911895
       0.910000     -17.295801      -7.653832       1.910021
       0.920000     -16.701884      -7.388348       1.908226
       0.930000     -16.133742      -7.130623       1.906637
       0.940000     -15.594731      -6.880433       1.905378
       0.950000     -15.089040      -6.637598       1.904540
       0.960000     -14.621696      -6.401979       1.904176
       0.970000     -14.198460      -6.173487       1.904287
       0.980000     -13.825557      -5.952075       1.904833
       0.990000     -13.509133      -5.737723       1.905738
       1.000000     -13.254361      -5.530411       1.906908
       1.010000     -13.064270      -5.330078       1.908243
       1.020000     -12.938593      -5.136577       1.909648
       1.030000     -12.873125      -4.949641       1.911053
       1.040000     -12.860013      -4.768872       1.912413
       1.050000     -12.888955      -4.593766       1.913715
       1.060000     -12.948754      -4.423760       1.914976
       1.070000     -13.028484      -4.258277       1.916230
       1.080000     -13.117935      -4.096761       1.917522
       1.090000     -13.207684      -3.938705       1.918894
       1.100000     -13.289437      -3.783693       1.920376
       1.110000     -13.356886      -3.631455       1.921981
       1.120000     -13.406581      -3.481921       1.923700
       1.130000     -13.438061      -3.335253       1.925500
       1.140000     -13.452791      -3.191827       1.927329
       1.150000     -13.452282      -3.052179       1.929116
       1.160000     -13.436289      -2.916943       1.930780
       1.170000     -13.402010      -2.786779       1.932239
       1.180000     -13.344690      -2.662302       1.933420
       1.190000     -13.259260      -2.543991       1.934265
       1.200000     -13.142134      -2.432049       1.934737
       1.210000     -12.992358      -2.326249       1.934820
       1.220000     -12.811761      -2.225800       1.934506
       1.230000     -12.604351      -2.129358       1.933796
       1.240000     -12.375365      -2.035231       1.932696
       1.250000     -12.130377      -1.941757       1.931225
       1.260000     -11.874636      -1.847732       1.929426
       1.270000     -11.612671      -1.752729       1.927371
       1.280000     -11.348105      -1.657229       1.925154
       1.290000     -11.083614      -1.562556       1.922873
       1.300000     -10.820994      -1.470683       1.920613
       1.310000     -10.561314      -1.383971       1.918438
       1.320000     -10.305114      -1.304873       1.916399
       1.330000     -10.052637      -1.235592       1.914546
       1.340000      -9.804016      -1.177715       1.912945
       1.350000      -9.559405      -1.131859       1.911674
       1.360000      -9.319032      -1.097430       1.910812
       1.370000      -9.083213      -1.072581       1.910415
       1.380000      -8.852326      -1.054413       1.910506
       1.390000      -8.626803      -1.039376       1.911068
       1.400000      -8.407115      -1.023798       1.912046
       1.410000      -8.193768      -1.004435       1.913365
       1.420000      -7.987291      -0.978972       1.914943
       1.430000      -7.788206      -0.946368       1.916706
       1.440000      -7.596968      -0.906961       1.918599
       1.450000      -7.413859      -0.862305       1.920590
       1.460000      -7.238863      -0.814817       1.922669
       1.470000      -7.071530      -0.767331       1.924841
       1.480000      -6.910901      -0.722656       1.927116
       1.490000      -6.755545      -0.683159       1.929506
       1.500000      -6.603735      -0.650377       1.932018
       1.510000      -6.453727      -0.624695       1.934651
       1.520000      -6.304057      -0.605186       1.937394
       1.530000      -6.153738      -0.589770       1.940221
       1.540000      -6.002333      -0.575756       1.943090
       1.550000      -5.849888      -0.560638       1.945946
       1.560000      -5.696815      -0.542867       1.948718
       1.570000      -5.543755      -0.522294       1.951326
       1.580000      -5.391472      -0.500146       1.953686
       1.590000      -5.240779      -0.478602       1.955712
       1.600000      -5.092492      -0.460125       1.957328
       1.610000      -4.947392      -0.446786       1.958475
       1.620000      -4.806194      -0.439714       1.959115
       1.630000      -4.669503      -0.438826       1.959236
       1.640000      -4.537787      -0.442868       1.958848
       1.650000      -4.411362      -0.449752       1.957981
       1.660000      -4.290407      -0.457052       1.956683
       1.670000      -4.174989      -0.462519       1.955010
       1.680000      -4.065073      -0.464436       1.953029
       1.690000      -3.960492      -0.461741       1.950806
       1.700000      -3.860894      -0.453934       1.948409
       1.710000      -3.765729      -0.440926       1.945902
       1.720000      -3.674332      -0.422968       1.943350
       1.730000      -3.586100      -0.400711       1.940831
       1.740000      -3.500702      -0.375313       1.938440
       1.750000      -3.418201      -0.348477       1.936291
       1.760000      -3.339005      -0.322318       1.934506
       1.770000      -3.263643      -0.299087       1.933194
       1.780000      -3.192481      -0.280827       1.932428
       1.790000      -3.125512      -0.269118       1.932229
       1.800000      -3.062365      -0.264988       1.932555
       1.810000      -3.002522      -0.268978       1.933305
       1.820000      -2.945652      -0.281236       1.934340
       1.830000      -2.891849      -0.301489       1.935504
       1.840000      -2.841647      -0.328861       1.936644
       1.850000      -2.795808      -0.361611       1.937638
       1.860000      -2.755008      -0.397034       1.938409
       1.870000      -2.719623      -0.431658       1.938940
       1.880000      -2.689696      -0.461761       1.939273
       1.890000      -2.665082      -0.484070       1.939498
       1.900000      -2.645633      -0.496392       1.939726
       1.910000      -2.631275      -0.497981       1.940056
       1.920000      -2.621980      -0.489579       1.940552
       1.930000      -2.617695      -0.473154       1.941241
       1.940000      -2.618376      -0.451479       1.942120
       1.950000      -2.624145      -0.427656       1.943174
       1.960000      -2.635475      -0.404637       1.944391
       1.970000      -2.653242      -0.384800       1.945765
       1.980000      -2.678619      -0.369612       1.947285
       1.990000      -2.712843      -0.359466       1.948918
       2.000000      -2.756970      -0.353756       1.950595
       2.010000      -2.811631      -0.351199       1.952207
       2.020000      -2.876785      -0.350273       1.953611
       2.030000      -2.951429      -0.349586       1.954639
       2.040000      -3.033352      -0.348036       1.955112
       2.050000      -3.119037      -0.344777       1.954851
       2.060000      -3.203811      -0.339123       1.953696
       2.070000      -3.282319      -0.330527       1.951516
       2.080000      -3.349258      -0.318690       1.948238
       2.090000      -3.400201      -0.303710       1.943863
       2.100000      -3.432267      -0.286144       1.938475
       2.110000      -3.444386      -0.266925       1.932243
       2.120000      -3.437156      -0.247136       1.925412
       2.130000      -3.412373      -0.227774       1.918290
       2.140000      -3.372498      -0.209579       1.911223
       2.150000      -3.320190      -0.193028       1.904561
       2.160000      -3.258018      -0.178420       1.898619
       2.170000      -3.188307      -0.165985       1.893631
       2.180000      -3.113082      -0.155899       1.889725
       2.190000      -3.034060      -0.148195       1.886919
       2.200000      -2.952656      -0.142628       1.885137
       2.210000      -2.870005      -0.138619       1.884242
       2.220000      -2.787009      -0.135355       1.884078
       2.230000      -2.704371      -0.132000       1.884493
       2.240000      -2.622647      -0.127892       1.885365
       2.250000      -2.542272      -0.122614       1.886606
       2.260000      -2.463571      -0.115901       1.888154
       2.270000      -2.386754      -0.107469       1.889964
       2.280000      -2.311902      -0.096875       1.891988
       2.290000      -2.238972      -0.083484       1.894171
       2.300000      -2.167816      -0.066571       1.896443
       2.310000      -2.098242      -0.045485       1.898726
       2.320000      -2.030073      -0.019814       1.900941
       2.330000      -1.963206       0.010510       1.903017
       2.340000      -1.897632       0.045197       1.904900
       2.350000      -1.833417       0.083665       1.906560
       2.360000      -1.770659       0.125138       1.907996
       2.370000      -1.709426       0.168752       1.909236
       2.380000      -1.649717       0.213620       1.910326
       2.390000      -1.591455       0.258869       1.911326
       2.400000      -1.534509       0.303644       1.912292
       2.410000      -1.478767       0.347087       1.913272
       2.420000      -1.424199       0.388321       1.914288
       2.430000      -1.370893       0.426436       1.915341
       2.440000      -1.319050       0.460509       1.916411
       2.450000      -1.268928       0.489671       1.917465
       2.460000      -1.220756       0.513214       1.918462
       2.470000      -1.174638       0.530758       1.919356
       2.480000      -1.130488       0.542417       1.920084
       2.490000      -1.088013       0.548918       1.920568
       2.500000      -1.046764       0.551602       1.920716
       2.510000      -1.006237       0.552236       1.920435
       2.520000      -0.966001       0.552688       1.919645
       2.530000      -0.925814       0.554539       1.918295
       2.540000      -0.885685       0.558781       1.916365
       2.550000      -0.845880       0.565693       1.913872
       2.560000      -0.806863       0.574918       1.910875
       2.570000      -0.769187       0.585679       1.907482
       2.580000      -0.733371       0.597068       1.903857
       2.590000      -0.699777       0.608325       1.900217
       2.600000      -0.668551       0.619054       1.896808
       2.610000      -0.639622       0.629316       1.893865
       2.620000      -0.612790       0.639592       1.891572
       2.630000      -0.587844       0.650618       1.890036
       2.640000      -0.564672       0.663156       1.889278
       2.650000      -0.543303       0.677796       1.889249
       2.660000      -0.523895       0.694835       1.889849
       2.670000      -0.506678       0.714250       1.890954
       2.680000      -0.491918       0.735745       1.892436
       2.690000      -0.479898       0.758830       1.894171
       2.700000      -0.470922       0.782922       1.896051
       2.710000      -0.465301       0.807433       1.897979
       2.720000      -0.463285       0.831867       1.899878
       2.730000      -0.464960       0.855882       1.901686
       2.740000      -0.470118       0.879325       1.903354
       2.750000      -0.478173       0.902214       1.904845
       2.760000      -0.488139       0.924676       1.906123
       2.770000      -0.498673       0.946850       1.907162
       2.780000      -0.508209       0.968809       1.907949
       2.790000      -0.515161       0.990523       1.908494
       2.800000      -0.518165       1.011865       1.908842
       2.810000      -0.516288       1.032670       1.909062
       2.820000      -0.509148       1.052807       1.909245
       2.830000      -0.496893       1.072230       1.909475
       2.840000      -0.480085       1.091002       1.909816
       2.850000      -0.459519       1.109255       1.910303
       2.860000      -0.436055       1.127111       1.910945
       2.870000      -0.410492       1.144608       1.911736
       2.880000      -0.383485       1.161651       1.912671
       2.890000      -0.355510       1.178038       1.913756
       2.900000      -0.326854       1.193527       1.915006
       2.910000      -0.297627       1.207923       1.916443
       2.920000      -0.267799       1.221145       1.918082
       2.930000      -0.237259       1.233250       1.919914
       2.940000      -0.205883       1.244410       1.921902
       2.950000      -0.173592       1.254859       1.923978
       2.960000      -0.140387       1.264864       1.926047
       2.970000      -0.106344       1.274700       1.927995
       2.980000      -0.071597       1.284660       1.929706
       2.990000      -0.036311       1.295028       1.931077
       3.000000      -0.000664       1.306042       1.932023
       3.010000       0.035169       1.317832       1.932489
       3.020000       0.071018       1.330389       1.932446
       3.030000       0.106721       1.343593       1.931885
       3.040000       0.142128       1.357281       1.930811
       3.050000       0.177104       1.371350       1.929239
       3.060000       0.211536       1.385819       1.927209
       3.070000       0.245338       1.400835       1.924792
       3.080000       0.278451       1.416615       1.922101
       3.090000       0.310854       1.433347       1.919287
       3.100000       0.342557       1.451120       1.916528
       3.110000       0.373604       1.469890       1.914008
       3.120000       0.404071       1.489515       1.911889
       3.130000       0.434066       1.509810       1.910298
       3.140000       0.463718       1.530604       1.909316
       3.150000       0.493163       1.551770       1.908969
       3.160000       0.522525       1.573236       1.909247
       3.170000       0.551896       1.594971       1.910106
       3.180000       0.581330       1.616985       1.911489
       3.190000       0.610848       1.639316       1.913334
       3.200000       0.640443       1.662022       1.915579
       3.210000       0.670090       1.685156       1.918161
       3.220000       0.699743       1.708745       1.921008
       3.230000       0.729339       1.732777       1.924039
       3.240000       0.758802       1.757201       1.927161
       3.250000       0.788048       1.781941       1.930272
       3.260000       0.816997       1.806895       1.933265
       3.270000       0.845574       1.831919       1.936039
       3.280000       0.873711       1.856796       1.938507
       3.290000       0.901337       1.881195       1.940603
       3.300000       0.928378       1.904666       1.942292
       3.310000       0.954770       1.926655       1.943568
       3.320000       0.980483       1.946575       1.944450
       3.330000       1.005543       1.963897       1.944977
       3.340000       1.030048       1.978261       1.945207
       3.350000       1.054156       1.989587       1.945211
       3.360000       1.078058       1.998137       1.945088
       3.370000       1.101920       2.004518       1.944954
       3.380000       1.125843       2.009609       1.944938
       3.390000       1.149826       2.014410       1.945158
       3.400000       1.173760       2.019853       1.945695
       3.410000       1.197446       2.026618       1.946580
       3.420000       1.220635       2.034995       1.947789
       3.430000       1.243078       2.044825       1.949258
       3.440000       1.264571       2.055543       1.950901
       3.450000       1.284979       2.066295       1.952635
       3.460000       1.304233       2.076099       1.954389
       3.470000       1.322315       2.084006       1.956115
       3.480000       1.339243       2.089216       1.957780
       3.490000       1.355077       2.091122       1.959354
       3.500000       1.369953       2.089299       1.960807
       3.510000       1.384116       2.083464       1.962102
       3.520000       1.397943       2.073433       1.963205
       3.530000       1.411935       2.059108       1.964088
       3.540000       1.426663       2.040451       1.964739
       3.550000       1.442684       2.017474       1.965160
       3.560000       1.460457       1.990240       1.965370
       3.570000       1.480272       1.958907       1.965400
       3.580000       1.502244       1.923823       1.965301
       3.590000       1.526332       1.885630       1.965136
       3.600000       1.552404       1.845348       1.964989
       3.610000       1.580283       1.804393       1.964949
       3.620000       1.609786       1.764535       1.965101
       3.630000       1.640736       1.727748       1.965517
       3.640000       1.672969       1.695962       1.966238
       3.650000       1.706326       1.670755       1.967279
       3.660000       1.740664       1.653083       1.968620
       3.670000       1.775856       1.643138       1.970220
       3.680000       1.811795       1.640409       1.972023
       3.690000       1.848398       1.643885       1.973967
       3.700000       1.885605       1.652348       1.975991
       3.710000       1.923389       1.664632       1.978034
       3.720000       1.961761       1.679804       1.980042
       3.730000       2.000774       1.697217       1.981964
       3.740000       2.040513       1.716463       1.983756
       3.750000       2.081066       1.737264       1.985387
       3.760000       2.122498       1.759356       1.986840
       3.770000       2.164815       1.782424       1.988117
       3.780000       2.207948       1.806076       1.989232
       3.790000       2.251747       1.829868       1.990213
       3.800000       2.295981       1.853352       1.991099
       3.810000       2.340352       1.876127       1.991938
       3.820000       2.384505       1.897875       1.992782
       3.830000       2.428036       1.918368       1.993694
       3.840000       2.470493       1.937462       1.994738
       3.850000       2.511379       1.955073       1.995980
       3.860000       2.550164       1.971166       1.997484
       3.870000       2.586320       1.985752       1.999297
       3.880000       2.619383       1.998923       2.001446
       3.890000       2.649027       2.010878       2.003932
       3.900000       2.675128       2.021931       2.006729
       3.910000       2.697787       2.032469       2.009794
       3.920000       2.717297       2.042883       2.013068
       3.930000       2.734067       2.053473       2.016482
       3.940000       2.748537       2.064381       2.019960
       3.950000       2.761117       2.075550       2.023422
       3.960000       2.772147       2.086749       2.026785
       3.970000       2.781889       2.097639       2.029966
       3.980000       2.790516       2.107893       2.032887
       3.990000       2.798050       2.117309       2.035480
       4.000000       2.804240       2.125913       2.037689
       4.010000       2.808389       2.133999       2.039480
       4.020000       2.809219       2.142110       2.040852
       4.030000       2.804864       2.150949       2.041840
       4.040000       2.793042       2.161239       2.042516
       4.050000       2.771433       2.173576       2.042974
       4.060000       2.738174       2.188326       2.043307
       4.070000       2.692390       2.205588       2.043584
       4.080000       2.634587       2.225198       2.043831
       4.090000       2.566777       2.246773       2.044034
       4.100000       2.492249       2.269752       2.044157
       4.110000       2.415034       2.293447       2.044170
       4.120000       2.339243       2.317103       2.044071
       4.130000       2.268487       2.339986       2.043900
       4.140000       2.205566       2.361484       2.043728
       4.150000       2.152408       2.381191       2.043635
       4.160000       2.110182       2.398982       2.043685
       4.170000       2.079421       2.415033       2.043903
       4.180000       2.060075       2.429812       2.044275
       4.190000       2.051509       2.444017       2.044747
       4.200000       2.052511       2.458461       2.045245
       4.210000       2.061385       2.473914       2.045684
       4.220000       2.076134       2.490929       2.045984
       4.230000       2.094672       2.509699       2.046080
       4.240000       2.115016       2.529983       2.045928
       4.250000       2.135386       2.551114       2.045520
       4.260000       2.154236       2.572076       2.044889
       4.270000       2.170208       2.591615       2.044113
       4.280000       2.182062       2.608357       2.043300
       4.290000       2.188552       2.620950       2.042565
       4.300000       2.188313       2.628200       2.041998
       4.310000       2.179796       2.629224       2.041644
       4.320000       2.161368       2.623584       2.041491
       4.330000       2.131622       2.611348       2.041482
       4.340000       2.089866       2.593043       2.041534
       4.350000       2.036617       2.569500       2.041554
       4.360000       1.973877       2.541648       2.041457
       4.370000       1.904977       2.510342       2.041168
       4.380000       1.833960       2.476246       2.040629
       4.390000       1.764700       2.439756       2.039802
       4.400000       1.700107       2.400929       2.038680
       4.410000       1.641726       2.359436       2.037286
       4.420000       1.589813       2.314651       2.035682
       4.430000       1.543804       2.265925       2.033958
       4.440000       1.502885       2.212983       2.032227
       4.450000       1.466440       2.156273       2.030606
       4.460000       1.434209       2.097051       2.029214
       4.470000       1.406193       2.037119       2.028157
       4.480000       1.382429       1.978309       2.027517
       4.490000       1.362789       1.921962       2.027336
       4.500000       1.346908       1.868624       2.027604
       4.510000       1.334201       1.818039       2.028250
       4.520000       1.323907       1.769374       2.029162
       4.530000       1.315116       1.721561       2.030207
       4.540000       1.306828       1.673662       2.031259
       4.550000       1.298086       1.625215       2.032223
       4.560000       1.288201       1.576506       2.033036
       4.570000       1.276989       1.528706       2.033663
       4.580000       1.264853       1.483785       2.034078
       4.590000       1.252674       1.444213       2.034247
       4.600000       1.241496       1.412484       2.034114
       4.610000       1.232168       1.390627       2.033598
       4.620000       1.225090       1.379823       2.032612
       4.630000       1.220125       1.380245       2.031084
       4.640000       1.216678       1.391133       2.028986
       4.650000       1.213866       1.411028       2.026362
       4.660000       1.210727       1.438074       2.023320
       4.670000       1.206422       1.470302       2.020022
       4.680000       1.200407       1.505829       2.016654
       4.690000       1.192560       1.542968       2.013405
       4.700000       1.183236       1.580252       2.010444
       4.710000       1.173251       1.616400       2.007912
       4.720000       1.163779       1.650259       2.005918
       4.730000       1.156190       1.680742       2.004531
       4.740000       1.151838       1.706787       2.003781
       4.750000       1.151910       1.727368       2.003665
       4.760000       1.157336       1.741574       2.004158
       4.770000       1.168788       1.748770       2.005223
       4.780000       1.186656       1.748787       2.006815
       4.790000       1.210974       1.742061       2.008886
       4.800000       1.241306       1.729647       2.011374
       4.810000       1.276650       1.713049       2.014201
       4.820000       1.315422       1.693922       2.017264
       4.830000       1.355533       1.673736       2.020440
       4.840000       1.394521       1.653520       2.023582
       4.850000       1.429724       1.633786       2.026527
       4.860000       1.458471       1.614622       2.029111
       4.870000       1.478279       1.595896       2.031188
       4.880000       1.487061       1.577471       2.032652
       4.890000       1.483322       1.559353       2.033457
       4.900000       1.466367       1.541740       2.033628
       4.910000       1.436486       1.524978       2.033260
       4.920000       1.395081       1.509441       2.032504
       4.930000       1.344626       1.495392       2.031546
       4.940000       1.288407       1.482836       2.030581
       4.950000       1.230060       1.471452       2.029794
       4.960000       1.173057       1.460612       2.029341
       4.970000       1.120303       1.449513       2.029347
       4.980000       1.073956       1.437363       2.029899
       4.990000       1.035449       1.423577       2.031045
       5.000000       1.005614       1.407917       2.032802
       5.010000       0.984821       1.390558       2.035152
       5.020000       0.973055       1.372091       2.038055
       5.030000       0.969954       1.353506       2.041453
       5.040000       0.974822       1.336130       2.045281
       5.050000       0.986658       1.321516       2.049466
       5.060000       1.004232       1.311224       2.053930
       5.070000       1.026220       1.306550       2.058594
       5.080000       1.051365       1.308280       2.063375
       5.090000       1.078640       1.316561       2.068196
       5.100000       1.107331       1.330955       2.072984
       5.110000       1.137030       1.350605       2.077677
       5.120000       1.167523       1.374453       2.082220
       5.130000       1.198636       1.401409       2.086568
       5.140000       1.230056       1.430441       2.090679
       5.150000       1.261185       1.460592       2.094514
       5.160000       1.291042       1.490939       2.098028
       5.170000       1.318282       1.520547       2.101167
       5.180000       1.341330       1.548455       2.103871
       5.190000       1.358637       1.573715       2.106078
       5.200000       1.368993       1.595501       2.107740
       5.210000       1.371814       1.613230       2.108834
       5.220000       1.367285       1.626663       2.109370
       5.230000       1.356314       1.635922       2.109394
       5.240000       1.340293       1.641394       2.108981
       5.250000       1.320755       1.643559       2.108217
       5.260000       1.299060       1.642802       2.107185
       5.270000       1.276212       1.639277       2.105953
       5.280000       1.252825       1.632865       2.104576
       5.290000       1.229211       1.623261       2.103106
       5.300000       1.205545       1.610150       2.101609
       5.310000       1.182057       1.593450       2.100180
       5.320000       1.159184       1.573503       2.098944
       5.330000       1.137634       1.551145       2.098045
       5.340000       1.118307       1.527588       2.097621
       5.350000       1.102115       1.504182       2.097789
       5.360000       1.089757       1.482145       2.098624
       5.370000       1.081575       1.462368       2.100159
       5.380000       1.077544       1.445340       2.102393
       5.390000       1.077372       1.431181       2.105294
       5.400000       1.080689       1.419733       2.108814
       5.410000       1.087234       1.410662       2.112889
       5.420000       1.096985       1.403544       2.117445
       5.430000       1.110174       1.397929       2.122397
       5.440000       1.127176       1.393372       2.127660
       5.450000       1.148314       1.389427       2.133146
       5.460000       1.173676       1.385623       2.138773
       5.470000       1.203014       1.381441       2.144471
       5.480000       1.235720       1.376327       2.150177
       5.490000       1.270846       1.369752       2.155841
       5.500000       1.307142       1.361327       2.161421
       5.510000       1.343109       1.350928       2.166880
       5.520000       1.377097       1.338783       2.172187
       5.530000       1.407457       1.325456       2.177307
       5.540000       1.432722       1.311728       2.182200
       5.550000       1.451761       1.298402       2.186827
       5.560000       1.463889       1.286083       2.191152
       5.570000       1.468874       1.275025       2.195147
       5.580000       1.466896       1.265095       2.198801
       5.590000       1.458478       1.255889       2.202115
       5.600000       1.444472       1.246929       2.205105
       5.610000       1.426085       1.237908       2.207794
       5.620000       1.404909       1.228851       2.210218
       5.630000       1.382852       1.220143       2.212417
       5.640000       1.361935       1.212396       2.214435
       5.650000       1.343962       1.206198       2.216304
       5.660000       1.330163       1.201876       2.218038
       5.670000       1.320931       1.199357       2.219625
       5.680000       1.315731       1.198177       2.221026
       5.690000       1.313225       1.197629       2.222177
       5.700000       1.311574       1.196952       2.223001
       5.710000       1.308846       1.195518       2.223419
       5.720000       1.303398       1.192956       2.223375
       5.730000       1.294178       1.189204       2.222854
       5.740000       1.280864       1.184498       2.221893
       5.750000       1.263868       1.179300       2.220589
       5.760000       1.244244       1.174197       2.219082
       5.770000       1.223503       1.169820       2.217544
       5.780000       1.203366       1.166789       2.216146
       5.790000       1.185465       1.165690       2.215047
       5.800000       1.171054       1.167068       2.214370
       5.810000       1.160816       1.171404       2.214201
       5.820000       1.154844       1.179061       2.214588
       5.830000       1.152773       1.190215       2.215549
       5.840000       1.153995       1.204798       2.217078
       5.850000       1.157842       1.222491       2.219153
       5.860000       1.163670       1.242755       2.221742
       5.870000       1.170830       1.264902       2.224809
       5.880000       1.178604       1.288158       2.228321
       5.890000       1.186200       1.311711       2.232240
       5.900000       1.192849       1.334738       2.236526
       5.910000       1.197957       1.356447       2.241126
       5.920000       1.201258       1.376134       2.245966
       5.930000       1.202866       1.393279       2.250953
       5.940000       1.203207       1.407647       2.255974
       5.950000       1.202838       1.419361       2.260907
       5.960000       1.202214       1.428889       2.265624
       5.970000       1.201477       1.436932       2.270005
       5.980000       1.200368       1.444247       2.273941
       5.990000       1.198316       1.451464       2.277354
       6.000000       1.194685       1.458961       2.280205
       6.010000       1.189083       1.466823       2.282515
       6.020000       1.181551       1.474883       2.284372
       6.030000       1.172546       1.482797       2.285925
       6.040000       1.162685       1.490118       2.287365
       6.050000       1.152414       1.496383       2.288888
       6.060000       1.141768       1.501228       2.290657
       6.070000       1.130360       1.504522       2.292772
       6.080000       1.117596       1.506500       2.295256
       6.090000       1.102986       1.507784       2.298063
       6.100000       1.086390       1.509281       2.301091
       6.110000       1.068074       1.511943       2.304201
       6.120000       1.048597       1.516502       2.307239
       6.130000       1.028634       1.523289       2.310051
       6.140000       1.008873       1.532202       2.312499
       6.150000       0.990023       1.542818       2.314485
       6.160000       0.972879       1.554552       2.315963
       6.170000       0.958326       1.566792       2.316961
       6.180000       0.947226       1.578931       2.317571
       6.190000       0.940249       1.590332       2.317941
       6.200000       0.937743       1.600244       2.318245
       6.210000       0.939716       1.607771       2.318655
       6.220000       0.945911       1.611908       2.319311
       6.230000       0.955907       1.611662       2.320308
       6.240000       0.969190       1.606220       2.321690
       6.250000       0.985173       1.595123       2.323451
       6.260000       1.003202       1.578392       2.325539
       6.270000       1.022584       1.556596       2.327859
       6.280000       1.042655       1.530833       2.330289
       6.290000       1.062843       1.502647       2.332694
       6.300000       1.082722       1.473844       2.334945
       6.310000       1.102009       1.446249       2.336944
       6.320000       1.120535       1.421427       2.338638
       6.330000       1.138211       1.400466       2.340046
       6.340000       1.155015       1.383860       2.341260
       6.350000       1.170988       1.371536       2.342442
       6.360000       1.186237       1.362977       2.343797
       6.370000       1.200941       1.357413       2.345533
       6.380000       1.215363       1.354035       2.347827
       6.390000       1.229868       1.352213       2.350791
       6.400000       1.244885       1.351644       2.354458
       6.410000       1.260779       1.352402       2.358787
       6.420000       1.277673       1.354837       2.363675
       6.430000       1.295303       1.359380       2.368982
       6.440000       1.313007       1.366318       2.374561
       6.450000       1.329906       1.375668       2.380274
       6.460000       1.345205       1.387185       2.386013
       6.470000       1.358507       1.400484       2.391697
       6.480000       1.370008       1.415185       2.397277
       6.490000       1.380482       1.431006       2.402729
       6.500000       1.391058       1.447744       2.408040
       6.510000       1.402870       1.465160       2.413204
       6.520000       1.416736       1.482836       2.418207
       6.530000       1.432951       1.500069       2.423022
       6.540000       1.451248       1.515878       2.427605
       6.550000       1.470850       1.529104       2.431888
       6.560000       1.490588       1.538595       2.435787
       6.570000       1.509018       1.543395       2.439215
       6.580000       1.524553       1.542893       2.442095
       6.590000       1.535641       1.536889       2.444390
       6.600000       1.540972       1.525588       2.446115
       6.610000       1.539717       1.509551       2.447355
       6.620000       1.531708       1.489635       2.448252
       6.630000       1.517481       1.466929       2.448988
       6.640000       1.498145       1.442667       2.449754
       6.650000       1.475092       1.418148       2.450720
       6.660000       1.449689       1.394687       2.452020
       6.670000       1.423047       1.373609       2.453746
       6.680000       1.395932       1.356237       2.455953
       6.690000       1.368784       1.343798       2.458673
       6.700000       1.341839       1.337239       2.461921
       6.710000       1.315298       1.337026       2.465704
       6.720000       1.289516       1.343042       2.470018
       6.730000       1.265138       1.354643       2.474838
       6.740000       1.243093       1.370837       2.480111
       6.750000       1.224434       1.390518       2.485751
       6.760000       1.210056       1.412649       2.491650
       6.770000       1.200427       1.436349       2.497687
       6.780000       1.195408       1.460865       2.503746
       6.790000       1.194248       1.485489       2.509730
       6.800000       1.195732       1.509478       2.515567
       6.810000       1.198426       1.532055       2.521218
       6.820000       1.200936       1.552515       2.526683
       6.830000       1.202080       1.570389       2.531999
       6.840000       1.200938       1.585616       2.537230
       6.850000       1.196792       1.598645       2.542449
       6.860000       1.189044       1.610408       2.547712
       6.870000       1.177163       1.622170       2.553037
       6.880000       1.160728       1.635274       2.558405
       6.890000       1.139563       1.650874       2.563763
       6.900000       1.113927       1.669726       2.569039
       6.910000       1.084671       1.692092       2.574156
       6.920000       1.053241       1.717764       2.579034
       6.930000       1.021446       1.746164       2.583601
       6.940000       0.991047       1.776459       2.587802
       6.950000       0.963303       1.807655       2.591619
       6.960000       0.938680       1.838640       2.595086
       6.970000       0.916858       1.868199       2.598306
       6.980000       0.897017       1.895010       2.601442
       6.990000       0.878308       1.917664       2.604704
       7.000000       0.860272       1.934720       2.608311
       7.010000       0.843052       1.944795       2.612455
       7.020000       0.827271       1.946689       2.617268
       7.030000       0.813657       1.939510       2.622804
       7.040000       0.802617       1.922782       2.629036
       7.050000       0.793979       1.896509       2.635880
       7.060000       0.787043       1.861215       2.643223
       7.070000       0.780877       1.817947       2.650958
       7.080000       0.774699       1.768260       2.658999
       7.090000       0.768156       1.714123       2.667292
       7.100000       0.761387       1.657733       2.675811
       7.110000       0.754876       1.601249       2.684542
       7.120000       0.749176       1.546547       2.693478
       7.130000       0.744614       1.495053       2.702612
       7.140000       0.741111       1.447686       2.711945
       7.150000       0.738146       1.404906       2.721484
       7.160000       0.734907       1.366845       2.731244
       7.170000       0.730551       1.333520       2.741237
       7.180000       0.724484       1.305069       2.751457
       7.190000       0.716558       1.281898       2.761880
       7.200000       0.707100       1.264673       2.772453
       7.210000       0.696775       1.254124       2.783114
       7.220000       0.686339       1.250763       2.793800
       7.230000       0.676397       1.254638       2.804462
       7.240000       0.667276       1.265230       2.815070
       7.250000       0.659065       1.281540       2.825617
       7.260000       0.651763       1.302272       2.836114
       7.270000       0.645462       1.326069       2.846589
       7.280000       0.640441       1.351700       2.857077
       7.290000       0.637149       1.378177       2.867617
       7.300000       0.636081       1.404809       2.878241
       7.310000       0.637608       1.431169       2.888971
       7.320000       0.641827       1.457005       2.899807
       7.330000       0.648494       1.482119       2.910727
       7.340000       0.657029       1.506263       2.921683
       7.350000       0.666616       1.529090       2.932603
       7.360000       0.676317       1.550173       2.943402
       7.370000       0.685202       1.569057       2.953994
       7.380000       0.692465       1.585334       2.964319
       7.390000       0.697541       1.598705       2.974356
       7.400000       0.700184       1.609031       2.984133
       7.410000       0.700476       1.616340       2.993708
       7.420000       0.698717       1.620793       3.003131
       7.430000       0.695232       1.622609       3.012412
       7.440000       0.690151       1.622007       3.021493
       7.450000       0.683272       1.619176       3.030248
       7.460000       0.674050       1.614274       3.038513
       7.470000       0.661717       1.607429       3.046121
       7.480000       0.645512       1.598738       3.052937
       7.490000       0.624947       1.588277       3.058879
       7.500000       0.600020       1.576118       3.063920
       7.510000       0.571272       1.562330       3.068086
       7.520000       0.539650       1.546932       3.071456
       7.530000       0.506233       1.529824       3.074158
       7.540000       0.471901       1.510733       3.076360
       7.550000       0.437080       1.489208       3.078249
       7.560000       0.401582       1.464686       3.080000
       7.570000       0.364620       1.436602       3.081750
       7.580000       0.324970       1.404557       3.083586
       7.590000       0.281280       1.368478       3.085563
       7.600000       0.232438       1.328741       3.087725
       7.610000       0.177926       1.286180       3.090128
       7.620000       0.118052       1.241964       3.092843
       7.630000       0.054013       1.197345       3.095933
       7.640000      -0.012264       1.153355       3.099429
       7.650000      -0.078469       1.110536       3.103301
       7.660000      -0.142371       1.068794       3.107455
       7.670000      -0.202226       1.027460       3.111740
       7.680000      -0.256997       0.985553       3.115962
       7.690000      -0.306319       0.942162       3.119902
       7.700000      -0.350256       0.896816       3.123328
       7.710000      -0.388971       0.849732       3.126015
       7.720000      -0.422442       0.801882       3.127763
       7.730000      -0.450316       0.754885       3.128416
       7.740000      -0.471931       0.710766       3.127883
       7.750000      -0.486509       0.671600       3.126154
       7.760000      -0.493439       0.639098       3.123308
       7.770000      -0.492545       0.614247       3.119498
       7.780000      -0.484231       0.597119       3.114921
       7.790000      -0.469451       0.586916       3.109761
       7.800000      -0.449527       0.582219       3.104126
       7.810000      -0.425929       0.581327       3.097995
       7.820000      -0.400099       0.582551       3.091194
       7.830000      -0.373376       0.584379       3.083420
       7.840000      -0.347008       0.585517       3.074307
       7.850000      -0.322177       0.584861       3.063516
       7.860000      -0.299996       0.581470       3.050822
       7.870000      -0.281446       0.574574       3.036194
       7.880000      -0.267286       0.563638       3.019832
       7.890000      -0.257949       0.548465       3.002187
       7.900000      -0.253465       0.529318       2.983926
       7.910000      -0.253423       0.507012       2.965875
       7.920000      -0.256995       0.482925       2.948921
       7.930000      -0.263044       0.458865       2.933911
       7.940000      -0.270305       0.436800       2.921564
       7.950000      -0.277622       0.418517       2.912414
       7.960000      -0.284168       0.405318       2.906801
       7.970000      -0.289600       0.397835       2.904866
       7.980000      -0.294079       0.395995       2.906565
       7.990000      -0.298135       0.399117       2.911670
       8.000000      -0.302427       0.406102       2.919792
       8.010000      -0.307484       0.415673       2.930431
       8.020000      -0.313527       0.426601       2.943047
       8.030000      -0.320419       0.437890       2.957130
       8.040000      -0.327700       0.448888       2.972248
       8.050000      -0.334663       0.459330       2.988076
       8.060000      -0.340410       0.469317       3.004413
       8.070000      -0.343920       0.479263       3.021190
       8.080000      -0.344125       0.489802       3.038458
       8.090000      -0.340056       0.501666       3.056337
       8.100000      -0.331012       0.515536       3.074927
       8.110000      -0.316698       0.531902       3.094197
       8.120000      -0.297286       0.550954       3.113913
       8.130000      -0.273372       0.572544       3.133629
       8.140000      -0.245860       0.596198       3.152744
       8.150000      -0.215823       0.621182       3.170608
       8.160000      -0.184388       0.646574       3.186623
       8.170000      -0.152661       0.671346       3.200338
       8.180000      -0.121679       0.694430       3.211504
       8.190000      -0.092369       0.714785       3.220084
       8.200000      -0.065506       0.731486       3.226231
       8.210000      -0.041645       0.743831       3.230215
       8.220000      -0.021052       0.751467       3.232329
       8.230000      -0.003672       0.754498       3.232798
       8.240000       0.010863       0.753510       3.231729
       8.250000       0.023145       0.749507       3.229117
       8.260000       0.033858       0.743732       3.224905
       8.270000       0.043618       0.737433       3.219069
       8.280000       0.052846       0.731641       3.211687
       8.290000       0.061698       0.727038       3.202964
       8.300000       0.070086       0.723943       3.193223
       8.310000       0.077766       0.722410       3.182856
       8.320000       0.084468       0.722388       3.172268
       8.330000       0.090018       0.723865       3.161830
       8.340000       0.094411       0.726952       3.151854
       8.350000       0.097827       0.731880       3.142597
       8.360000       0.100596       0.738928       3.134253
       8.370000       0.103122       0.748333       3.126939
       8.380000       0.105807       0.760212       3.120656
       8.390000       0.108967       0.774520       3.115262
       8.400000       0.112787       0.791040       3.110480
       8.410000       0.117312       0.809407       3.105955
       8.420000       0.122488       0.829148       3.101370
       8.430000       0.128212       0.849736       3.096588
       8.440000       0.134370       0.870645       3.091783
       8.450000       0.140831       0.891394       3.087523
       8.460000       0.147415       0.911591       3.084742
       8.470000       0.153872       0.930967       3.084624
       8.480000       0.159888       0.949401       3.088411
       8.490000       0.165149       0.966938       3.097210
       8.500000       0.169437       0.983799       3.111856
       8.510000       0.172729       1.000351       3.132837
       8.520000       0.175254       1.017059       3.160282
       8.530000       0.177470       1.034397       3.193988
       8.540000       0.179973       1.052751       3.233471
       8.550000       0.183372       1.072336       3.278031
       8.560000       0.188178       1.093153       3.326826
       8.570000       0.194753       1.114969       3.378936
       8.580000       0.203292       1.137320       3.433432
       8.590000       0.213824       1.159519       3.489431
       8.600000       0.226207       1.180682       3.546143
       8.610000       0.240126       1.199767       3.602895
       8.620000       0.255110       1.215647       3.659113
       8.630000       0.270590       1.227221       3.714251
       8.640000       0.285971       1.233565       3.767689
       8.650000       0.300715       1.234096       3.818622
       8.660000       0.314401       1.228727       3.866001
       8.670000       0.326750       1.217933       3.908531
       8.680000       0.337620       1.202705       3.944728
       8.690000       0.346978       1.184375       3.973025
       8.700000       0.354883       1.164391       3.991876
       8.710000       0.361490       1.144116       3.999886
       8.720000       0.367077       1.124724       3.995916
       8.730000       0.372066       1.107185       3.979173
       8.740000       0.377013       1.092294       3.949247
       8.750000       0.382554       1.080700       3.906064
       8.760000       0.389316       1.072908       3.849780
       8.770000       0.397820       1.069278       3.780670
       8.780000       0.408407       1.070017       3.699069
       8.790000       0.421204       1.075176       3.605409
       8.800000       0.436127       1.084656       3.500333
       8.810000       0.452930       1.098211       3.384824
       8.820000       0.471252       1.115473       3.260288
       8.830000       0.490681       1.135984       3.128564
       8.840000       0.510795       1.159238       2.991864
       8.850000       0.531195       1.184715       2.852657
       8.860000       0.551527       1.211908       2.713522
       8.870000       0.571487       1.240339       2.576991
       8.880000       0.590825       1.269571       2.445388
       8.890000       0.609359       1.299219       2.320668
       8.900000       0.627012       1.328977       2.204261
       8.910000       0.643847       1.358641       2.096952
       8.920000       0.660093       1.388125       1.998817
       8.930000       0.676120       1.417463       1.909279
       8.940000       0.692381       1.446783       1.827274
       8.950000       0.709318       1.476256       1.751494
       8.960000       0.727277       1.506053       1.680624
       8.970000       0.746454       1.536302       1.613504
       8.980000       0.766874       1.567067       1.549187
       8.990000       0.788406       1.598342       1.486954
       9.000000       0.810810       1.630037       1.426347
       9.010000       0.833799       1.661965       1.367227
       9.020000       0.857121       1.693830       1.309804
       9.030000       0.880621       1.725219       1.254594
       9.040000       0.904294       1.755618       1.202245
       9.050000       0.928277       1.784435       1.153312
       9.060000       0.952797       1.811046       1.108076
       9.070000       0.978072       1.834847       1.066487
       9.080000       1.004227       1.855330       1.028281
       9.090000       1.031239       1.872154       0.993171
       9.100000       1.058940       1.885194       0.961037
       9.110000       1.087056       1.894530       0.931996
       9.120000       1.115281       1.900370       0.906376
       9.130000       1.143333       1.902932       0.884607
       9.140000       1.170996       1.902321       0.867121
       9.150000       1.198130       1.898454       0.854267
       9.160000       1.224632       1.891049       0.846243
       9.170000       1.250380       1.879689       0.843055
       9.180000       1.275169       1.863936       0.844492
       9.190000       1.298669       1.843497       0.850151
       9.200000       1.320424       1.818379       0.859499
       9.210000       1.339875       1.789005       0.871950
       9.220000       1.356407       1.756229       0.886930
       9.230000       1.369403       1.721262       0.903906
       9.240000       1.378295       1.685547       0.922391
       9.250000       1.382621       1.650631       0.941941
       9.260000       1.382060       1.618039       0.962160
       9.270000       1.376452       1.589123       0.982716
       9.280000       1.365772       1.564889       1.003347
       9.290000       1.350074       1.545862       1.023817
       9.300000       1.329397       1.532052       1.043840
       9.310000       1.303666       1.523084       1.062977
       9.320000       1.272616       1.518437       1.080593
       9.330000       1.235773       1.517702       1.095911
       9.340000       1.192536       1.520725       1.108179
       9.350000       1.142328       1.527613       1.116896
       9.360000       1.084818       1.538584       1.122025
       9.370000       1.020125       1.553754       1.124098
       9.380000       0.948968       1.572939       1.124164
       9.390000       0.872705       1.595518       1.123597
       9.400000       0.793241       1.620393       1.123828
       9.410000       0.712841       1.646012       1.126079
       9.420000       0.633911       1.670454       1.131200
       9.430000       0.558820       1.691536       1.139625
       9.440000       0.489767       1.706941       1.151424
       9.450000       0.428668       1.714370       1.166409
       9.460000       0.377018       1.711717       1.184225
       9.470000       0.335732       1.697258       1.204398
       9.480000       0.305033       1.669874       1.226351
       9.490000       0.284442       1.629267       1.249432
       9.500000       0.272933       1.576148       1.272971
       9.510000       0.269184       1.512341       1.296373
       9.520000       0.271857       1.440744       1.319220
       9.530000       0.279797       1.365094       1.341328
       9.540000       0.292083       1.289549       1.362745
       9.550000       0.307943       1.218128       1.383686
       9.560000       0.326600       1.154163       1.404457
       9.570000       0.347133       1.099881       1.425371
       9.580000       0.368412       1.056251       1.446692
       9.590000       0.389105       1.023097       1.468589
       9.600000       0.407733       0.999374       1.491099
       9.610000       0.422754       0.983463       1.514106
       9.620000       0.432652       0.973368       1.537338
       9.630000       0.436054       0.966803       1.560383
       9.640000       0.431867       0.961235       1.582747
       9.650000       0.419433       0.953967       1.603910
       9.660000       0.398688       0.942321       1.623396
       9.670000       0.370279       0.923910       1.640808
       9.680000       0.335604       0.896972       1.655877
       9.690000       0.296727       0.860681       1.668480
       9.700000       0.256161       0.815345       1.678670
       9.710000       0.216541       0.762365       1.686670
       9.720000       0.180273       0.703936       1.692844
       9.730000       0.149221       0.642561       1.697639
       9.740000       0.124516       0.580563       1.701509
       9.750000       0.106501       0.519758       1.704844
       9.760000       0.094820       0.461392       1.707911
       9.770000       0.088615       0.406290       1.710810
       9.780000       0.086785       0.355123       1.713429
       9.790000       0.088234       0.308636       1.715440
       9.800000       0.092058       0.267765       1.716326
       9.810000       0.097633       0.233603       1.715469
       9.820000       0.104608       0.207238       1.712282
       9.830000       0.112823       0.189505       1.706321
       9.840000       0.122204       0.180741       1.697347
       9.850000       0.132676       0.180621       1.685307
       9.860000       0.144120       0.188139       1.670279
       9.870000       0.156371       0.201744       1.652420
       9.880000       0.169238       0.219553       1.631965
       9.890000       0.182531       0.239565       1.609250
       9.900000       0.196069       0.259801       1.584729
       9.910000       0.209687       0.278368       1.558965
       9.920000       0.223234       0.293470       1.532551
       9.930000       0.236592       0.303416       1.506007
       9.940000       0.249681       0.306673       1.479692
       9.950000       0.262467       0.301983       1.453754
       9.960000       0.274955       0.288555       1.428158
       9.970000       0.287199       0.266309       1.402753
       9.980000       0.299298       0.236101       1.377345
       9.990000       0.311408       0.199811       1.351716
      10.000000       0.323728       0.160179       1.325609
      10.010000       0.336467       0.120362       1.298682
      10.020000       0.349796       0.083326       1.270485
      10.030000       0.363798       0.051293       1.240473
      10.040000       0.378428       0.025430       1.208074
      10.050000       0.393499       0.005841       1.172815
      10.060000       0.408676      -0.008204       1.134461
      10.070000       0.423473      -0.017923       1.093153
      10.080000       0.437250      -0.024673       1.049468
      10.090000       0.449210      -0.029648       1.004383
      10.100000       0.458417      -0.033669       0.959124
      10.110000       0.463839      -0.037095       0.914970
      10.120000       0.464465      -0.039852       0.873067
      10.130000       0.459467      -0.041578       0.834306
      10.140000       0.448405      -0.041813       0.799276
      10.150000       0.431410      -0.040177       0.768263
      10.160000       0.409255      -0.036493       0.741278
      10.170000       0.383273      -0.030842       0.718101
      10.180000       0.355123      -0.023558       0.698321
      10.190000       0.326475      -0.015170       0.681411
      10.200000       0.298735      -0.006303       0.666794
      10.210000       0.272876       0.002448       0.653939
      10.220000       0.249412       0.010617       0.642453
      10.230000       0.228482       0.017916       0.632165
      10.240000       0.210002       0.024231       0.623153
      10.250000       0.193842       0.029556       0.615709
      10.260000       0.179964       0.033908       0.610227
      10.270000       0.168505       0.037260       0.607053
      10.280000       0.159781       0.039474       0.606364
      10.290000       0.154206       0.040300       0.608108
      10.300000       0.152179       0.039410       0.612024
      10.310000       0.153951       0.036494       0.617717
      10.320000       0.159535       0.031377       0.624754
      10.330000       0.168655       0.024115       0.632752
      10.340000       0.180762       0.015039       0.641422
      10.350000       0.195080       0.004717       0.650575
      10.360000       0.210690      -0.006111       0.660094
      10.370000       0.226642      -0.016596       0.669916
      10.380000       0.242075      -0.025823       0.680019
      10.390000       0.256342      -0.032861       0.690433
      10.400000       0.269096      -0.036836       0.701236
      10.410000       0.280318      -0.037030       0.712537
      10.420000       0.290256      -0.032967       0.724441
      10.430000       0.299294      -0.024472       0.737036
      10.440000       0.307799      -0.011668       0.750400
      10.450000       0.315994       0.005056       0.764634
      10.460000       0.323915       0.025116       0.779895
      10.470000       0.331440       0.047803       0.796408
      10.480000       0.338379       0.072373       0.814453
      10.490000       0.344566       0.098127       0.834330
      10.500000       0.349895       0.124489       0.856301
      10.510000       0.354294       0.151051       0.880517
      10.520000       0.357629       0.177578       0.906944
      10.530000       0.359617       0.203978       0.935294
      10.540000       0.359800       0.230226       0.965009
      10.550000       0.357593       0.256301       0.995286
      10.560000       0.352413       0.282139       1.025139
      10.570000       0.343834       0.307627       1.053483
      10.580000       0.331726       0.332619       1.079212
      10.590000       0.316323       0.356943       1.101289
      10.600000       0.298217       0.380384       1.118828
      10.610000       0.278258       0.402653       1.131156
      10.620000       0.257423       0.423350       1.137853
      10.630000       0.236650       0.441960       1.138760
      10.640000       0.216667       0.457887       1.133959
      10.650000       0.197836       0.470523       1.123760
      10.660000       0.180053       0.479329       1.108668
      10.670000       0.162750       0.483909       1.089357
      10.680000       0.145036       0.484071       1.066637
      10.690000       0.125930       0.479873       1.041416
      10.700000       0.104636       0.471664       1.014670
      10.710000       0.080784       0.460107       0.987379
      10.720000       0.054605       0.446173       0.960413
      10.730000       0.026973       0.431068       0.934365
      10.740000      -0.000684       0.416098       0.909386
      10.750000      -0.026614       0.402476       0.885066
      10.760000      -0.049060       0.391143       0.860427
      10.770000      -0.066594       0.382623       0.834037
      10.780000      -0.078373       0.376990       0.804223
      10.790000      -0.084240       0.373928       0.769329
      10.800000      -0.084672       0.372887       0.727982
      10.810000      -0.080594       0.373262       0.679324
      10.820000      -0.073143       0.374567       0.623167
      10.830000      -0.063457       0.376546       0.560008
      10.840000      -0.052522       0.379229       0.490913
      10.850000      -0.041111       0.382907       0.417292
      10.860000      -0.029773       0.388037       0.340646
      10.870000      -0.018864       0.395103       0.262384
      10.880000      -0.008554       0.404466       0.183732
      10.890000       0.001151       0.416252       0.105759
      10.900000       0.010388       0.430328       0.029460
      10.910000       0.019368       0.446342      -0.044135
      10.920000       0.028282       0.463816      -0.113894
      10.930000       0.037189       0.482244      -0.178588
      10.940000       0.045936       0.501177      -0.236986
      10.950000       0.054144       0.520288      -0.288020
      10.960000       0.061270       0.539395      -0.330963
      10.970000       0.066727       0.558454      -0.365561
      10.980000       0.070030       0.577519      -0.392090
      10.990000       0.070910       0.596686      -0.411312
      11.000000       0.069361       0.616040      -0.424344
      11.010000       0.065613       0.635632      -0.432466
      11.020000       0.060051       0.655467      -0.436928
      11.030000       0.053132       0.675502      -0.438783
      11.040000       0.045353       0.695644      -0.438785
      11.050000       0.037262       0.715745      -0.437358
      11.060000       0.029480       0.735614      -0.434632
      11.070000       0.022682       0.755034      -0.430532
      11.080000       0.017509       0.773798      -0.424899
      11.090000       0.014455       0.791758      -0.417605
      11.100000       0.013781       0.808866      -0.408668
      11.110000       0.015504       0.825195      -0.398315
      11.120000       0.019469       0.840931      -0.386991
      11.130000       0.025463       0.856300      -0.375302
      11.140000       0.033317       0.871479      -0.363909
      11.150000       0.042962       0.886487      -0.353426
      11.160000       0.054435       0.901113      -0.344332
      11.170000       0.067821       0.914893      -0.336929
      11.180000       0.083177       0.927154      -0.331330
      11.190000       0.100469       0.937111      -0.327455
      11.200000       0.119534       0.943994      -0.325057
      11.210000       0.140084       0.947183      -0.323754
      11.220000       0.161743       0.946308      -0.323111
      11.230000       0.184104       0.941315      -0.322721
      11.240000       0.206779       0.932465      -0.322306
      11.250000       0.229442       0.920279      -0.321778
      11.260000       0.251849       0.905435      -0.321262
      11.270000       0.273822       0.888634      -0.321079
      11.280000       0.295229       0.870469      -0.321700
      11.290000       0.315937       0.851337      -0.323690
      11.300000       0.335784       0.831424      -0.327653
      11.310000       0.354557       0.810760      -0.334176
      11.320000       0.372005       0.789316      -0.343773
      11.330000       0.387869       0.767102      -0.356824
      11.340000       0.401917       0.744216      -0.373514
      11.350000       0.413965       0.720844      -0.393786
      11.360000       0.423880       0.697229      -0.417325
      11.370000       0.431579       0.673601      -0.443566
      11.380000       0.437040       0.650108      -0.471764
      11.390000       0.440320       0.626754      -0.501078
      11.400000       0.441592       0.603370      -0.530674
      11.410000       0.441153       0.579668      -0.559785
      11.420000       0.439384       0.555349      -0.587741
      11.430000       0.436680       0.530255      -0.613966
      11.440000       0.433350       0.504487      -0.637963
      11.450000       0.429553       0.478446      -0.659338
      11.460000       0.425276       0.452785      -0.677845
      11.470000       0.420374       0.428281      -0.693453
      11.480000       0.414637       0.405688      -0.706383
      11.490000       0.407884       0.385611      -0.717089
      11.500000       0.400028       0.368432      -0.726189
      11.510000       0.391116       0.354315      -0.734337
      11.520000       0.381337       0.343272      -0.742105
      11.530000       0.370997       0.335238      -0.749872
      11.540000       0.360472       0.330139      -0.757768
      11.550000       0.350136       0.327887      -0.765675
      11.560000       0.340303       0.328366      -0.773278
      11.570000       0.331181       0.331402      -0.780146
      11.580000       0.322867       0.336776      -0.785832
      11.590000       0.315343       0.344260      -0.789942
      11.600000       0.308472       0.353666      -0.792185
      11.610000       0.301971       0.364863      -0.792379
      11.620000       0.295407       0.377757      -0.790442
      11.630000       0.288231       0.392252      -0.786373
      11.640000       0.279875       0.408202      -0.780246
      11.650000       0.269882       0.425402      -0.772209
      11.660000       0.258031       0.443609      -0.762490
      11.670000       0.244420       0.462579      -0.751394
      11.680000       0.229460       0.482102      -0.739279
      11.690000       0.213793       0.502024      -0.726507
      11.700000       0.198163       0.522232      -0.713387
      11.710000       0.183296       0.542636      -0.700128
      11.720000       0.169828       0.563113      -0.686825
      11.730000       0.158279       0.583455      -0.673485
      11.740000       0.149056       0.603321      -0.660070
      11.750000       0.142466       0.622220      -0.646545
      11.760000       0.138707       0.639536      -0.632896
      11.770000       0.137857       0.654591      -0.619137
      11.780000       0.139851       0.666740      -0.605314
      11.790000       0.144461       0.675446      -0.591508
      11.800000       0.151307       0.680339      -0.577848
      11.810000       0.159888       0.681232      -0.564511
      11.820000       0.169640       0.678111      -0.551711
      11.830000       0.180004       0.671105      -0.539664
      11.840000       0.190480       0.660452      -0.528538
      11.850000       0.200670       0.646455      -0.518408
      11.860000       0.210295       0.629429      -0.509217
      11.870000       0.219206       0.609654      -0.500762
      11.880000       0.227365       0.587355      -0.492709
      11.890000       0.234831       0.562717      -0.484647
      11.900000       0.241723       0.535953      -0.476159
      11.910000       0.248193       0.507384      -0.466895
      11.920000       0.254392       0.477497      -0.456623
      11.930000       0.260438       0.446952      -0.445256
      11.940000       0.266397       0.416537      -0.432834
      11.950000       0.272262       0.387095      -0.419509
      11.960000       0.277968       0.359462      -0.405510
      11.970000       0.283416       0.334432      -0.391110
      11.980000       0.288502       0.312707      -0.376598
      11.990000       0.293142       0.294830      -0.362247
      12.000000       0.297264       0.281093      -0.348286
      12.010000       0.300786       0.271455      -0.334898
      12.020000       0.303596       0.265525      -0.322226
      12.030000       0.305533       0.262611      -0.310391
      12.040000       0.306416       0.261831      -0.299503
      12.050000       0.306082       0.262241      -0.289643
      12.060000       0.304434       0.262953      -0.280842
      12.070000       0.301472       0.263244      -0.273037
      12.080000       0.297300       0.262634      -0.266051
      12.090000       0.292103       0.260956      -0.259590
      12.100000       0.286134       0.258378      -0.253264
      12.110000       0.279692       0.255367      -0.246637
      12.120000       0.273105       0.252585      -0.239299
      12.130000       0.266691       0.250734      -0.230940
      12.140000       0.260720       0.250402      -0.221417
      12.150000       0.255370       0.251932      -0.210780
      12.160000       0.250710       0.255353      -0.199263
      12.170000       0.246711       0.260368      -0.187232
      12.180000       0.243274       0.266402      -0.175112
      12.190000       0.240256       0.272698      -0.163312
      12.200000       0.237483       0.278430      -0.152169
      12.210000       0.234753       0.282815      -0.141904
      12.220000       0.231838       0.285193      -0.132612
      12.230000       0.228505       0.285064      -0.124253
      12.240000       0.224552       0.282090      -0.116681
      12.250000       0.219866       0.276081      -0.109661
      12.260000       0.214477       0.266976      -0.102916
      12.270000       0.208569       0.254847      -0.096157
      12.280000       0.202461       0.239928      -0.089119
      12.290000       0.196517       0.222645      -0.081595
      12.300000       0.191059       0.203626      -0.073462
      12.310000       0.186289       0.183654      -0.064715
      12.320000       0.182275       0.163582      -0.055472
      12.330000       0.178984       0.144231      -0.045968
      12.340000       0.176339       0.126310      -0.036515
      12.350000       0.174267       0.110365      -0.027448
      12.360000       0.172722       0.096766      -0.019065
      12.370000       0.171668       0.085722      -0.011583
      12.380000       0.171044       0.077333      -0.005117
      12.390000       0.170716       0.071647       0.000303
      12.400000       0.170476       0.068708       0.004699
      12.410000       0.170062       0.068572       0.008102
      12.420000       0.169239       0.071273       0.010532
      12.430000       0.167868       0.076762       0.012002
      12.440000       0.165965       0.084857       0.012530
      12.450000       0.163711       0.095209       0.012156
      12.460000       0.161407       0.107316       0.010960
      12.470000       0.159414       0.120559       0.009062
      12.480000       0.158081       0.134256       0.006619
      12.490000       0.157683       0.147703       0.003828
      12.500000       0.158375       0.160210       0.000910
      12.510000       0.160170       0.171103      -0.001903
      12.520000       0.162926       0.179708      -0.004393
      12.530000       0.166366       0.185326      -0.006384
      12.540000       0.170103       0.187222      -0.007768
      12.550000       0.173696       0.184672      -0.008512
      12.560000       0.176716       0.177074      -0.008659
      12.570000       0.178821       0.164109      -0.008310
      12.580000       0.179836       0.145912      -0.007607
      12.590000       0.179786       0.123174      -0.006706
      12.600000       0.178895       0.097161      -0.005752
      12.610000       0.177519       0.069591      -0.004854
      12.620000       0.176061       0.042412      -0.004057
      12.630000       0.174882       0.017511      -0.003325
      12.640000       0.174242      -0.003566      -0.002535
      12.650000       0.174285      -0.019808      -0.001482
      12.660000       0.175049      -0.030794       0.000085
      12.670000       0.176488      -0.036620       0.002418
      12.680000       0.178499      -0.037733       0.005720
      12.690000       0.180937      -0.034762       0.010102
      12.700000       0.183624      -0.028388       0.015573
      12.710000       0.186356      -0.019275       0.022056
      12.720000       0.188911      -0.008048       0.029401
      12.730000       0.191065       0.004709       0.037414
      12.740000       0.192617       0.018459       0.045872
      12.750000       0.193404       0.032723       0.054542
      12.760000       0.193319       0.047100       0.063196
      12.770000       0.192308       0.061289       0.071647
      12.780000       0.190377       0.075104       0.079758
      12.790000       0.187588       0.088485       0.087465
      12.800000       0.184045       0.101483       0.094764
      12.810000       0.179869       0.114224       0.101695
      12.820000       0.175167       0.126851       0.108318
      12.830000       0.170025       0.139458       0.114686
      12.840000       0.164515       0.152043       0.120844
      12.850000       0.158739       0.164485       0.126825
      12.860000       0.152860       0.176558       0.132662
      12.870000       0.147127       0.187959       0.138388
      12.880000       0.141854       0.198351       0.144027
      12.890000       0.137390       0.207398       0.149586
      12.900000       0.134068       0.214799       0.155037
      12.910000       0.132164       0.220322       0.160328
      12.920000       0.131860       0.223848       0.165386
      12.930000       0.133236       0.225417       0.170137
      12.940000       0.136281       0.225248       0.174521
      12.950000       0.140925       0.223729       0.178502
      12.960000       0.147087       0.221355       0.182073
      12.970000       0.154696       0.218631       0.185261
      12.980000       0.163694       0.215978       0.188117
      12.990000       0.174011       0.213663       0.190714
      13.000000       0.185532       0.211772       0.193135
      13.010000       0.198074       0.210241       0.195461
      13.020000       0.211377       0.208910       0.197769
      13.030000       0.225114       0.207582       0.200127
      13.040000       0.238903       0.206078       0.202598
      13.050000       0.252330       0.204268       0.205241
      13.060000       0.264974       0.202075       0.208111
      13.070000       0.276429       0.199479       0.211244
      13.080000       0.286342       0.196492       0.214648
      13.090000       0.294446       0.193126       0.218291
      13.100000       0.300596       0.189354       0.222099
      13.110000       0.304794       0.185084       0.225958
      13.120000       0.307193       0.180161       0.229724
      13.130000       0.308084       0.174406       0.233238
      13.140000       0.307859       0.167690       0.236342
      13.150000       0.306956       0.160002       0.238895
      13.160000       0.305805       0.151473       0.240799
      13.170000       0.304773       0.142337       0.242011
      13.180000       0.304120       0.132856       0.242557
      13.190000       0.303975       0.123240       0.242532
      13.200000       0.304329       0.113625       0.242093
      13.210000       0.305067       0.104108       0.241429
      13.220000       0.306004       0.094825       0.240743
      13.230000       0.306945       0.086007       0.240220
      13.240000       0.307729       0.077984       0.240015
      13.250000       0.308264       0.071140       0.240243
      13.260000       0.308539       0.065824       0.240983
      13.270000       0.308605       0.062283       0.242287
      13.280000       0.308531       0.060621       0.244183
      13.290000       0.308353       0.060803       0.246689
      13.300000       0.308028       0.062681       0.249819
      13.310000       0.307416       0.066043       0.253576
      13.320000       0.306291       0.070647       0.257952
      13.330000       0.304384       0.076260       0.262916
      13.340000       0.301442       0.082680       0.268405
      13.350000       0.297288       0.089748       0.274319
      13.360000       0.291862       0.097349       0.280525
      13.370000       0.285239       0.105393       0.286861
      13.380000       0.277605       0.113791       0.293147
      13.390000       0.269213       0.122442       0.299207
      13.400000       0.260324       0.131226       0.304884
      13.410000       0.251156       0.140014       0.310068
      13.420000       0.241848       0.148681       0.314706
      13.430000       0.232456       0.157114       0.318813
      13.440000       0.222978       0.165221       0.322472
      13.450000       0.213406       0.172931       0.325821
      13.460000       0.203786       0.180201       0.329029
      13.470000       0.194253       0.187031       0.332279
      13.480000       0.185032       0.193478       0.335738
      13.490000       0.176395       0.199658       0.339549
      13.500000       0.168609       0.205728       0.343817
      13.510000       0.161878       0.211846       0.348609
      13.520000       0.156313       0.218133       0.353951
      13.530000       0.151915       0.224641       0.359829
      13.540000       0.148584       0.231348       0.366192
      13.550000       0.146132       0.238173       0.372955
      13.560000       0.144311       0.245003       0.380006
      13.570000       0.142857       0.251719       0.387226
      13.580000       0.141543       0.258207       0.394494
      13.590000       0.140232       0.264369       0.401709
      13.600000       0.138911       0.270121       0.408794
      13.610000       0.137701       0.275398       0.415704
      13.620000       0.136819       0.280163       0.422423
      13.630000       0.136529       0.284417       0.428953
      13.640000       0.137072       0.288211       0.435305
      13.650000       0.138632       0.291644       0.441487
      13.660000       0.141314       0.294855       0.447504
      13.670000       0.145157       0.297995       0.453356
      13.680000       0.150146       0.301190       0.459038
      13.690000       0.156227       0.304503       0.464552
      13.700000       0.163302       0.307909       0.469898
      13.710000       0.171239       0.311290       0.475089
      13.720000       0.179879       0.314449       0.480142
      13.730000       0.189047       0.317145       0.485088
      13.740000       0.198568       0.319147       0.489968
      13.750000       0.208283       0.320271       0.494828
      13.760000       0.218057       0.320425       0.499715
      13.770000       0.227783       0.319631       0.504668
      13.780000       0.237385       0.318031       0.509720
      13.790000       0.246805       0.315877       0.514901
      13.800000       0.255994       0.313492       0.520240
      13.810000       0.264896       0.311224       0.525769
      13.820000       0.273446       0.309398       0.531519
      13.830000       0.281566       0.308267       0.537511
      13.840000       0.289183       0.307986       0.543749
      13.850000       0.296249       0.308610       0.550214
      13.860000       0.302769       0.310107       0.556869
      13.870000       0.308821       0.312389       0.563660
      13.880000       0.314552       0.315345       0.570515
      13.890000       0.320152       0.318857       0.577357
      13.900000       0.325802       0.322807       0.584097
      13.910000       0.331619       0.327067       0.590650
      13.920000       0.337620       0.331495       0.596938
      13.930000       0.343712       0.335945       0.602908
      13.940000       0.349719       0.340277       0.608537
      13.950000       0.355417       0.344392       0.613833
      13.960000       0.360590       0.348239       0.618822
      13.970000       0.365073       0.351828       0.623534
      13.980000       0.368786       0.355209       0.627981
      13.990000       0.371734       0.358445       0.632141
      14.000000       0.373990       0.361587       0.635959
      14.010000       0.375646       0.364649       0.639345
      14.020000       0.376768       0.367609       0.642204
      14.030000       0.377373       0.370415       0.644448
      14.040000       0.377433       0.373008       0.646024
      14.050000       0.376916       0.375348       0.646917
      14.060000       0.375832       0.377435       0.647150
      14.070000       0.374267       0.379314       0.646763
      14.080000       0.372400       0.381071       0.645797
      14.090000       0.370476       0.382814       0.644273
      14.100000       0.368765       0.384646       0.642194
      14.110000       0.367507       0.386655       0.639547
      14.120000       0.366868       0.388913       0.636333
      14.130000       0.366929       0.391481       0.632593
      14.140000       0.367684       0.394423       0.628425
      14.150000       0.369050       0.397803       0.623971
      14.160000       0.370886       0.401676       0.619379
      14.170000       0.372997       0.406056       0.614749
      14.180000       0.375157       0.410897       0.610094
      14.190000       0.377133       0.416073       0.605325
      14.200000       0.378712       0.421387       0.600284
      14.210000       0.379732       0.426595       0.594793
      14.220000       0.380084       0.431451       0.588715
      14.230000       0.379717       0.435759       0.582004
      14.240000       0.378621       0.439411       0.574727
      14.250000       0.376818       0.442406       0.567053
      14.260000       0.374360       0.444832       0.559219
      14.270000       0.371324       0.446833       0.551468
      14.280000       0.367812       0.448564       0.544012
      14.290000       0.363953       0.450153       0.536996
      14.300000       0.359903       0.451692       0.530508
      14.310000       0.355842       0.453246       0.524596
      14.320000       0.351959       0.454868       0.519302
      14.330000       0.348434       0.456617       0.514680
      14.340000       0.345421       0.458561       0.510795
      14.350000       0.343039       0.460780       0.507713
      14.360000       0.341379       0.463367       0.505479
      14.370000       0.340519       0.466422       0.504100
      14.380000       0.340527       0.470045       0.503530
      14.390000       0.341451       0.474320       0.503685
      14.400000       0.343307       0.479293       0.504446
      14.410000       0.346059       0.484965       0.505680
      14.420000       0.349624       0.491283       0.507250
      14.430000       0.353873       0.498154       0.509029
      14.440000       0.358649       0.505453       0.510897
      14.450000       0.363773       0.513041       0.512746
      14.460000       0.369056       0.520771       0.514483
      14.470000       0.374310       0.528502       0.516030
      14.480000       0.379361       0.536104       0.517326
      14.490000       0.384064       0.543477       0.518334
      14.500000       0.388307       0.550561       0.519033
      14.510000       0.392009       0.557350       0.519420
      14.520000       0.395114       0.563887       0.519511
      14.530000       0.397590       0.570248       0.519338
      14.540000       0.399423       0.576517       0.518962
      14.550000       0.400618       0.582750       0.518478
      14.560000       0.401200       0.588948       0.518014
      14.570000       0.401219       0.595044       0.517716
      14.580000       0.400755       0.600904       0.517726
      14.590000       0.399923       0.606347       0.518161
      14.600000       0.398862       0.611181       0.519091
      14.610000       0.397724       0.615241       0.520541
      14.620000       0.396647       0.618420       0.522495
      14.630000       0.395737       0.620679       0.524916
      14.640000       0.395048       0.622046       0.527761
      14.650000       0.394571       0.622591       0.530985
      14.660000       0.394229       0.622396       0.534557
      14.670000       0.393894       0.621530       0.538460
      14.680000       0.393412       0.620036       0.542695
      14.690000       0.392648       0.617936       0.547282
      14.700000       0.391531       0.615248       0.552256
      14.710000       0.390089       0.612015       0.557660
      14.720000       0.388454       0.608325       0.563533
      14.730000       0.386836       0.604317       0.569899
      14.740000       0.385467       0.600162       0.576754
      14.750000       0.384554       0.596033       0.584062
      14.760000       0.384242       0.592073       0.591755
      14.770000       0.384612       0.588374       0.599735
      14.780000       0.385696       0.584976       0.607889
      14.790000       0.387491       0.581886       0.616092
      14.800000       0.389976       0.579103       0.624222
      14.810000       0.393112       0.576637       0.632168
      14.820000       0.396837       0.574510       0.639840
      14.830000       0.401057       0.572745       0.647172
      14.840000       0.405651       0.571335       0.654126
      14.850000       0.410481       0.570225       0.660686
      14.860000       0.415408       0.569300       0.666851
      14.870000       0.420314       0.568392       0.672626
      14.880000       0.425109       0.567309       0.678010
      14.890000       0.429731       0.565886       0.682995
      14.900000       0.434132       0.564029       0.687556
      14.910000       0.438264       0.561751       0.691657
      14.920000       0.442067       0.559163       0.695269
      14.930000       0.445477       0.556442       0.698383
      14.940000       0.448431       0.553770       0.701031
      14.950000       0.450879       0.551279       0.703303
      14.960000       0.452791       0.549022       0.705340
      14.970000       0.454157       0.546966       0.707313
      14.980000       0.454996       0.545017       0.709390
      14.990000       0.455360       0.543055       0.711697
      15.000000       0.455338       0.540969       0.714287
      15.010000       0.455040       0.538677       0.717137
      15.020000       0.454574       0.536136       0.720149
      15.030000       0.454018       0.533347       0.723187
      15.040000       0.453394       0.530343       0.726112
      15.050000       0.452671       0.527182       0.728807
      15.060000       0.451769       0.523928       0.731199
      15.070000       0.450599       0.520647       0.733253
      15.080000       0.449093       0.517392       0.734961
      15.090000       0.447245       0.514224       0.736320
      15.100000       0.445126       0.511217       0.737309
      15.110000       0.442894       0.508479       0.737890
      15.120000       0.440768       0.506139       0.738004
      15.130000       0.438992       0.504314       0.737604
      15.140000       0.437782       0.503076       0.736673
      15.150000       0.437284       0.502413       0.735253
      15.160000       0.437541       0.502232       0.733446
      15.170000       0.438482       0.502361       0.731402
      15.180000       0.439927       0.502581       0.729286
      15.190000       0.441610       0.502642       0.727242
      15.200000       0.443224       0.502289       0.725365
      15.210000       0.444464       0.501287       0.723688
      15.220000       0.445077       0.499458       0.722179
      15.230000       0.444903       0.496712       0.720751
      15.240000       0.443897       0.493081       0.719266
      15.250000       0.442139       0.488714       0.717549
      15.260000       0.439810       0.483865       0.715404
      15.270000       0.437155       0.478834       0.712619
      15.280000       0.434431       0.473918       0.708985
      15.290000       0.431853       0.469338       0.704294
      15.300000       0.429559       0.465205       0.698350
      15.310000       0.427591       0.461491       0.690977
      15.320000       0.425910       0.458046       0.682037
      15.330000       0.424420       0.454631       0.671464
      15.340000       0.423002       0.450988       0.659293
      15.350000       0.421544       0.446907       0.645690
      15.360000       0.419956       0.442277       0.630953
      15.370000       0.418181       0.437111       0.615489
      15.380000       0.416194       0.431526       0.599760
      15.390000       0.413998       0.425696       0.584207
      15.400000       0.411612       0.419801       0.569186
      15.410000       0.409064       0.413990       0.554926
      15.420000       0.406383       0.408353       0.541526
      15.430000       0.403606       0.402938       0.528989
      15.440000       0.400782       0.397757       0.517267
      15.450000       0.397966       0.392807       0.506300
      15.460000       0.395202       0.388077       0.496030
      15.470000       0.392498       0.383544       0.486400
      15.480000       0.389803       0.379179       0.477349
      15.490000       0.387022       0.374952       0.468822
      15.500000       0.384046       0.370844       0.460781
      15.510000       0.380804       0.366872       0.453227
      15.520000       0.377314       0.363093       0.446193
      15.530000       0.373711       0.359607       0.439722
      15.540000       0.370231       0.356542       0.433830
      15.550000       0.367167       0.354029       0.428471
      15.560000       0.364792       0.352164       0.423526
      15.570000       0.363297       0.350983       0.418820
      15.580000       0.362758       0.350442       0.414162
      15.590000       0.363135       0.350421       0.409387
      15.600000       0.364300       0.350753       0.404400
      15.610000       0.366088       0.351254       0.399195
      15.620000       0.368338       0.351751       0.393861
      15.630000       0.370932       0.352100       0.388564
      15.640000       0.373809       0.352191       0.383514
      15.650000       0.376962       0.351951       0.378928
      15.660000       0.380420       0.351347       0.374986
      15.670000       0.384220       0.350393       0.371802
      15.680000       0.388388       0.349161       0.369403
      15.690000       0.392925       0.347781       0.367716
      15.700000       0.397800       0.346424       0.366587
      15.710000       0.402957       0.345280       0.365803
      15.720000       0.408325       0.344521       0.365137
      15.730000       0.413830       0.344268       0.364377
      15.740000       0.419408       0.344578       0.363351
      15.750000       0.425020       0.345442       0.361942
      15.760000       0.430653       0.346804       0.360090
      15.770000       0.436324       0.348587       0.357790
      15.780000       0.442069       0.350713       0.355082
      15.790000       0.447931       0.353122       0.352047
      15.800000       0.453941       0.355763       0.348794
      15.810000       0.460102       0.358584       0.345449
      15.820000       0.466379       0.361519       0.342148
      15.830000       0.472701       0.364476       0.339041
      15.840000       0.478965       0.367347       0.336290
      15.850000       0.485047       0.370024       0.334072
      15.860000       0.490813       0.372407       0.332565
      15.870000       0.496133       0.374424       0.331921
      15.880000       0.500896       0.376035       0.332243
      15.890000       0.505023       0.377236       0.333564
      15.900000       0.508478       0.378044       0.335850
      15.910000       0.511274       0.378493       0.339015
      15.920000       0.513463       0.378615       0.342942
      15.930000       0.515123       0.378443       0.347508
      15.940000       0.516339       0.378018       0.352595
      15.950000       0.517192       0.377407       0.358100
      15.960000       0.517740       0.376707       0.363933
      15.970000       0.518024       0.376036       0.370021
      15.980000       0.518064       0.375514       0.376295
      15.990000       0.517867       0.375234       0.382692
      16.000000       0.517435       0.375235       0.389150
      16.010000       0.516773       0.375487       0.395610
      16.020000       0.515885       0.375891       0.402014
      16.030000       0.514773       0.376290       0.408312
      16.040000       0.513442       0.376502       0.414458
      16.050000       0.511905       0.376357       0.420409
      16.060000       0.510194       0.375732       0.426124
      16.070000       0.508366       0.374579       0.431564
      16.080000       0.506503       0.372931       0.436692
      16.090000       0.504691       0.370886       0.441484
      16.100000       0.502994       0.368590       0.445937
      16.110000       0.501423       0.366206       0.450075
      16.120000       0.499911       0.363896       0.453954
      16.130000       0.498303       0.361806       0.457646
      16.140000       0.496367       0.360052       0.461227
      16.150000       0.493827       0.358713       0.464764
      16.160000       0.490416       0.357815       0.468306
      16.170000       0.485932       0.357341       0.471883
      16.180000       0.480290       0.357232       0.475512
      16.190000       0.473554       0.357421       0.479200
      16.200000       0.465938       0.357856       0.482945
      16.210000       0.457767       0.358522       0.486738
      16.220000       0.449419       0.359442       0.490562
      16.230000       0.441260       0.360670       0.494394
      16.240000       0.433598       0.362261       0.498211
      16.250000       0.426667       0.364256       0.501990
      16.260000       0.420633       0.366661       0.505720
      16.270000       0.415614       0.369442       0.509401
      16.280000       0.411691       0.372525       0.513046
      16.290000       0.408908       0.375808       0.516679
      16.300000       0.407260       0.379175       0.520327
      16.310000       0.406694       0.382508       0.524012
      16.320000       0.407106       0.385704       0.527742
      16.330000       0.408355       0.388681       0.531509
      16.340000       0.410275       0.391374       0.535287
      16.350000       0.412681       0.393738       0.539037
      16.360000       0.415382       0.395732       0.542704
      16.370000       0.418185       0.397313       0.546227
      16.380000       0.420909       0.398421       0.549537
      16.390000       0.423401       0.398984       0.552573
      16.400000       0.425552       0.398927       0.555287
      16.410000       0.427310       0.398193       0.557653
      16.420000       0.428686       0.396772       0.559675
      16.430000       0.429737       0.394727       0.561390
      16.440000       0.430550       0.392193       0.562862
      16.450000       0.431221       0.389364       0.564170
      16.460000       0.431847       0.386458       0.565398
      16.470000       0.432524       0.383680       0.566620
      16.480000       0.433345       0.381189       0.567894
      16.490000       0.434398       0.379083       0.569257
      16.500000       0.435748       0.377397       0.570728
      16.510000       0.437428       0.376108       0.572308
      16.520000       0.439432       0.375156       0.573974
      16.530000       0.441727       0.374461       0.575689
      16.540000       0.444267       0.373950       0.577396
      16.550000       0.447013       0.373581       0.579032
      16.560000       0.449945       0.373359       0.580536
      16.570000       0.453066       0.373339       0.581861
      16.580000       0.456397       0.373610       0.582985
      16.590000       0.459961       0.374262       0.583911
      16.600000       0.463777       0.375350       0.584664
      16.610000       0.467842       0.376879       0.585277
      16.620000       0.472125       0.378792       0.585790
      16.630000       0.476577       0.380995       0.586235
      16.640000       0.481124       0.383372       0.586639
      16.650000       0.485683       0.385816       0.587024
      16.660000       0.490161       0.388239       0.587402
      16.670000       0.494465       0.390585       0.587782
      16.680000       0.498500       0.392817       0.588167
      16.690000       0.502183       0.394922       0.588561
      16.700000       0.505442       0.396895       0.588975
      16.710000       0.508226       0.398743       0.589425
      16.720000       0.510500       0.400483       0.589932
      16.730000       0.512247       0.402142       0.590513
      16.740000       0.513457       0.403762       0.591177
      16.750000       0.514128       0.405393       0.591919
      16.760000       0.514262       0.407081       0.592721
      16.770000       0.513874       0.408861       0.593559
      16.780000       0.512995       0.410741       0.594408
      16.790000       0.511685       0.412702       0.595254
      16.800000       0.510038       0.414706       0.596095
      16.810000       0.508172       0.416706       0.596940
      16.820000       0.506224       0.418668       0.597809
      16.830000       0.504326       0.420574       0.598727
      16.840000       0.502592       0.422429       0.599715
      16.850000       0.501103       0.424256       0.600790
      16.860000       0.499911       0.426088       0.601958
      16.870000       0.499043       0.427956       0.603211
      16.880000       0.498507       0.429888       0.604527
      16.890000       0.498307       0.431898       0.605873
      16.900000       0.498439       0.433987       0.607214
      16.910000       0.498889       0.436140       0.608510
      16.920000       0.499634       0.438333       0.609734
      16.930000       0.500645       0.440531       0.610872
      16.940000       0.501893       0.442697       0.611925
      16.950000       0.503347       0.444799       0.612917
      16.960000       0.504974       0.446815       0.613884
      16.970000       0.506726       0.448735       0.614873
      16.980000       0.508532       0.450562       0.615929
      16.990000       0.510297       0.452309       0.617085
      17.000000       0.511901       0.453992       0.618359
      17.010000       0.513210       0.455628       0.619749
      17.020000       0.514092       0.457229       0.621237
      17.030000       0.514433       0.458806       0.622802
      17.040000       0.514156       0.460371       0.624419
      17.050000       0.513232       0.461947       0.626072
      17.060000       0.511684       0.463568       0.627755
      17.070000       0.509584       0.465275       0.629465
      17.080000       0.507029       0.467112       0.631205
      17.090000       0.504133       0.469106       0.632974
      17.100000       0.501015       0.471265       0.634769
      17.110000       0.497797       0.473573       0.636578
      17.120000       0.494602       0.475997       0.638386
      17.130000       0.491543       0.478492       0.640175
      17.140000       0.488714       0.481007       0.641925
      17.150000       0.486172       0.483489       0.643614
      17.160000       0.483932       0.485882       0.645217
      17.170000       0.481974       0.488132       0.646704
      17.180000       0.480250       0.490187       0.648040
      17.190000       0.478700       0.492004       0.649188
      17.200000       0.477262       0.493546       0.650123
      17.210000       0.475888       0.494795       0.650834
      17.220000       0.474558       0.495750       0.651333
      17.230000       0.473286       0.496433       0.651662
      17.240000       0.472114       0.496883       0.651886
      17.250000       0.471094       0.497162       0.652086
      17.260000       0.470263       0.497339       0.652352
      17.270000       0.469629       0.497494       0.652767
      17.280000       0.469167       0.497700       0.653402
      17.290000       0.468831       0.498027       0.654308
      17.300000       0.468572       0.498532       0.655511
      17.310000       0.468359       0.499250       0.657016
      17.320000       0.468192       0.500202       0.658807
      17.330000       0.468102       0.501386       0.660851
      17.340000       0.468145       0.502787       0.663101
      17.350000       0.468384       0.504380       0.665506
      17.360000       0.468864       0.506133       0.668014
      17.370000       0.469594       0.508007       0.670577
      17.380000       0.470539       0.509958       0.673157
      17.390000       0.471624       0.511936       0.675721
      17.400000       0.472747       0.513886       0.678243
      17.410000       0.473801       0.515754       0.680696
      17.420000       0.474692       0.517494       0.683055
      17.430000       0.475353       0.519072       0.685294
      17.440000       0.475756       0.520474       0.687389
      17.450000       0.475908       0.521705       0.689324
      17.460000       0.475850       0.522783       0.691092
      17.470000       0.475640       0.523731       0.692694
      17.480000       0.475347       0.524571       0.694138
      17.490000       0.475031       0.525318       0.695434
      17.500000       0.474742       0.525979       0.696595
      17.510000       0.474511       0.526554       0.697628
      17.520000       0.474353       0.527039       0.698543
      17.530000       0.474279       0.527428       0.699348
      17.540000       0.474296       0.527716       0.700054
      17.550000       0.474416       0.527903       0.700684
      17.560000       0.474652       0.527997       0.701267
      17.570000       0.475011       0.528015       0.701847
      17.580000       0.475486       0.527985       0.702473
      17.590000       0.476053       0.527933       0.703196
      17.600000       0.476670       0.527887       0.704061
      17.610000       0.477290       0.527861       0.705104
      17.620000       0.477870       0.527869       0.706343
      17.630000       0.478391       0.527921       0.707785
      17.640000       0.478867       0.528034       0.709420
      17.650000       0.479339       0.528234       0.711223
      17.660000       0.479865       0.528551       0.713165
      17.670000       0.480500       0.529012       0.715210
      17.680000       0.481275       0.529632       0.717324
      17.690000       0.482187       0.530408       0.719482
      17.700000       0.483202       0.531318       0.721667
      17.710000       0.484265       0.532325       0.723867
      17.720000       0.485317       0.533384       0.726072
      17.730000       0.486316       0.534449       0.728272
      17.740000       0.487250       0.535483       0.730455
      17.750000       0.488137       0.536463       0.732601
      17.760000       0.489020       0.537379       0.734696
      17.770000       0.489953       0.538233       0.736726
      17.780000       0.490983       0.539032       0.738686
      17.790000       0.492145       0.539779       0.740584
      17.800000       0.493452       0.540479       0.742442
      17.810000       0.494902       0.541130       0.744289
      17.820000       0.496488       0.541731       0.746160
      17.830000       0.498199       0.542285       0.748087
      17.840000       0.500028       0.542800       0.750092
      17.850000       0.501968       0.543296       0.752186
      17.860000       0.504008       0.543803       0.754363
      17.870000       0.506128       0.544365       0.756609
      17.880000       0.508294       0.545031       0.758899
      17.890000       0.510467       0.545848       0.761204
      17.900000       0.512602       0.546853       0.763498
      17.910000       0.514659       0.548066       0.765759
      17.920000       0.516605       0.549481       0.767975
      17.930000       0.518415       0.551073       0.770145
      17.940000       0.520075       0.552795       0.772281
      17.950000       0.521579       0.554591       0.774397
      17.960000       0.522928       0.556404       0.776509
      17.970000       0.524129       0.558179       0.778627
      17.980000       0.525199       0.559875       0.780750
      17.990000       0.526166       0.561464       0.782868
      18.000000       0.527069       0.562927       0.784959
      18.010000       0.527956       0.564258       0.786998
      18.020000       0.528877       0.565456       0.788964
      18.030000       0.529877       0.566529       0.790845
      18.040000       0.530985       0.567489       0.792642
      18.050000       0.532211       0.568354       0.794371
      18.060000       0.533543       0.569146       0.796057
      18.070000       0.534943       0.569894       0.797733
      18.080000       0.536355       0.570626       0.799431
      18.090000       0.537708       0.571370       0.801177
      18.100000       0.538932       0.572153       0.802994
      18.110000       0.539965       0.572997       0.804895
      18.120000       0.540759       0.573919       0.806892
      18.130000       0.541279       0.574925       0.808988
      18.140000       0.541500       0.576014       0.811181
      18.150000       0.541400       0.577172       0.813465
      18.160000       0.540966       0.578384       0.815825
      18.170000       0.540198       0.579630       0.818244
      18.180000       0.539117       0.580892       0.820706
      18.190000       0.537770       0.582151       0.823197
      18.200000       0.536231       0.583383       0.825711
      18.210000       0.534585       0.584565       0.828245
      18.220000       0.532917       0.585673       0.830806
      18.230000       0.531303       0.586692       0.833400
      18.240000       0.529798       0.587620       0.836035
      18.250000       0.528439       0.588472       0.838716
      18.260000       0.527248       0.589277       0.841443
      18.270000       0.526231       0.590073       0.844211
      18.280000       0.525385       0.590895       0.847010
      18.290000       0.524700       0.591769       0.849832
      18.300000       0.524169       0.592710       0.852665
      18.310000       0.523791       0.593721       0.855496
      18.320000       0.523570       0.594792       0.858312
      18.330000       0.523518       0.595908       0.861098
      18.340000       0.523648       0.597051       0.863840
      18.350000       0.523968       0.598203       0.866523
      18.360000       0.524481       0.599350       0.869136
      18.370000       0.525177       0.600485       0.871672
      18.380000       0.526043       0.601611       0.874125
      18.390000       0.527055       0.602735       0.876498
      18.400000       0.528191       0.603875       0.878797
      18.410000       0.529430       0.605052       0.881040
      18.420000       0.530756       0.606291       0.883250
      18.430000       0.532157       0.607619       0.885458
      18.440000       0.533625       0.609061       0.887693
      18.450000       0.535159       0.610635       0.889976
      18.460000       0.536766       0.612348       0.892312
      18.470000       0.538461       0.614188       0.894687
      18.480000       0.540262       0.616120       0.897065
      18.490000       0.542180       0.618084       0.899396
      18.500000       0.544212       0.619998       0.901622
      18.510000       0.546337       0.621768       0.903682
      18.520000       0.548514       0.623292       0.905520
      18.530000       0.550692       0.624476       0.907096
      18.540000       0.552816       0.625244       0.908384
      18.550000       0.554835       0.625542       0.909375
      18.560000       0.556713       0.625349       0.910068
      18.570000       0.558426       0.624677       0.910465
      18.580000       0.559974       0.623572       0.910561
      18.590000       0.561373       0.622115       0.910341
      18.600000       0.562656       0.620413       0.909788
      18.610000       0.563863       0.618587       0.908886
      18.620000       0.565032       0.616757       0.907633
      18.630000       0.566194       0.615019       0.906044
      18.640000       0.567362       0.613438       0.904156
      18.650000       0.568529       0.612041       0.902023
      18.660000       0.569673       0.610826       0.899720
      18.670000       0.570758       0.609770       0.897353
      18.680000       0.571740       0.608843       0.895053
      18.690000       0.572572       0.608021       0.892973
      18.700000       0.573213       0.607291       0.891266
      18.710000       0.573634       0.606659       0.890059
      18.720000       0.573824       0.606148       0.889434
      18.730000       0.573796       0.605798       0.889412
      18.740000       0.573588       0.605650       0.889954
      18.750000       0.573258       0.605736       0.890974
      18.760000       0.572879       0.606064       0.892356
      18.770000       0.572533       0.606611       0.893973
      18.780000       0.572298       0.607328       0.895704
      18.790000       0.572237       0.608147       0.897444
      18.800000       0.572393       0.608996       0.899110
      18.810000       0.572785       0.609806       0.900645
      18.820000       0.573409       0.610525       0.902015
      18.830000       0.574242       0.611120       0.903196
      18.840000       0.575243       0.611582       0.904163
      18.850000       0.576362       0.611917       0.904873
      18.860000       0.577545       0.612137       0.905254
      18.870000       0.578734       0.612251       0.905210
      18.880000       0.579878       0.612255       0.904632
      18.890000       0.580932       0.612140       0.903430
      18.900000       0.581858       0.611898       0.901560
      18.910000       0.582632       0.611531       0.899042
      18.920000       0.583239       0.611058       0.895966
      18.930000       0.583672       0.610512       0.892482
      18.940000       0.583936       0.609937       0.888783
      18.950000       0.584043       0.609377       0.885075
      18.960000       0.584013       0.608868       0.881552
      18.970000       0.583870       0.608428       0.878365
      18.980000       0.583640       0.608053       0.875601
      18.990000       0.583349       0.607715       0.873280
      19.000000       0.583019       0.607369       0.871363
      19.010000       0.582668       0.606961       0.869778
      19.020000       0.582312       0.606446       0.868447
      19.030000       0.581965       0.605803       0.867308
      19.040000       0.581640       0.605034       0.866328
      19.050000       0.581353       0.604171       0.865505
      19.060000       0.581118       0.603259       0.864859
      19.070000       0.580947       0.602348       0.864419
      19.080000       0.580847       0.601484       0.864210
      19.090000       0.580819       0.600709       0.864242
      19.100000       0.580858       0.600053       0.864506
      19.110000       0.580958       0.599541       0.864976
      19.120000       0.581115       0.599185       0.865616
      19.130000       0.581325       0.598987       0.866383
      19.140000       0.581587       0.598940       0.867239
      19.150000       0.581898       0.599033       0.868145
      19.160000       0.582255       0.599251       0.869067
      19.170000       0.582655       0.599579       0.869969
      19.180000       0.583092       0.600004       0.870816
      19.190000       0.583564       0.600507       0.871579
      19.200000       0.584072       0.601065       0.872248
      19.210000       0.584613       0.601651       0.872835
      19.220000       0.585188       0.602234       0.873376
      19.230000       0.585794       0.602783       0.873914
      19.240000       0.586429       0.603271       0.874483
      19.250000       0.587091       0.603680       0.875091
      19.260000       0.587780       0.604004       0.875712
      19.270000       0.588496       0.604248       0.876299
      19.280000       0.589240       0.604436       0.876789
      19.290000       0.590007       0.604600       0.877129
      19.300000       0.590792       0.604787       0.877289
      19.310000       0.591587       0.605041       0.877267
      19.320000       0.592383       0.605404       0.877088
      19.330000       0.593173       0.605906       0.876786
      19.340000       0.593954       0.606555       0.876381
      19.350000       0.594725       0.607342       0.875869
      19.360000       0.595488       0.608239       0.875207
      19.370000       0.596243       0.609210       0.874323
      19.380000       0.596989       0.610219       0.873128
      19.390000       0.597722       0.611237       0.871538
      19.400000       0.598432       0.612246       0.869494
      19.410000       0.599109       0.613240       0.866988
      19.420000       0.599742       0.614220       0.864072
      19.430000       0.600324       0.615193       0.860858
      19.440000       0.600852       0.616168       0.857497
      19.450000       0.601326       0.617153       0.854154
      19.460000       0.601750       0.618154       0.850971
      19.470000       0.602129       0.619170       0.848048
      19.480000       0.602464       0.620196       0.845437
      19.490000       0.602758       0.621220       0.843148
      19.500000       0.603009       0.622224       0.841168
      19.510000       0.603217       0.623188       0.839476
      19.520000       0.603380       0.624090       0.838050
      19.530000       0.603503       0.624906       0.836869
      19.540000       0.603590       0.625614       0.835905
      19.550000       0.603648       0.626196       0.835123
      19.560000       0.603686       0.626645       0.834480
      19.570000       0.603714       0.626967       0.833926
      19.580000       0.603745       0.627190       0.833411
      19.590000       0.603792       0.627361       0.832892
      19.600000       0.603872       0.627534       0.832340
      19.610000       0.604003       0.627768       0.831739
      19.620000       0.604206       0.628109       0.831086
      19.630000       0.604497       0.628591       0.830387
      19.640000       0.604891       0.629228       0.829659
      19.650000       0.605399       0.630020       0.828927
      19.660000       0.606028       0.630956       0.828223
      19.670000       0.606778       0.632021       0.827594
      19.680000       0.607646       0.633195       0.827091
      19.690000       0.608618       0.634461       0.826768
      19.700000       0.609676       0.635805       0.826668
      19.710000       0.610789       0.637212       0.826812
      19.720000       0.611927       0.638672       0.827200
      19.730000       0.613055       0.640172       0.827810
      19.740000       0.614146       0.641699       0.828607
      19.750000       0.615179       0.643240       0.829556
      19.760000       0.616143       0.644778       0.830622
      19.770000       0.617034       0.646296       0.831774
      19.780000       0.617852       0.647774       0.832975
      19.790000       0.618601       0.649192       0.834183
      19.800000       0.619285       0.650530       0.835347
      19.810000       0.619911       0.651770       0.836420
      19.820000       0.620483       0.652901       0.837362
      19.830000       0.621013       0.653915       0.838149
      19.840000       0.621516       0.654817       0.838778
      19.850000       0.622012       0.655625       0.839264
      19.860000       0.622524       0.656367       0.839647
      19.870000       0.623071       0.657080       0.839981
      19.880000       0.623667       0.657802       0.840338
      19.890000       0.624312       0.658563       0.840790
      19.900000       0.624998       0.659379       0.841402
      19.910000       0.625710       0.660248       0.842217
      19.920000       0.626428       0.661153       0.843247
      19.930000       0.627136       0.662069       0.844466
      19.940000       0.627817       0.662966       0.845812
      19.950000       0.628461       0.663815       0.847195
      19.960000       0.629060       0.664593       0.848512
      19.970000       0.629611       0.665279       0.849676
      19.980000       0.630114       0.665858       0.850627
      19.990000       0.630574       0.666320       0.851344
      20.000000       0.630993       0.666665       0.851836
