  # energy grid [eV]     epsi_x  epsi_y  epsi_z
       0.000000            NaN            NaN            NaN
       0.010000       0.000158       0.000025       0.000167
       0.020000       0.000316       0.000050       0.000334
       0.030000       0.000474       0.000075       0.000501
       0.040000       0.000633       0.000100       0.000669
       0.050000       0.000791       0.000125       0.000838
       0.060000       0.000949       0.000150       0.001008
       0.070000       0.001107       0.000175       0.001180
       0.080000       0.001266       0.000200       0.001353
       0.090000       0.001424       0.000225       0.001528
       0.100000       0.001583       0.000250       0.001705
       0.110000       0.001742       0.000276       0.001885
       0.120000       0.001901       0.000301       0.002067
       0.130000       0.002060       0.000326       0.002253
       0.140000       0.002219       0.000351       0.002442
       0.150000       0.002378       0.000376       0.002635
       0.160000       0.002537       0.000401       0.002832
       0.170000       0.002697       0.000426       0.003034
       0.180000       0.002857       0.000451       0.003241
       0.190000       0.003017       0.000476       0.003454
       0.200000       0.003177       0.000501       0.003673
       0.210000       0.003338       0.000527       0.003899
       0.220000       0.003498       0.000552       0.004133
       0.230000       0.003659       0.000577       0.004375
       0.240000       0.003820       0.000602       0.004626
       0.250000       0.003982       0.000627       0.004887
       0.260000       0.004144       0.000653       0.005159
       0.270000       0.004306       0.000678       0.005443
       0.280000       0.004468       0.000703       0.005742
       0.290000       0.004631       0.000728       0.006054
       0.300000       0.004794       0.000754       0.006384
       0.310000       0.004957       0.000779       0.006732
       0.320000       0.005121       0.000804       0.007101
       0.330000       0.005285       0.000830       0.007492
       0.340000       0.005450       0.000855       0.007908
       0.350000       0.005614       0.000880       0.008354
       0.360000       0.005780       0.000906       0.008831
       0.370000       0.005945       0.000931       0.009344
       0.380000       0.006112       0.000956       0.009897
       0.390000       0.006278       0.000982       0.010496
       0.400000       0.006445       0.001007       0.011146
       0.410000       0.006613       0.001033       0.011854
       0.420000       0.006781       0.001058       0.012629
       0.430000       0.006949       0.001084       0.013479
       0.440000       0.007119       0.001109       0.014415
       0.450000       0.007288       0.001135       0.015449
       0.460000       0.007458       0.001161       0.016594
       0.470000       0.007629       0.001186       0.017865
       0.480000       0.007800       0.001212       0.019279
       0.490000       0.007972       0.001238       0.020856
       0.500000       0.008145       0.001263       0.022614
       0.510000       0.008318       0.001289       0.024573
       0.520000       0.008492       0.001315       0.026750
       0.530000       0.008666       0.001341       0.029158
       0.540000       0.008841       0.001366       0.031800
       0.550000       0.009017       0.001392       0.034663
       0.560000       0.009194       0.001418       0.037710
       0.570000       0.009371       0.001444       0.040873
       0.580000       0.009549       0.001470       0.044038
       0.590000       0.009727       0.001496       0.047048
       0.600000       0.009907       0.001522       0.049707
       0.610000       0.010087       0.001548       0.051804
       0.620000       0.010268       0.001574       0.053146
       0.630000       0.010450       0.001600       0.053604
       0.640000       0.010632       0.001627       0.053145
       0.650000       0.010815       0.001653       0.051840
       0.660000       0.010999       0.001679       0.049850
       0.670000       0.011184       0.001705       0.047379
       0.680000       0.011370       0.001732       0.044637
       0.690000       0.011557       0.001758       0.041807
       0.700000       0.011745       0.001784       0.039031
       0.710000       0.011933       0.001811       0.036403
       0.720000       0.012123       0.001837       0.033981
       0.730000       0.012314       0.001864       0.031792
       0.740000       0.012505       0.001890       0.029843
       0.750000       0.012698       0.001917       0.028126
       0.760000       0.012892       0.001944       0.026627
       0.770000       0.013087       0.001970       0.025329
       0.780000       0.013283       0.001997       0.024212
       0.790000       0.013480       0.002024       0.023259
       0.800000       0.013678       0.002051       0.022452
       0.810000       0.013878       0.002078       0.021776
       0.820000       0.014079       0.002105       0.021217
       0.830000       0.014281       0.002132       0.020764
       0.840000       0.014484       0.002159       0.020406
       0.850000       0.014688       0.002186       0.020135
       0.860000       0.014894       0.002213       0.019943
       0.870000       0.015101       0.002240       0.019826
       0.880000       0.015310       0.002267       0.019778
       0.890000       0.015519       0.002295       0.019795
       0.900000       0.015731       0.002322       0.019876
       0.910000       0.015943       0.002349       0.020017
       0.920000       0.016157       0.002377       0.020219
       0.930000       0.016373       0.002404       0.020482
       0.940000       0.016590       0.002432       0.020805
       0.950000       0.016809       0.002460       0.021191
       0.960000       0.017029       0.002487       0.021642
       0.970000       0.017251       0.002515       0.022160
       0.980000       0.017475       0.002543       0.022752
       0.990000       0.017700       0.002571       0.023421
       1.000000       0.017927       0.002599       0.024174
       1.010000       0.018156       0.002627       0.025018
       1.020000       0.018386       0.002655       0.025964
       1.030000       0.018618       0.002683       0.027021
       1.040000       0.018852       0.002711       0.028202
       1.050000       0.019088       0.002739       0.029522
       1.060000       0.019326       0.002768       0.030998
       1.070000       0.019566       0.002796       0.032650
       1.080000       0.019808       0.002825       0.034501
       1.090000       0.020052       0.002853       0.036576
       1.100000       0.020298       0.002882       0.038906
       1.110000       0.020547       0.002910       0.041523
       1.120000       0.020797       0.002939       0.044463
       1.130000       0.021050       0.002968       0.047764
       1.140000       0.021305       0.002997       0.051463
       1.150000       0.021562       0.003026       0.055595
       1.160000       0.021821       0.003055       0.060185
       1.170000       0.022083       0.003084       0.065238
       1.180000       0.022348       0.003113       0.070733
       1.190000       0.022615       0.003143       0.076600
       1.200000       0.022884       0.003172       0.082709
       1.210000       0.023157       0.003201       0.088851
       1.220000       0.023431       0.003231       0.094733
       1.230000       0.023709       0.003261       0.099993
       1.240000       0.023989       0.003290       0.104234
       1.250000       0.024273       0.003320       0.107087
       1.260000       0.024559       0.003350       0.108286
       1.270000       0.024848       0.003380       0.107726
       1.280000       0.025140       0.003410       0.105490
       1.290000       0.025436       0.003440       0.101828
       1.300000       0.025734       0.003470       0.097098
       1.310000       0.026036       0.003501       0.091696
       1.320000       0.026341       0.003531       0.085991
       1.330000       0.026650       0.003562       0.080283
       1.340000       0.026962       0.003592       0.074794
       1.350000       0.027278       0.003623       0.069665
       1.360000       0.027597       0.003654       0.064973
       1.370000       0.027920       0.003685       0.060749
       1.380000       0.028247       0.003716       0.056990
       1.390000       0.028578       0.003747       0.053675
       1.400000       0.028913       0.003778       0.050772
       1.410000       0.029252       0.003809       0.048244
       1.420000       0.029595       0.003841       0.046055
       1.430000       0.029943       0.003872       0.044170
       1.440000       0.030294       0.003904       0.042556
       1.450000       0.030651       0.003936       0.041185
       1.460000       0.031012       0.003968       0.040031
       1.470000       0.031378       0.004000       0.039074
       1.480000       0.031749       0.004032       0.038293
       1.490000       0.032125       0.004064       0.037675
       1.500000       0.032506       0.004096       0.037205
       1.510000       0.032892       0.004129       0.036873
       1.520000       0.033284       0.004161       0.036672
       1.530000       0.033681       0.004194       0.036594
       1.540000       0.034085       0.004227       0.036635
       1.550000       0.034493       0.004260       0.036792
       1.560000       0.034908       0.004293       0.037064
       1.570000       0.035330       0.004326       0.037452
       1.580000       0.035757       0.004359       0.037957
       1.590000       0.036191       0.004393       0.038584
       1.600000       0.036632       0.004426       0.039338
       1.610000       0.037080       0.004460       0.040227
       1.620000       0.037535       0.004494       0.041259
       1.630000       0.037997       0.004528       0.042447
       1.640000       0.038467       0.004562       0.043804
       1.650000       0.038945       0.004596       0.045348
       1.660000       0.039431       0.004631       0.047098
       1.670000       0.039925       0.004665       0.049078
       1.680000       0.040427       0.004700       0.051315
       1.690000       0.040938       0.004735       0.053840
       1.700000       0.041459       0.004770       0.056690
       1.710000       0.041989       0.004805       0.059906
       1.720000       0.042528       0.004841       0.063531
       1.730000       0.043077       0.004876       0.067615
       1.740000       0.043637       0.004912       0.072207
       1.750000       0.044208       0.004948       0.077355
       1.760000       0.044789       0.004984       0.083099
       1.770000       0.045382       0.005020       0.089464
       1.780000       0.045987       0.005057       0.096444
       1.790000       0.046603       0.005093       0.103987
       1.800000       0.047233       0.005130       0.111977
       1.810000       0.047876       0.005167       0.120211
       1.820000       0.048532       0.005204       0.128392
       1.830000       0.049202       0.005241       0.136126
       1.840000       0.049887       0.005279       0.142955
       1.850000       0.050587       0.005316       0.148409
       1.860000       0.051303       0.005354       0.152076
       1.870000       0.052036       0.005392       0.153672
       1.880000       0.052785       0.005431       0.153094
       1.890000       0.053552       0.005469       0.150429
       1.900000       0.054338       0.005508       0.145943
       1.910000       0.055143       0.005547       0.140021
       1.920000       0.055967       0.005586       0.133112
       1.930000       0.056813       0.005626       0.125662
       1.940000       0.057681       0.005665       0.118064
       1.950000       0.058571       0.005705       0.110633
       1.960000       0.059486       0.005746       0.103590
       1.970000       0.060425       0.005786       0.097077
       1.980000       0.061390       0.005827       0.091162
       1.990000       0.062383       0.005868       0.085869
       2.000000       0.063404       0.005909       0.081183
       2.010000       0.064455       0.005950       0.077071
       2.020000       0.065538       0.005992       0.073490
       2.030000       0.066654       0.006034       0.070392
       2.040000       0.067805       0.006076       0.067732
       2.050000       0.068993       0.006119       0.065464
       2.060000       0.070219       0.006162       0.063548
       2.070000       0.071486       0.006205       0.061950
       2.080000       0.072797       0.006249       0.060637
       2.090000       0.074153       0.006293       0.059584
       2.100000       0.075557       0.006337       0.058768
       2.110000       0.077012       0.006382       0.058171
       2.120000       0.078521       0.006427       0.057778
       2.130000       0.080088       0.006472       0.057576
       2.140000       0.081717       0.006518       0.057557
       2.150000       0.083410       0.006564       0.057714
       2.160000       0.085173       0.006611       0.058043
       2.170000       0.087011       0.006658       0.058543
       2.180000       0.088927       0.006706       0.059215
       2.190000       0.090929       0.006754       0.060062
       2.200000       0.093022       0.006802       0.061090
       2.210000       0.095213       0.006851       0.062307
       2.220000       0.097510       0.006901       0.063724
       2.230000       0.099921       0.006951       0.065355
       2.240000       0.102454       0.007002       0.067217
       2.250000       0.105121       0.007053       0.069331
       2.260000       0.107933       0.007105       0.071721
       2.270000       0.110901       0.007157       0.074417
       2.280000       0.114041       0.007211       0.077452
       2.290000       0.117368       0.007265       0.080864
       2.300000       0.120899       0.007319       0.084697
       2.310000       0.124655       0.007375       0.089002
       2.320000       0.128657       0.007431       0.093829
       2.330000       0.132932       0.007489       0.099236
       2.340000       0.137508       0.007547       0.105279
       2.350000       0.142416       0.007606       0.112006
       2.360000       0.147695       0.007667       0.119454
       2.370000       0.153387       0.007729       0.127634
       2.380000       0.159538       0.007792       0.136515
       2.390000       0.166204       0.007856       0.146008
       2.400000       0.173447       0.007921       0.155948
       2.410000       0.181336       0.007989       0.166080
       2.420000       0.189952       0.008058       0.176065
       2.430000       0.199383       0.008128       0.185500
       2.440000       0.209726       0.008201       0.193965
       2.450000       0.221089       0.008276       0.201072
       2.460000       0.233583       0.008354       0.206530
       2.470000       0.247320       0.008434       0.210175
       2.480000       0.262404       0.008516       0.211988
       2.490000       0.278914       0.008602       0.212085
       2.500000       0.296886       0.008692       0.210693
       2.510000       0.316282       0.008785       0.208122
       2.520000       0.336955       0.008883       0.204729
       2.530000       0.358616       0.008985       0.200888
       2.540000       0.380813       0.009093       0.196954
       2.550000       0.402942       0.009207       0.193240
       2.560000       0.424312       0.009328       0.189984
       2.570000       0.444276       0.009457       0.187342
       2.580000       0.462395       0.009594       0.185388
       2.590000       0.478600       0.009741       0.184129
       2.600000       0.493267       0.009900       0.183535
       2.610000       0.507176       0.010071       0.183567
       2.620000       0.521382       0.010256       0.184197
       2.630000       0.537040       0.010458       0.185414
       2.640000       0.555252       0.010677       0.187202
       2.650000       0.576972       0.010917       0.189524
       2.660000       0.602951       0.011178       0.192293
       2.670000       0.633701       0.011463       0.195373
       2.680000       0.669461       0.011771       0.198593
       2.690000       0.710128       0.012102       0.201786
       2.700000       0.755151       0.012453       0.204827
       2.710000       0.803393       0.012817       0.207669
       2.720000       0.853001       0.013185       0.210352
       2.730000       0.901328       0.013542       0.212995
       2.740000       0.945024       0.013868       0.215771
       2.750000       0.980369       0.014144       0.218874
       2.760000       1.003874       0.014350       0.222487
       2.770000       1.013024       0.014472       0.226749
       2.780000       1.006908       0.014505       0.231730
       2.790000       0.986469       0.014454       0.237419
       2.800000       0.954232       0.014334       0.243736
       2.810000       0.913668       0.014165       0.250565
       2.820000       0.868450       0.013968       0.257801
       2.830000       0.821862       0.013761       0.265406
       2.840000       0.776487       0.013559       0.273437
       2.850000       0.734135       0.013372       0.282047
       2.860000       0.695927       0.013207       0.291449
       2.870000       0.662455       0.013066       0.301852
       2.880000       0.633942       0.012951       0.313403
       2.890000       0.610381       0.012861       0.326138
       2.900000       0.591638       0.012795       0.339968
       2.910000       0.577525       0.012752       0.354692
       2.920000       0.567851       0.012730       0.370028
       2.930000       0.562450       0.012728       0.385660
       2.940000       0.561195       0.012744       0.401267
       2.950000       0.564015       0.012778       0.416524
       2.960000       0.570887       0.012827       0.431099
       2.970000       0.581837       0.012891       0.444630
       2.980000       0.596933       0.012971       0.456730
       2.990000       0.616261       0.013065       0.467015
       3.000000       0.639900       0.013174       0.475148
       3.010000       0.667877       0.013297       0.480884
       3.020000       0.700106       0.013436       0.484096
       3.030000       0.736307       0.013591       0.484755
       3.040000       0.775905       0.013763       0.482893
       3.050000       0.817940       0.013952       0.478569
       3.060000       0.861007       0.014162       0.471853
       3.070000       0.903295       0.014392       0.462847
       3.080000       0.942771       0.014647       0.451728
       3.090000       0.977530       0.014927       0.438775
       3.100000       1.006247       0.015236       0.424392
       3.110000       1.028582       0.015577       0.409078
       3.120000       1.045359       0.015955       0.393384
       3.130000       1.058441       0.016373       0.377844
       3.140000       1.070340       0.016834       0.362914
       3.150000       1.083745       0.017344       0.348938
       3.160000       1.101111       0.017905       0.336136
       3.170000       1.124393       0.018520       0.324629
       3.180000       1.154894       0.019189       0.314473
       3.190000       1.193195       0.019906       0.305696
       3.200000       1.239091       0.020664       0.298309
       3.210000       1.291516       0.021445       0.292305
       3.220000       1.348477       0.022226       0.287646
       3.230000       1.407036       0.022977       0.284255
       3.240000       1.463425       0.023664       0.282021
       3.250000       1.513353       0.024254       0.280810
       3.260000       1.552497       0.024721       0.280485
       3.270000       1.577145       0.025054       0.280907
       3.280000       1.584832       0.025253       0.281935
       3.290000       1.574825       0.025334       0.283405
       3.300000       1.548274       0.025319       0.285124
       3.310000       1.507958       0.025230       0.286875
       3.320000       1.457664       0.025088       0.288442
       3.330000       1.401450       0.024905       0.289648
       3.340000       1.343021       0.024688       0.290406
       3.350000       1.285391       0.024439       0.290752
       3.360000       1.230822       0.024161       0.290867
       3.370000       1.180944       0.023861       0.291061
       3.380000       1.136921       0.023550       0.291722
       3.390000       1.099586       0.023245       0.293255
       3.400000       1.069524       0.022962       0.296015
       3.410000       1.047120       0.022719       0.300264
       3.420000       1.032587       0.022528       0.306137
       3.430000       1.025991       0.022398       0.313633
       3.440000       1.027259       0.022337       0.322602
       3.450000       1.036176       0.022345       0.332758
       3.460000       1.052355       0.022422       0.343691
       3.470000       1.075195       0.022566       0.354915
       3.480000       1.103834       0.022770       0.365908
       3.490000       1.137118       0.023023       0.376178
       3.500000       1.173615       0.023312       0.385309
       3.510000       1.211699       0.023617       0.392987
       3.520000       1.249702       0.023916       0.399008
       3.530000       1.286116       0.024189       0.403267
       3.540000       1.319794       0.024416       0.405731
       3.550000       1.350085       0.024586       0.406427
       3.560000       1.376830       0.024700       0.405427
       3.570000       1.400195       0.024768       0.402851
       3.580000       1.420419       0.024809       0.398862
       3.590000       1.437598       0.024848       0.393660
       3.600000       1.451667       0.024907       0.387457
       3.610000       1.462607       0.025007       0.380459
       3.620000       1.470784       0.025166       0.372845
       3.630000       1.477240       0.025396       0.364765
       3.640000       1.483746       0.025706       0.356350
       3.650000       1.492607       0.026103       0.347728
       3.660000       1.506290       0.026588       0.339031
       3.670000       1.527041       0.027163       0.330390
       3.680000       1.556574       0.027821       0.321925
       3.690000       1.595878       0.028552       0.313724
       3.700000       1.645087       0.029338       0.305843
       3.710000       1.703415       0.030152       0.298313
       3.720000       1.769117       0.030961       0.291158
       3.730000       1.839513       0.031724       0.284423
       3.740000       1.911111       0.032401       0.278187
       3.750000       1.979831       0.032956       0.272576
       3.760000       2.041358       0.033367       0.267747
       3.770000       2.091616       0.033625       0.263878
       3.780000       2.127340       0.033740       0.261133
       3.790000       2.146670       0.033735       0.259654
       3.800000       2.149610       0.033645       0.259538
       3.810000       2.138151       0.033507       0.260842
       3.820000       2.115921       0.033361       0.263579
       3.830000       2.087438       0.033238       0.267727
       3.840000       2.057169       0.033160       0.273238
       3.850000       2.028689       0.033140       0.280057
       3.860000       2.004147       0.033173       0.288136
       3.870000       1.984102       0.033248       0.297449
       3.880000       1.967723       0.033342       0.307993
       3.890000       1.953263       0.033428       0.319766
       3.900000       1.938674       0.033480       0.332727
       3.910000       1.922197       0.033477       0.346750
       3.920000       1.902753       0.033409       0.361586
       3.930000       1.880044       0.033274       0.376849
       3.940000       1.854389       0.033082       0.392036
       3.950000       1.826412       0.032850       0.406578
       3.960000       1.796753       0.032597       0.419921
       3.970000       1.765918       0.032343       0.431589
       3.980000       1.734334       0.032108       0.441247
       3.990000       1.702528       0.031907       0.448724
       4.000000       1.671324       0.031752       0.454009
       4.010000       1.641911       0.031654       0.457224
       4.020000       1.615748       0.031621       0.458572
       4.030000       1.594336       0.031659       0.458287
       4.040000       1.578922       0.031772       0.456594
       4.050000       1.570221       0.031960       0.453680
       4.060000       1.568214       0.032223       0.449694
       4.070000       1.572045       0.032556       0.444750
       4.080000       1.580058       0.032949       0.438952
       4.090000       1.589997       0.033388       0.432413
       4.100000       1.599365       0.033857       0.425270
       4.110000       1.605921       0.034332       0.417684
       4.120000       1.608172       0.034793       0.409833
       4.130000       1.605729       0.035222       0.401902
       4.140000       1.599418       0.035609       0.394079
       4.150000       1.591105       0.035954       0.386557
       4.160000       1.583341       0.036272       0.379529
       4.170000       1.578912       0.036583       0.373185
       4.180000       1.580436       0.036913       0.367693
       4.190000       1.590058       0.037287       0.363184
       4.200000       1.609256       0.037728       0.359742
       4.210000       1.638711       0.038252       0.357410
       4.220000       1.678198       0.038871       0.356213
       4.230000       1.726463       0.039591       0.356180
       4.240000       1.781102       0.040410       0.357373
       4.250000       1.838504       0.041322       0.359896
       4.260000       1.893989       0.042312       0.363894
       4.270000       1.942251       0.043363       0.369534
       4.280000       1.978140       0.044450       0.376968
       4.290000       1.997647       0.045546       0.386294
       4.300000       1.998756       0.046626       0.397512
       4.310000       1.981828       0.047666       0.410497
       4.320000       1.949366       0.048647       0.424974
       4.330000       1.905317       0.049563       0.440526
       4.340000       1.854253       0.050419       0.456622
       4.350000       1.800674       0.051237       0.472672
       4.360000       1.748555       0.052050       0.488095
       4.370000       1.701092       0.052899       0.502397
       4.380000       1.660605       0.053824       0.515211
       4.390000       1.628535       0.054856       0.526317
       4.400000       1.605531       0.056011       0.535632
       4.410000       1.591605       0.057286       0.543177
       4.420000       1.586345       0.058661       0.549037
       4.430000       1.589161       0.060101       0.553329
       4.440000       1.599527       0.061562       0.556168
       4.450000       1.617141       0.063001       0.557656
       4.460000       1.641952       0.064385       0.557877
       4.470000       1.674027       0.065698       0.556908
       4.480000       1.713315       0.066946       0.554834
       4.490000       1.759386       0.068145       0.551764
       4.500000       1.811242       0.069318       0.547843
       4.510000       1.867228       0.070483       0.543243
       4.520000       1.925063       0.071649       0.538156
       4.530000       1.981961       0.072817       0.532784
       4.540000       2.034853       0.073981       0.527336
       4.550000       2.080698       0.075135       0.522032
       4.560000       2.116902       0.076276       0.517122
       4.570000       2.141757       0.077402       0.512887
       4.580000       2.154779       0.078506       0.509648
       4.590000       2.156787       0.079568       0.507759
       4.600000       2.149683       0.080558       0.507586
       4.610000       2.136010       0.081430       0.509483
       4.620000       2.118483       0.082140       0.513765
       4.630000       2.099652       0.082662       0.520670
       4.640000       2.081755       0.083002       0.530327
       4.650000       2.066727       0.083208       0.542723
       4.660000       2.056262       0.083360       0.557680
       4.670000       2.051831       0.083561       0.574842
       4.680000       2.054607       0.083919       0.593688
       4.690000       2.065260       0.084529       0.613566
       4.700000       2.083688       0.085469       0.633761
       4.710000       2.108741       0.086794       0.653578
       4.720000       2.138088       0.088531       0.672413
       4.730000       2.168295       0.090683       0.689807
       4.740000       2.195199       0.093221       0.705467
       4.750000       2.214523       0.096085       0.719250
       4.760000       2.222588       0.099178       0.731144
       4.770000       2.216914       0.102369       0.741229
       4.780000       2.196542       0.105501       0.749643
       4.790000       2.162040       0.108409       0.756546
       4.800000       2.115253       0.110943       0.762089
       4.810000       2.058929       0.112998       0.766394
       4.820000       1.996333       0.114521       0.769549
       4.830000       1.930913       0.115517       0.771610
       4.840000       1.866026       0.116025       0.772625
       4.850000       1.804724       0.116099       0.772654
       4.860000       1.749597       0.115794       0.771792
       4.870000       1.702669       0.115170       0.770197
       4.880000       1.665357       0.114299       0.768109
       4.890000       1.638497       0.113278       0.765875
       4.900000       1.622379       0.112226       0.763967
       4.910000       1.616798       0.111277       0.762968
       4.920000       1.621082       0.110562       0.763541
       4.930000       1.634109       0.110193       0.766348
       4.940000       1.654332       0.110258       0.771947
       4.950000       1.679846       0.110814       0.780702
       4.960000       1.708499       0.111893       0.792704
       4.970000       1.738062       0.113498       0.807743
       4.980000       1.766419       0.115614       0.825318
       4.990000       1.791765       0.118198       0.844703
       5.000000       1.812803       0.121181       0.865053
       5.010000       1.828929       0.124469       0.885524
       5.020000       1.840331       0.127941       0.905398
       5.030000       1.847974       0.131452       0.924163
       5.040000       1.853436       0.134851       0.941543
       5.050000       1.858649       0.137991       0.957483
       5.060000       1.865655       0.140757       0.972091
       5.070000       1.876428       0.143093       0.985562
       5.080000       1.892769       0.145018       0.998114
       5.090000       1.916216       0.146626       1.009930
       5.100000       1.947921       0.148066       1.021125
       5.110000       1.988482       0.149505       1.031735
       5.120000       2.037766       0.151099       1.041729
       5.130000       2.094781       0.152966       1.051049
       5.140000       2.157648       0.155174       1.059687
       5.150000       2.223736       0.157737       1.067766
       5.160000       2.289975       0.160612       1.075620
       5.170000       2.353312       0.163699       1.083840
       5.180000       2.411198       0.166854       1.093241
       5.190000       2.461928       0.169914       1.104751
       5.200000       2.504715       0.172725       1.119239
       5.210000       2.539524       0.175192       1.137337
       5.220000       2.566792       0.177296       1.159296
       5.230000       2.587238       0.179101       1.184930
       5.240000       2.601800       0.180725       1.213642
       5.250000       2.611661       0.182304       1.244533
       5.260000       2.618252       0.183961       1.276545
       5.270000       2.623177       0.185791       1.308605
       5.280000       2.628118       0.187862       1.339745
       5.290000       2.634764       0.190240       1.369161
       5.300000       2.644814       0.193002       1.396249
       5.310000       2.660002       0.196247       1.420605
       5.320000       2.682093       0.200091       1.442031
       5.330000       2.712802       0.204645       1.460556
       5.340000       2.753603       0.209985       1.476464
       5.350000       2.805506       0.216122       1.490322
       5.360000       2.868855       0.222977       1.502946
       5.370000       2.943261       0.230368       1.515298
       5.380000       3.027750       0.238023       1.528280
       5.390000       3.121128       0.245605       1.542502
       5.400000       3.222477       0.252767       1.558057
       5.410000       3.331596       0.259206       1.574404
       5.420000       3.449203       0.264710       1.590388
       5.430000       3.576840       0.269165       1.604412
       5.440000       3.716516       0.272547       1.614726
       5.450000       3.870265       0.274889       1.619761
       5.460000       4.039685       0.276268       1.618448
       5.470000       4.225517       0.276805       1.610440
       5.480000       4.427186       0.276673       1.596190
       5.490000       4.642305       0.276095       1.576896
       5.500000       4.866216       0.275333       1.554346
       5.510000       5.091742       0.274665       1.530706
       5.520000       5.309371       0.274351       1.508320
       5.530000       5.508057       0.274602       1.489512
       5.540000       5.676626       0.275542       1.476443
       5.550000       5.805575       0.277182       1.470990
       5.560000       5.888784       0.279409       1.474681
       5.570000       5.924623       0.282006       1.488656
       5.580000       5.916040       0.284687       1.513635
       5.590000       5.869631       0.287155       1.549874
       5.600000       5.794007       0.289151       1.597095
       5.610000       5.698001       0.290480       1.654376
       5.620000       5.589174       0.291011       1.720040
       5.630000       5.472944       0.290664       1.791576
       5.640000       5.352426       0.289402       1.865690
       5.650000       5.228943       0.287246       1.938533
       5.660000       5.102961       0.284309       2.006144
       5.670000       4.975120       0.280812       2.065005
       5.680000       4.846996       0.277071       2.112563
       5.690000       4.721337       0.273460       2.147511
       5.700000       4.601741       0.270355       2.169782
       5.710000       4.491982       0.268087       2.180328
       5.720000       4.395267       0.266914       2.180842
       5.730000       4.313700       0.267012       2.173516
       5.740000       4.248071       0.268478       2.160798
       5.750000       4.197932       0.271334       2.145097
       5.760000       4.161842       0.275532       2.128429
       5.770000       4.137605       0.280949       2.112143
       5.780000       4.122445       0.287393       2.096862
       5.790000       4.113100       0.294599       2.082703
       5.800000       4.105966       0.302252       2.069715
       5.810000       4.097357       0.310013       2.058323
       5.820000       4.083933       0.317562       2.049598
       5.830000       4.063216       0.324642       2.045207
       5.840000       4.034056       0.331091       2.047085
       5.850000       3.996854       0.336867       2.056965
       5.860000       3.953409       0.342047       2.075945
       5.870000       3.906395       0.346825       2.104187
       5.880000       3.858624       0.351488       2.140828
       5.890000       3.812398       0.356384       2.184115
       5.900000       3.769215       0.361870       2.231759
       5.910000       3.729939       0.368268       2.281450
       5.920000       3.695330       0.375832       2.331389
       5.930000       3.666611       0.384745       2.380665
       5.940000       3.645756       0.395134       2.429318
       5.950000       3.635317       0.407102       2.478100
       5.960000       3.637872       0.420749       2.528050
       5.970000       3.655306       0.436188       2.580064
       5.980000       3.688180       0.453529       2.634575
       5.990000       3.735334       0.472854       2.691400
       6.000000       3.793788       0.494195       2.749728
       6.010000       3.858921       0.517508       2.808207
       6.020000       3.924893       0.542667       2.865057
       6.030000       3.985226       0.569456       2.918192
       6.040000       4.033493       0.597568       2.965352
       6.050000       4.064019       0.626605       3.004300
       6.060000       4.072515       0.656107       3.033107
       6.070000       4.056579       0.685623       3.050482
       6.080000       4.016017       0.714823       3.056042
       6.090000       3.952945       0.743624       3.050404
       6.100000       3.871635       0.772272       3.035022
       6.110000       3.778026       0.801322       3.011847
       6.120000       3.678942       0.831502       2.982956
       6.130000       3.581143       0.863470       2.950307
       6.140000       3.490436       0.897552       2.915676
       6.150000       3.411047       0.933508       2.880711
       6.160000       3.345335       0.970399       2.846968
       6.170000       3.293831       1.006609       2.815839
       6.180000       3.255505       1.040049       2.788386
       6.190000       3.228183       1.068545       2.765167
       6.200000       3.209071       1.090335       2.746141
       6.210000       3.195349       1.104513       2.730693
       6.220000       3.184805       1.111263       2.717772
       6.230000       3.176370       1.111781       2.706100
       6.240000       3.170396       1.107916       2.694377
       6.250000       3.168548       1.101675       2.681431
       6.260000       3.173321       1.094758       2.666309
       6.270000       3.187330       1.088242       2.648303
       6.280000       3.212620       1.082482       2.626974
       6.290000       3.250154       1.077227       2.602159
       6.300000       3.299550       1.071892       2.573923
       6.310000       3.359041       1.065906       2.542447
       6.320000       3.425606       1.059009       2.507879
       6.330000       3.495250       1.051411       2.470249
       6.340000       3.563410       1.043768       2.429526
       6.350000       3.625425       1.037019       2.385816
       6.360000       3.676999       1.032160       2.339607
       6.370000       3.714568       1.030058       2.291946
       6.380000       3.735544       1.031356       2.244442
       6.390000       3.738453       1.036457       2.199051
       6.400000       3.722984       1.045550       2.157731
       6.410000       3.689973       1.058643       2.122031
       6.420000       3.641312       1.075544       2.092769
       6.430000       3.579808       1.095845       2.069840
       6.440000       3.508943       1.118906       2.052232
       6.450000       3.432499       1.143892       2.038218
       6.460000       3.354048       1.169853       2.025710
       6.470000       3.276457       1.195820       2.012727
       6.480000       3.201599       1.220908       1.997866
       6.490000       3.130413       1.244389       1.980662
       6.500000       3.063295       1.265761       1.961711
       6.510000       3.000619       1.284770       1.942511
       6.520000       2.943135       1.301374       1.925055
       6.530000       2.892040       1.315618       1.911284
       6.540000       2.848738       1.327458       1.902573
       6.550000       2.814444       1.336598       1.899356
       6.560000       2.789867       1.342445       1.900961
       6.570000       2.775110       1.344209       1.905696
       6.580000       2.769825       1.341122       1.911143
       6.590000       2.773528       1.332684       1.914625
       6.600000       2.785936       1.318832       1.913736
       6.610000       2.807146       1.299995       1.906818
       6.620000       2.837608       1.277036       1.893264
       6.630000       2.877897       1.251129       1.873574
       6.640000       2.928393       1.223627       1.849173
       6.650000       2.988993       1.195945       1.822062
       6.660000       3.058910       1.169444       1.794405
       6.670000       3.136635       1.145329       1.768163
       6.680000       3.220048       1.124555       1.744824
       6.690000       3.306666       1.107799       1.725265
       6.700000       3.393931       1.095472       1.709729
       6.710000       3.479465       1.087793       1.697898
       6.720000       3.561241       1.084870       1.689013
       6.730000       3.637712       1.086750       1.682002
       6.740000       3.707953       1.093439       1.675583
       6.750000       3.771768       1.104884       1.668347
       6.760000       3.829674       1.120933       1.658866
       6.770000       3.882656       1.141290       1.645842
       6.780000       3.931755       1.165466       1.628308
       6.790000       3.977681       1.192754       1.605819
       6.800000       4.020630       1.222233       1.578555
       6.810000       4.060408       1.252840       1.547277
       6.820000       4.096768       1.283503       1.513161
       6.830000       4.129814       1.313301       1.477602
       6.840000       4.160284       1.341577       1.442075
       6.850000       4.189608       1.367966       1.408074
       6.860000       4.219688       1.392344       1.377069
       6.870000       4.252445       1.414734       1.350438
       6.880000       4.289275       1.435243       1.329358
       6.890000       4.330587       1.454019       1.314689
       6.900000       4.375557       1.471209       1.306876
       6.910000       4.422119       1.486869       1.305899
       6.920000       4.467184       1.500809       1.311270
       6.930000       4.507016       1.512425       1.322047
       6.940000       4.537743       1.520615       1.336871
       6.950000       4.555959       1.523871       1.354031
       6.960000       4.559347       1.520597       1.371585
       6.970000       4.547179       1.509572       1.387557
       6.980000       4.520500       1.490394       1.400209
       6.990000       4.481907       1.463712       1.408324
       7.000000       4.434942       1.431152       1.411409
       7.010000       4.383348       1.394968       1.409746
       7.020000       4.330431       1.357578       1.404250
       7.030000       4.278737       1.321151       1.396199
       7.040000       4.230065       1.287360       1.386915
       7.050000       4.185714       1.257309       1.377513
       7.060000       4.146786       1.231611       1.368761
       7.070000       4.114395       1.210526       1.361058
       7.080000       4.089678       1.194105       1.354483
       7.090000       4.073601       1.182278       1.348857
       7.100000       4.066621       1.174856       1.343806
       7.110000       4.068354       1.171461       1.338829
       7.120000       4.077466       1.171449       1.333399
       7.130000       4.091898       1.173886       1.327097
       7.140000       4.109435       1.177616       1.319711
       7.150000       4.128384       1.181435       1.311265
       7.160000       4.148042       1.184287       1.301945
       7.170000       4.168747       1.185435       1.291978
       7.180000       4.191513       1.184521       1.281523
       7.190000       4.217508       1.181512       1.270602
       7.200000       4.247612       1.176610       1.259082
       7.210000       4.282160       1.170166       1.246700
       7.220000       4.320822       1.162666       1.233115
       7.230000       4.362556       1.154732       1.217992
       7.240000       4.405626       1.147122       1.201102
       7.250000       4.447740       1.140693       1.182412
       7.260000       4.486310       1.136354       1.162138
       7.270000       4.518798       1.135026       1.140759
       7.280000       4.543076       1.137595       1.118971
       7.290000       4.557759       1.144859       1.097597
       7.300000       4.562461       1.157435       1.077449
       7.310000       4.557937       1.175644       1.059199
       7.320000       4.546008       1.199412       1.043297
       7.330000       4.529236       1.228192       1.029970
       7.340000       4.510380       1.260961       1.019296
       7.350000       4.491777       1.296285       1.011301
       7.360000       4.474889       1.332462       1.006032
       7.370000       4.460161       1.367727       1.003586
       7.380000       4.447231       1.400500       1.004086
       7.390000       4.435357       1.429623       1.007630
       7.400000       4.423882       1.454539       1.014219
       7.410000       4.412579       1.475360       1.023692
       7.420000       4.401808       1.492788       1.035692
       7.430000       4.392507       1.507883       1.049683
       7.440000       4.386025       1.521750       1.065039
       7.450000       4.383869       1.535223       1.081176
       7.460000       4.387394       1.548643       1.097653
       7.470000       4.397516       1.561787       1.114203
       7.480000       4.414480       1.573948       1.130650
       7.490000       4.437692       1.584123       1.146755
       7.500000       4.465671       1.591250       1.162077
       7.510000       4.496181       1.594429       1.175906
       7.520000       4.526554       1.593111       1.187310
       7.530000       4.554182       1.587250       1.195267
       7.540000       4.577003       1.577393       1.198855
       7.550000       4.593842       1.564685       1.197421
       7.560000       4.604490       1.550727       1.190719
       7.570000       4.609559       1.537311       1.178974
       7.580000       4.610190       1.526096       1.162850
       7.590000       4.607713       1.518301       1.143320
       7.600000       4.603334       1.514500       1.121462
       7.610000       4.597887       1.514550       1.098241
       7.620000       4.591671       1.517686       1.074357
       7.630000       4.584410       1.522745       1.050224
       7.640000       4.575307       1.528478       1.026073
       7.650000       4.563198       1.533839       1.002124
       7.660000       4.546744       1.538162       0.978731
       7.670000       4.524608       1.541200       0.956428
       7.680000       4.495605       1.543047       0.935865
       7.690000       4.458836       1.544019       0.917674
       7.700000       4.413870       1.544546       0.902324
       7.710000       4.360936       1.545090       0.890034
       7.720000       4.301088       1.546084       0.880751
       7.730000       4.236233       1.547881       0.874206
       7.740000       4.168986       1.550712       0.870002
       7.750000       4.102374       1.554639       0.867734
       7.760000       4.039454       1.559511       0.867082
       7.770000       3.982904       1.564917       0.867900
       7.780000       3.934685       1.570204       0.870240
       7.790000       3.895783       1.574581       0.874339
       7.800000       3.866072       1.577326       0.880525
       7.810000       3.844254       1.578023       0.889091
       7.820000       3.827928       1.576727       0.900157
       7.830000       3.813795       1.573984       0.913553
       7.840000       3.798076       1.570696       0.928780
       7.850000       3.777146       1.567891       0.945038
       7.860000       3.748293       1.566490       0.961346
       7.870000       3.710367       1.567138       0.976693
       7.880000       3.664061       1.570115       0.990200
       7.890000       3.611671       1.575300       1.001239
       7.900000       3.556394       1.582158       1.009489
       7.910000       3.501442       1.589766       1.014935
       7.920000       3.449286       1.596905       1.017831
       7.930000       3.401275       1.602268       1.018636
       7.940000       3.357682       1.604730       1.017941
       7.950000       3.318070       1.603583       1.016401
       7.960000       3.281773       1.598657       1.014634
       7.970000       3.248284       1.590286       1.013128
       7.980000       3.217414       1.579174       1.012138
       7.990000       3.189237       1.566231       1.011628
       8.000000       3.163907       1.552436       1.011271
       8.010000       3.141488       1.538759       1.010530
       8.020000       3.121848       1.526097       1.008808
       8.030000       3.104638       1.515214       1.005626
       8.040000       3.089280       1.506653       1.000774
       8.050000       3.074925       1.500668       0.994376
       8.060000       3.060382       1.497195       0.986837
       8.070000       3.044108       1.495910       0.978697
       8.080000       3.024323       1.496338       0.970452
       8.090000       2.999294       1.497999       0.962398
       8.100000       2.967700       1.500540       0.954562
       8.110000       2.928947       1.503850       0.946710
       8.120000       2.883354       1.508123       0.938449
       8.130000       2.832171       1.513873       0.929361
       8.140000       2.777429       1.521851       0.919163
       8.150000       2.721649       1.532879       0.907825
       8.160000       2.667470       1.547624       0.895637
       8.170000       2.617285       1.566406       0.883193
       8.180000       2.572984       1.589091       0.871289
       8.190000       2.535841       1.615125       0.860783
       8.200000       2.506490       1.643677       0.852431
       8.210000       2.484942       1.673837       0.846778
       8.220000       2.470603       1.704793       0.844100
       8.230000       2.462332       1.735946       0.844421
       8.240000       2.458588       1.766936       0.847590
       8.250000       2.457681       1.797615       0.853367
       8.260000       2.458086       1.827987       0.861500
       8.270000       2.458705       1.858139       0.871745
       8.280000       2.459037       1.888210       0.883835
       8.290000       2.459193       1.918373       0.897420
       8.300000       2.459815       1.948836       0.912016
       8.310000       2.461904       1.979795       0.926972
       8.320000       2.466601       2.011319       0.941496
       8.330000       2.474940       2.043192       0.954735
       8.340000       2.487616       2.074789       0.965903
       8.350000       2.504804       2.105089       0.974434
       8.360000       2.526063       2.132864       0.980100
       8.370000       2.550340       2.156980       0.983045
       8.380000       2.576045       2.176666       0.983739
       8.390000       2.601219       2.191649       0.982851
       8.400000       2.623732       2.202103       0.981116
       8.410000       2.641492       2.208462       0.979215
       8.420000       2.652639       2.211177       0.977697
       8.430000       2.655703       2.210530       0.976942
       8.440000       2.649771       2.206581       0.977162
       8.450000       2.634649       2.199244       0.978442
       8.460000       2.610957       2.188443       0.980804
       8.470000       2.580064       2.174248       0.984282
       8.480000       2.543805       2.156921       0.988963
       8.490000       2.504100       2.136868       0.994973
       8.500000       2.462623       2.114538       1.002422
       8.510000       2.420671       2.090344       1.011318
       8.520000       2.379251       2.064622       1.021492
       8.530000       2.339307       2.037681       1.032554
       8.540000       2.301910       2.009899       1.043893
       8.550000       2.268303       1.981856       1.054717
       8.560000       2.239776       1.954456       1.064167
       8.570000       2.217429       1.928957       1.071477
       8.580000       2.201950       1.906908       1.076158
       8.590000       2.193509       1.889978       1.078138
       8.600000       2.191798       1.879736       1.077788
       8.610000       2.196198       1.877441       1.075827
       8.620000       2.205985       1.883892       1.073150
       8.630000       2.220463       1.899335       1.070634
       8.640000       2.238974       1.923459       1.069007
       8.650000       2.260785       1.955449       1.068801
       8.660000       2.284981       1.994118       1.070365
       8.670000       2.310452       2.038078       1.073921
       8.680000       2.336016       2.085937       1.079603
       8.690000       2.360624       2.136460       1.087454
       8.700000       2.383500       2.188675       1.097387
       8.710000       2.404110       2.241903       1.109128
       8.720000       2.421955       2.295707       1.122201
       8.730000       2.436297       2.349761       1.135956
       8.740000       2.445996       2.403675       1.149698
       8.750000       2.449580       2.456828       1.162860
       8.760000       2.445568       2.508277       1.175179
       8.770000       2.432924       2.556810       1.186799
       8.780000       2.411480       2.601119       1.198248
       8.790000       2.382151       2.640007       1.210295
       8.800000       2.346855       2.672562       1.223740
       8.810000       2.308151       2.698260       1.239190
       8.820000       2.268765       2.717047       1.256894
       8.830000       2.231161       2.729406       1.276680
       8.840000       2.197246       2.736348       1.297993
       8.850000       2.168245       2.739260       1.320031
       8.860000       2.144667       2.739610       1.341931
       8.870000       2.126377       2.738609       1.362953
       8.880000       2.112737       2.736973       1.382629
       8.890000       2.102828       2.734869       1.400818
       8.900000       2.095715       2.732047       1.417664
       8.910000       2.090665       2.728080       1.433480
       8.920000       2.087266       2.722619       1.448595
       8.930000       2.085424       2.715604       1.463245
       8.940000       2.085290       2.707417       1.477544
       8.950000       2.087167       2.698969       1.491516
       8.960000       2.091431       2.691681       1.505167
       8.970000       2.098476       2.687361       1.518553
       8.980000       2.108656       2.687967       1.531817
       8.990000       2.122196       2.695293       1.545208
       9.000000       2.139085       2.710645       1.559071
       9.010000       2.158924       2.734560       1.573814
       9.020000       2.180799       2.766652       1.589856
       9.030000       2.203206       2.805617       1.607553
       9.040000       2.224111       2.849428       1.627138
       9.050000       2.241180       2.895686       1.648676
       9.060000       2.252156       2.942009       1.672061
       9.070000       2.255313       2.986381       1.697027
       9.080000       2.249831       3.027339       1.723181
       9.090000       2.235978       3.064004       1.750041
       9.100000       2.215018       3.095999       1.777099
       9.110000       2.188908       3.123322       1.803894
       9.120000       2.159902       3.146222       1.830098
       9.130000       2.130181       3.165110       1.855567
       9.140000       2.101583       3.180483       1.880373
       9.150000       2.075446       3.192872       1.904800
       9.160000       2.052547       3.202810       1.929326
       9.170000       2.033120       3.210811       1.954564
       9.180000       2.016921       3.217371       1.981168
       9.190000       2.003330       3.222942       2.009699
       9.200000       1.991475       3.227857       2.040498
       9.210000       1.980372       3.232188       2.073625
       9.220000       1.969089       3.235571       2.108887
       9.230000       1.956906       3.237088       2.145941
       9.240000       1.943463       3.235316       2.184431
       9.250000       1.928824       3.228605       2.224092
       9.260000       1.913449       3.215492       2.264793
       9.270000       1.898041       3.195088       2.306531
       9.280000       1.883314       3.167264       2.349397
       9.290000       1.869742       3.132559       2.393546
       9.300000       1.857392       3.091903       2.439179
       9.310000       1.845883       3.046295       2.486552
       9.320000       1.834509       2.996601       2.535985
       9.330000       1.822490       2.943546       2.587863
       9.340000       1.809271       2.887869       2.642598
       9.350000       1.794773       2.830533       2.700584
       9.360000       1.779497       2.772856       2.762179
       9.370000       1.764428       2.716475       2.827731
       9.380000       1.750805       2.663169       2.897641
       9.390000       1.739842       2.614602       2.972406
       9.400000       1.732487       2.572086       3.052607
       9.410000       1.729303       2.536408       3.138840
       9.420000       1.730465       2.507789       3.231629
       9.430000       1.735861       2.485959       3.331370
       9.440000       1.745220       2.470331       3.438342
       9.450000       1.758205       2.460191       3.552783
       9.460000       1.774409       2.454858       3.674998
       9.470000       1.793303       2.453751       3.805461
       9.480000       1.814156       2.456371       3.944844
       9.490000       1.836025       2.462210       4.093964
       9.500000       1.857808       2.470611       4.253655
       9.510000       1.878374       2.480643       4.424614
       9.520000       1.896685       2.491029       4.607286
       9.530000       1.911894       2.500199       4.801819
       9.540000       1.923365       2.506458       5.008090
       9.550000       1.930649       2.508230       5.225727
       9.560000       1.933445       2.504287       5.454040
       9.570000       1.931571       2.493903       5.691798
       9.580000       1.924980       2.476912       5.936832
       9.590000       1.913803       2.453703       6.185562
       9.600000       1.898389       2.425163       6.432640
       9.610000       1.879330       2.392604       6.670931
       9.620000       1.857425       2.357647       6.892037
       9.630000       1.833604       2.322066       7.087331
       9.640000       1.808841       2.287572       7.249296
       9.650000       1.784080       2.255598       7.372735
       9.660000       1.760174       2.227119       7.455433
       9.670000       1.737798       2.202570       7.498084
       9.680000       1.717344       2.181910       7.503601
       9.690000       1.698809       2.164783       7.476141
       9.700000       1.681739       2.150740       7.420265
       9.710000       1.665285       2.139402       7.340491
       9.720000       1.648379       2.130529       7.241247
       9.730000       1.630007       2.123958       7.127044
       9.740000       1.609494       2.119457       7.002522
       9.750000       1.586662       2.116548       6.872181
       9.760000       1.561813       2.114383       6.739826
       9.770000       1.535568       2.111777       6.607969
       9.780000       1.508660       2.107428       6.477544
       9.790000       1.481806       2.100278       6.348132
       9.800000       1.455660       2.089856       6.218667
       9.810000       1.430823       2.076437       6.088336
       9.820000       1.407835       2.060938       5.957275
       9.830000       1.387139       2.044625       5.826767
       9.840000       1.369015       2.028756       5.698892
       9.850000       1.353523       2.014304       5.575825
       9.860000       1.340475       2.001805       5.459102
       9.870000       1.329443       1.991309       5.349110
       9.880000       1.319792       1.982422       5.244899
       9.890000       1.310756       1.974425       5.144337
       9.900000       1.301552       1.966488       5.044534
       9.910000       1.291531       1.957944       4.942432
       9.920000       1.280316       1.948563       4.835444
       9.930000       1.267893       1.938724       4.721995
       9.940000       1.254599       1.929391       4.601847
       9.950000       1.241029       1.921891       4.476168
       9.960000       1.227899       1.917585       4.347332
       9.970000       1.215927       1.917539       4.218532
       9.980000       1.205770       1.922325       4.093299
       9.990000       1.197998       1.931948       3.975036
      10.000000       1.193087       1.945884       3.866614
      10.010000       1.191373       1.963144       3.770077
      10.020000       1.192992       1.982346       3.686453
      10.030000       1.197812       2.001781       3.615678
      10.040000       1.205400       2.019517       3.556620
      10.050000       1.215055       2.033548       3.507187
      10.060000       1.225896       2.042042       3.464533
      10.070000       1.236989       2.043644       3.425387
      10.080000       1.247476       2.037783       3.386494
      10.090000       1.256672       2.024847       3.345133
      10.100000       1.264112       2.006152       3.299574
      10.110000       1.269562       1.983678       3.249324
      10.120000       1.273002       1.959664       3.195099
      10.130000       1.274604       1.936187       3.138536
      10.140000       1.274699       1.914837       3.081781
      10.150000       1.273725       1.896574       3.027090
      10.160000       1.272183       1.881751       2.976509
      10.170000       1.270590       1.870274       2.931654
      10.180000       1.269444       1.861794       2.893590
      10.190000       1.269185       1.855862       2.862805
      10.200000       1.270166       1.852010       2.839259
      10.210000       1.272624       1.849767       2.822491
      10.220000       1.276675       1.848645       2.811730
      10.230000       1.282317       1.848114       2.805986
      10.240000       1.289452       1.847574       2.804072
      10.250000       1.297901       1.846345       2.804582
      10.260000       1.307419       1.843683       2.805863
      10.270000       1.317692       1.838853       2.806067
      10.280000       1.328324       1.831249       2.803343
      10.290000       1.338846       1.820528       2.796137
      10.300000       1.348733       1.806709       2.783528
      10.310000       1.357458       1.790177       2.765451
      10.320000       1.364566       1.771600       2.742726
      10.330000       1.369728       1.751783       2.716879
      10.340000       1.372774       1.731535       2.689814
      10.350000       1.373672       1.711574       2.663448
      10.360000       1.372469       1.692501       2.639375
      10.370000       1.369200       1.674799       2.618621
      10.380000       1.363810       1.658841       2.601507
      10.390000       1.356107       1.644880       2.587649
      10.400000       1.345819       1.633045       2.576083
      10.410000       1.332715       1.623325       2.565483
      10.420000       1.316774       1.615543       2.554420
      10.430000       1.298297       1.609316       2.541588
      10.440000       1.277905       1.604014       2.525963
      10.450000       1.256432       1.598762       2.506852
      10.460000       1.234757       1.592546       2.483854
      10.470000       1.213667       1.584428       2.456753
      10.480000       1.193768       1.573830       2.425395
      10.490000       1.175480       1.560785       2.389635
      10.500000       1.159067       1.546033       2.349384
      10.510000       1.144684       1.530898       2.304764
      10.520000       1.132414       1.516975       2.256284
      10.530000       1.122286       1.505739       2.204949
      10.540000       1.114268       1.498214       2.152204
      10.550000       1.108245       1.494795       2.099726
      10.560000       1.104008       1.495241       2.049131
      10.570000       1.101265       1.498827       2.001713
      10.580000       1.099703       1.504574       1.958286
      10.590000       1.099053       1.511507       1.919150
      10.600000       1.099134       1.518850       1.884149
      10.610000       1.099847       1.526120       1.852753
      10.620000       1.101100       1.533093       1.824153
      10.630000       1.102723       1.539703       1.797370
      10.640000       1.104392       1.545900       1.771382
      10.650000       1.105606       1.551526       1.745296
      10.660000       1.105722       1.556256       1.718521
      10.670000       1.104044       1.559602       1.690892
      10.680000       1.099953       1.561004       1.662646
      10.690000       1.093032       1.559989       1.634284
      10.700000       1.083157       1.556360       1.606331
      10.710000       1.070527       1.550330       1.579134
      10.720000       1.055610       1.542543       1.552758
      10.730000       1.039027       1.533940       1.527011
      10.740000       1.021414       1.525508       1.501578
      10.750000       1.003303       1.518036       1.476192
      10.760000       0.985060       1.511948       1.450783
      10.770000       0.966905       1.507282       1.425565
      10.780000       0.948965       1.503774       1.401024
      10.790000       0.931353       1.500980       1.377836
      10.800000       0.914213       1.498381       1.356727
      10.810000       0.897729       1.495471       1.338327
      10.820000       0.882116       1.491820       1.323033
      10.830000       0.867598       1.487147       1.310924
      10.840000       0.854395       1.481385       1.301739
      10.850000       0.842712       1.474717       1.294900
      10.860000       0.832749       1.467576       1.289578
      10.870000       0.824689       1.460586       1.284787
      10.880000       0.818696       1.454450       1.279490
      10.890000       0.814888       1.449799       1.272730
      10.900000       0.813300       1.447023       1.263744
      10.910000       0.813860       1.446148       1.252048
      10.920000       0.816375       1.446802       1.237460
      10.930000       0.820546       1.448282       1.220058
      10.940000       0.826010       1.449704       1.200109
      10.950000       0.832397       1.450187       1.178007
      10.960000       0.839385       1.448994       1.154240
      10.970000       0.846748       1.445635       1.129359
      10.980000       0.854385       1.439898       1.103921
      10.990000       0.862329       1.431865       1.078422
      11.000000       0.870724       1.421885       1.053211
      11.010000       0.879770       1.410514       1.028449
      11.020000       0.889648       1.398389       1.004112
      11.030000       0.900412       1.386069       0.980059
      11.040000       0.911896       1.373876       0.956131
      11.050000       0.923641       1.361819       0.932260
      11.060000       0.934882       1.349612       0.908562
      11.070000       0.944601       1.336800       0.885364
      11.080000       0.951653       1.322929       0.863171
      11.090000       0.954948       1.307706       0.842579
      11.100000       0.953652       1.291105       0.824147
      11.110000       0.947348       1.273376       0.808302
      11.120000       0.936116       1.254978       0.795265
      11.130000       0.920519       1.236480       0.785038
      11.140000       0.901508       1.218470       0.777415
      11.150000       0.880288       1.201514       0.772021
      11.160000       0.858163       1.186138       0.768373
      11.170000       0.836364       1.172818       0.765929
      11.180000       0.815913       1.161930       0.764148
      11.190000       0.797503       1.153675       0.762517
      11.200000       0.781457       1.148005       0.760569
      11.210000       0.767750       1.144596       0.757871
      11.220000       0.756100       1.142872       0.754031
      11.230000       0.746104       1.142102       0.748707
      11.240000       0.737383       1.141517       0.741649
      11.250000       0.729687       1.140439       0.732754
      11.260000       0.722945       1.138362       0.722107
      11.270000       0.717237       1.134977       0.710006
      11.280000       0.712722       1.130148       0.696930
      11.290000       0.709563       1.123893       0.683471
      11.300000       0.707855       1.116384       0.670248
      11.310000       0.707598       1.107955       0.657809
      11.320000       0.708681       1.099085       0.646585
      11.330000       0.710896       1.090346       0.636861
      11.340000       0.713973       1.082328       0.628797
      11.350000       0.717625       1.075586       0.622457
      11.360000       0.721589       1.070621       0.617846
      11.370000       0.725666       1.067883       0.614945
      11.380000       0.729728       1.067748       0.613729
      11.390000       0.733701       1.070476       0.614178
      11.400000       0.737538       1.076152       0.616259
      11.410000       0.741200       1.084661       0.619912
      11.420000       0.744652       1.095714       0.625013
      11.430000       0.747877       1.108928       0.631358
      11.440000       0.750896       1.123900       0.638671
      11.450000       0.753789       1.140208       0.646643
      11.460000       0.756691       1.157342       0.654991
      11.470000       0.759769       1.174560       0.663525
      11.480000       0.763173       1.190793       0.672178
      11.490000       0.766997       1.204674       0.681002
      11.500000       0.771252       1.214731       0.690120
      11.510000       0.775879       1.219715       0.699656
      11.520000       0.780793       1.218926       0.709684
      11.530000       0.785932       1.212421       0.720196
      11.540000       0.791302       1.201019       0.731129
      11.550000       0.796989       1.186130       0.742393
      11.560000       0.803138       1.169477       0.753914
      11.570000       0.809902       1.152792       0.765640
      11.580000       0.817397       1.137570       0.777521
      11.590000       0.825677       1.124882       0.789475
      11.600000       0.834741       1.115288       0.801342
      11.610000       0.844546       1.108843       0.812860
      11.620000       0.855012       1.105184       0.823650
      11.630000       0.865996       1.103688       0.833228
      11.640000       0.877237       1.103625       0.841047
      11.650000       0.888316       1.104283       0.846564
      11.660000       0.898620       1.105035       0.849334
      11.670000       0.907361       1.105344       0.849109
      11.680000       0.913629       1.104782       0.845915
      11.690000       0.916485       1.103064       0.840067
      11.700000       0.915102       1.100091       0.832133
      11.710000       0.908909       1.095980       0.822832
      11.720000       0.897712       1.091022       0.812918
      11.730000       0.881752       1.085582       0.803076
      11.740000       0.861678       1.079990       0.793850
      11.750000       0.838446       1.074461       0.785624
      11.760000       0.813171       1.069069       0.778639
      11.770000       0.786984       1.063776       0.773035
      11.780000       0.760899       1.058501       0.768892
      11.790000       0.735750       1.053199       0.766264
      11.800000       0.712159       1.047933       0.765195
      11.810000       0.690541       1.042902       0.765718
      11.820000       0.671133       1.038427       0.767848
      11.830000       0.654021       1.034895       0.771570
      11.840000       0.639187       1.032686       0.776825
      11.850000       0.626550       1.032078       0.783514
      11.860000       0.616005       1.033139       0.791504
      11.870000       0.607441       1.035630       0.800643
      11.880000       0.600735       1.038947       0.810769
      11.890000       0.595725       1.042157       0.821715
      11.900000       0.592177       1.044118       0.833323
      11.910000       0.589763       1.043664       0.845449
      11.920000       0.588074       1.039786       0.857978
      11.930000       0.586651       1.031763       0.870845
      11.940000       0.585052       1.019238       0.884045
      11.950000       0.582926       1.002257       0.897635
      11.960000       0.580076       0.981283       0.911719
      11.970000       0.576470       0.957171       0.926429
      11.980000       0.572213       0.931068       0.941907
      11.990000       0.567477       0.904241       0.958295
      12.000000       0.562436       0.877887       0.975743
      12.010000       0.557220       0.852963       0.994418
      12.020000       0.551904       0.830109       1.014525
      12.030000       0.546537       0.809647       1.036309
      12.040000       0.541176       0.791642       1.060044
      12.050000       0.535920       0.775983       1.085993
      12.060000       0.530928       0.762464       1.114367
      12.070000       0.526400       0.750849       1.145278
      12.080000       0.522548       0.740929       1.178721
      12.090000       0.519552       0.732550       1.214585
      12.100000       0.517519       0.725600       1.252679
      12.110000       0.516456       0.719971       1.292773
      12.120000       0.516265       0.715504       1.334628
      12.130000       0.516766       0.711969       1.378015
      12.140000       0.517734       0.709098       1.422717
      12.150000       0.518954       0.706656       1.468529
      12.160000       0.520265       0.704529       1.515263
      12.170000       0.521590       0.702788       1.562751
      12.180000       0.522954       0.701684       1.610859
      12.190000       0.524466       0.701586       1.659492
      12.200000       0.526288       0.702884       1.708592
      12.210000       0.528589       0.705895       1.758123
      12.220000       0.531495       0.710797       1.808056
      12.230000       0.535061       0.717628       1.858321
      12.240000       0.539270       0.726334       1.908760
      12.250000       0.544043       0.736830       1.959076
      12.260000       0.549270       0.749058       2.008816
      12.270000       0.554822       0.763009       2.057395
      12.280000       0.560562       0.778705       2.104151
      12.290000       0.566352       0.796169       2.148432
      12.300000       0.572056       0.815390       2.189662
      12.310000       0.577556       0.836309       2.227386
      12.320000       0.582756       0.858809       2.261248
      12.330000       0.587588       0.882718       2.290934
      12.340000       0.592000       0.907796       2.316078
      12.350000       0.595937       0.933708       2.336194
      12.360000       0.599313       0.959977       2.350678
      12.370000       0.601995       0.985950       2.358905
      12.380000       0.603802       1.010805       2.360414
      12.390000       0.604537       1.033601       2.355113
      12.400000       0.604043       1.053366       2.343416
      12.410000       0.602256       1.069170       2.326238
      12.420000       0.599244       1.080173       2.304861
      12.430000       0.595209       1.085635       2.280735
      12.440000       0.590455       1.084943       2.255266
      12.450000       0.585347       1.077674       2.229660
      12.460000       0.580266       1.063711       2.204800
      12.470000       0.575571       1.043350       2.181158
      12.480000       0.571569       1.017343       2.158740
      12.490000       0.568489       0.986848       2.137096
      12.500000       0.566459       0.953293       2.115407
      12.510000       0.565499       0.918198       2.092680
      12.520000       0.565523       0.883007       2.068030
      12.530000       0.566361       0.848950       2.040957
      12.540000       0.567798       0.816979       2.011549
      12.550000       0.569625       0.787754       1.980502
      12.560000       0.571684       0.761675       1.948968
      12.570000       0.573898       0.738937       1.918286
      12.580000       0.576259       0.719591       1.889691
      12.590000       0.578798       0.703587       1.864082
      12.600000       0.581536       0.690809       1.841905
      12.610000       0.584441       0.681091       1.823128
      12.620000       0.587403       0.674227       1.807289
      12.630000       0.590245       0.669975       1.793553
      12.640000       0.592760       0.668059       1.780806
      12.650000       0.594773       0.668179       1.767764
      12.660000       0.596184       0.670035       1.753149
      12.670000       0.596987       0.673345       1.735898
      12.680000       0.597245       0.677875       1.715367
      12.690000       0.597047       0.683438       1.691444
      12.700000       0.596456       0.689874       1.664537
      12.710000       0.595468       0.697011       1.635445
      12.720000       0.593999       0.704634       1.605172
      12.730000       0.591881       0.712494       1.574752
      12.740000       0.588884       0.720351       1.545119
      12.750000       0.584759       0.728048       1.517041
      12.760000       0.579294       0.735576       1.491075
      12.770000       0.572354       0.743084       1.467576
      12.780000       0.563918       0.750837       1.446717
      12.790000       0.554081       0.759126       1.428551
      12.800000       0.543046       0.768162       1.413079
      12.810000       0.531100       0.777997       1.400315
      12.820000       0.518583       0.788486       1.390312
      12.830000       0.505853       0.799307       1.383140
      12.840000       0.493241       0.810022       1.378808
      12.850000       0.481020       0.820154       1.377164
      12.860000       0.469399       0.829277       1.377807
      12.870000       0.458525       0.837090       1.380042
      12.880000       0.448509       0.843466       1.382906
      12.890000       0.439442       0.848467       1.385235
      12.900000       0.431407       0.852330       1.385775
      12.910000       0.424474       0.855410       1.383308
      12.920000       0.418678       0.858120       1.376788
      12.930000       0.414002       0.860843       1.365478
      12.940000       0.410357       0.863873       1.349085
      12.950000       0.407576       0.867370       1.327853
      12.960000       0.405432       0.871373       1.302568
      12.970000       0.403676       0.875845       1.274462
      12.980000       0.402088       0.880743       1.245020
      12.990000       0.400529       0.886071       1.215751
      13.000000       0.398968       0.891891       1.187983
      13.010000       0.397474       0.898289       1.162725
      13.020000       0.396182       0.905295       1.140611
      13.030000       0.395245       0.912804       1.121906
      13.040000       0.394801       0.920519       1.106557
      13.050000       0.394949       0.927963       1.094279
      13.060000       0.395742       0.934563       1.084630
      13.070000       0.397177       0.939775       1.077087
      13.080000       0.399193       0.943221       1.071090
      13.090000       0.401659       0.944783       1.066049
      13.100000       0.404370       0.944612       1.061342
      13.110000       0.407055       0.943062       1.056334
      13.120000       0.409400       0.940566       1.050428
      13.130000       0.411088       0.937531       1.043157
      13.140000       0.411862       0.934280       1.034265
      13.150000       0.411577       0.931064       1.023750
      13.160000       0.410240       0.928128       1.011845
      13.170000       0.408011       0.925775       0.998940
      13.180000       0.405170       0.924386       0.985487
      13.190000       0.402064       0.924391       0.971908
      13.200000       0.399036       0.926182       0.958531
      13.210000       0.396372       0.930003       0.945562
      13.220000       0.394261       0.935859       0.933087
      13.230000       0.392785       0.943459       0.921095
      13.240000       0.391927       0.952248       0.909518
      13.250000       0.391602       0.961509       0.898262
      13.260000       0.391689       0.970519       0.887245
      13.270000       0.392062       0.978716       0.876419
      13.280000       0.392598       0.985787       0.865797
      13.290000       0.393181       0.991647       0.855465
      13.300000       0.393686       0.996324       0.845586
      13.310000       0.393977       0.999785       0.836386
      13.320000       0.393900       1.001792       0.828134
      13.330000       0.393292       1.001843       0.821107
      13.340000       0.391982       0.999219       0.815556
      13.350000       0.389822       0.993148       0.811668
      13.360000       0.386714       0.983051       0.809541
      13.370000       0.382650       0.968762       0.809171
      13.380000       0.377728       0.950671       0.810452
      13.390000       0.372142       0.929690       0.813179
      13.400000       0.366146       0.907074       0.817056
      13.410000       0.359997       0.884188       0.821689
      13.420000       0.353919       0.862287       0.826582
      13.430000       0.348083       0.842401       0.831140
      13.440000       0.342611       0.825280       0.834686
      13.450000       0.337591       0.811397       0.836525
      13.460000       0.333093       0.800965       0.836042
      13.470000       0.329172       0.793956       0.832819
      13.480000       0.325868       0.790119       0.826744
      13.490000       0.323201       0.789004       0.818050
      13.500000       0.321156       0.789992       0.807278
      13.510000       0.319692       0.792333       0.795163
      13.520000       0.318744       0.795211       0.782480
      13.530000       0.318243       0.797823       0.769913
      13.540000       0.318144       0.799468       0.757974
      13.550000       0.318432       0.799639       0.746968
      13.560000       0.319127       0.798104       0.736999
      13.570000       0.320266       0.794946       0.727990
      13.580000       0.321876       0.790523       0.719718
      13.590000       0.323949       0.785368       0.711848
      13.600000       0.326428       0.780036       0.703995
      13.610000       0.329200       0.774966       0.695792
      13.620000       0.332101       0.770392       0.686958
      13.630000       0.334932       0.766326       0.677355
      13.640000       0.337477       0.762603       0.667004
      13.650000       0.339534       0.758966       0.656078
      13.660000       0.340932       0.755150       0.644858
      13.670000       0.341546       0.750952       0.633687
      13.680000       0.341300       0.746277       0.622909
      13.690000       0.340159       0.741150       0.612819
      13.700000       0.338123       0.735697       0.603618
      13.710000       0.335228       0.730122       0.595393
      13.720000       0.331536       0.724657       0.588110
      13.730000       0.327136       0.719525       0.581641
      13.740000       0.322138       0.714891       0.575792
      13.750000       0.316659       0.710846       0.570345
      13.760000       0.310829       0.707403       0.565096
      13.770000       0.304786       0.704524       0.559890
      13.780000       0.298681       0.702147       0.554641
      13.790000       0.292668       0.700197       0.549343
      13.800000       0.286898       0.698575       0.544072
      13.810000       0.281505       0.697135       0.538967
      13.820000       0.276596       0.695667       0.534211
      13.830000       0.272253       0.693909       0.529987
      13.840000       0.268537       0.691601       0.526454
      13.850000       0.265504       0.688558       0.523709
      13.860000       0.263212       0.684739       0.521788
      13.870000       0.261727       0.680275       0.520675
      13.880000       0.261113       0.675441       0.520334
      13.890000       0.261429       0.670565       0.520752
      13.900000       0.262707       0.665947       0.521964
      13.910000       0.264947       0.661790       0.524065
      13.920000       0.268119       0.658195       0.527200
      13.930000       0.272162       0.655187       0.531550
      13.940000       0.277000       0.652763       0.537298
      13.950000       0.282548       0.650917       0.544605
      13.960000       0.288708       0.649655       0.553584
      13.970000       0.295372       0.648984       0.564272
      13.980000       0.302405       0.648898       0.576607
      13.990000       0.309644       0.649352       0.590415
      14.000000       0.316898       0.650229       0.605399
      14.010000       0.323947       0.651321       0.621152
      14.020000       0.330556       0.652337       0.637156
      14.030000       0.336481       0.652961       0.652814
      14.040000       0.341485       0.652934       0.667477
      14.050000       0.345355       0.652139       0.680507
      14.060000       0.347918       0.650641       0.691352
      14.070000       0.349046       0.648660       0.699625
      14.080000       0.348658       0.646496       0.705156
      14.090000       0.346708       0.644451       0.708006
      14.100000       0.343181       0.642763       0.708432
      14.110000       0.338104       0.641587       0.706820
      14.120000       0.331561       0.641018       0.703600
      14.130000       0.323713       0.641126       0.699176
      14.140000       0.314817       0.641994       0.693877
      14.150000       0.305213       0.643737       0.687945
      14.160000       0.295287       0.646473       0.681559
      14.170000       0.285424       0.650284       0.674865
      14.180000       0.275953       0.655152       0.668002
      14.190000       0.267119       0.660904       0.661105
      14.200000       0.259077       0.667174       0.654300
      14.210000       0.251901       0.673407       0.647704
      14.220000       0.245609       0.678932       0.641426
      14.230000       0.240190       0.683083       0.635576
      14.240000       0.235626       0.685375       0.630271
      14.250000       0.231902       0.685649       0.625619
      14.260000       0.229005       0.684127       0.621695
      14.270000       0.226915       0.681365       0.618508
      14.280000       0.225596       0.678106       0.615989
      14.290000       0.224985       0.675115       0.613983
      14.300000       0.224990       0.673046       0.612265
      14.310000       0.225493       0.672355       0.610574
      14.320000       0.226362       0.673284       0.608651
      14.330000       0.227458       0.675859       0.606286
      14.340000       0.228651       0.679907       0.603366
      14.350000       0.229818       0.685073       0.599897
      14.360000       0.230840       0.690828       0.596004
      14.370000       0.231597       0.696513       0.591888
      14.380000       0.231965       0.701396       0.587776
      14.390000       0.231830       0.704782       0.583862
      14.400000       0.231104       0.706135       0.580273
      14.410000       0.229759       0.705187       0.577061
      14.420000       0.227839       0.701977       0.574217
      14.430000       0.225462       0.696823       0.571704
      14.440000       0.222798       0.690222       0.569489
      14.450000       0.220037       0.682740       0.567573
      14.460000       0.217352       0.674911       0.565990
      14.470000       0.214880       0.667169       0.564805
      14.480000       0.212697       0.659799       0.564086
      14.490000       0.210822       0.652903       0.563888
      14.500000       0.209217       0.646381       0.564239
      14.510000       0.207796       0.639952       0.565136
      14.520000       0.206446       0.633217       0.566552
      14.530000       0.205043       0.625772       0.568435
      14.540000       0.203478       0.617321       0.570704
      14.550000       0.201673       0.607761       0.573239
      14.560000       0.199593       0.597199       0.575880
      14.570000       0.197237       0.585912       0.578436
      14.580000       0.194639       0.574281       0.580710
      14.590000       0.191857       0.562728       0.582533
      14.600000       0.188969       0.551669       0.583799
      14.610000       0.186066       0.541470       0.584470
      14.620000       0.183243       0.532410       0.584582
      14.630000       0.180585       0.524656       0.584210
      14.640000       0.178154       0.518257       0.583442
      14.650000       0.175993       0.513165       0.582337
      14.660000       0.174124       0.509279       0.580895
      14.670000       0.172557       0.506489       0.579042
      14.680000       0.171292       0.504698       0.576629
      14.690000       0.170311       0.503820       0.573454
      14.700000       0.169581       0.503762       0.569295
      14.710000       0.169053       0.504392       0.563949
      14.720000       0.168663       0.505538       0.557271
      14.730000       0.168347       0.506994       0.549211
      14.740000       0.168046       0.508560       0.539831
      14.750000       0.167708       0.510074       0.529301
      14.760000       0.167296       0.511444       0.517864
      14.770000       0.166788       0.512659       0.505785
      14.780000       0.166186       0.513796       0.493311
      14.790000       0.165518       0.515012       0.480648
      14.800000       0.164837       0.516517       0.467971
      14.810000       0.164215       0.518540       0.455453
      14.820000       0.163729       0.521274       0.443280
      14.830000       0.163456       0.524841       0.431657
      14.840000       0.163456       0.529267       0.420796
      14.850000       0.163774       0.534471       0.410895
      14.860000       0.164435       0.540287       0.402113
      14.870000       0.165456       0.546491       0.394564
      14.880000       0.166842       0.552833       0.388309
      14.890000       0.168600       0.559059       0.383364
      14.900000       0.170731       0.564933       0.379710
      14.910000       0.173231       0.570262       0.377303
      14.920000       0.176095       0.574936       0.376087
      14.930000       0.179318       0.578954       0.375994
      14.940000       0.182898       0.582427       0.376941
      14.950000       0.186832       0.585534       0.378813
      14.960000       0.191105       0.588444       0.381458
      14.970000       0.195673       0.591222       0.384681
      14.980000       0.200457       0.593762       0.388256
      14.990000       0.205339       0.595771       0.391943
      15.000000       0.210184       0.596813       0.395515
      15.010000       0.214856       0.596406       0.398773
      15.020000       0.219238       0.594125       0.401563
      15.030000       0.223242       0.589710       0.403774
      15.040000       0.226819       0.583123       0.405340
      15.050000       0.229959       0.574570       0.406223
      15.060000       0.232686       0.564459       0.406408
      15.070000       0.235059       0.553328       0.405895
      15.080000       0.237155       0.541741       0.404704
      15.090000       0.239048       0.530209       0.402882
      15.100000       0.240798       0.519137       0.400511
      15.110000       0.242440       0.508800       0.397695
      15.120000       0.243990       0.499356       0.394549
      15.130000       0.245450       0.490859       0.391175
      15.140000       0.246810       0.483283       0.387643
      15.150000       0.248046       0.476541       0.383989
      15.160000       0.249122       0.470512       0.380217
      15.170000       0.249993       0.465063       0.376312
      15.180000       0.250620       0.460092       0.372262
      15.190000       0.250978       0.455551       0.368069
      15.200000       0.251064       0.451480       0.363772
      15.210000       0.250893       0.447998       0.359449
      15.220000       0.250496       0.445278       0.355220
      15.230000       0.249906       0.443483       0.351233
      15.240000       0.249147       0.442709       0.347641
      15.250000       0.248210       0.442920       0.344588
      15.260000       0.247049       0.443922       0.342184
      15.270000       0.245573       0.445374       0.340486
      15.280000       0.243666       0.446841       0.339493
      15.290000       0.241210       0.447881       0.339144
      15.300000       0.238121       0.448139       0.339330
      15.310000       0.234377       0.447432       0.339914
      15.320000       0.230035       0.445784       0.340752
      15.330000       0.225227       0.443413       0.341703
      15.340000       0.220138       0.440669       0.342632
      15.350000       0.214965       0.437955       0.343396
      15.360000       0.209889       0.435644       0.343844
      15.370000       0.205043       0.434027       0.343805
      15.380000       0.200503       0.433276       0.343101
      15.390000       0.196298       0.433439       0.341569
      15.400000       0.192420       0.434453       0.339082
      15.410000       0.188838       0.436167       0.335592
      15.420000       0.185519       0.438370       0.331148
      15.430000       0.182428       0.440823       0.325905
      15.440000       0.179538       0.443291       0.320104
      15.450000       0.176834       0.445570       0.314028
      15.460000       0.174306       0.447521       0.307963
      15.470000       0.171952       0.449073       0.302152
      15.480000       0.169774       0.450227       0.296777
      15.490000       0.167774       0.451030       0.291951
      15.500000       0.165956       0.451553       0.287720
      15.510000       0.164316       0.451875       0.284077
      15.520000       0.162846       0.452082       0.280974
      15.530000       0.161532       0.452268       0.278342
      15.540000       0.160358       0.452528       0.276112
      15.550000       0.159309       0.452939       0.274235
      15.560000       0.158374       0.453537       0.272690
      15.570000       0.157546       0.454289       0.271483
      15.580000       0.156815       0.455090       0.270632
      15.590000       0.156172       0.455765       0.270154
      15.600000       0.155596       0.456078       0.270041
      15.610000       0.155062       0.455755       0.270255
      15.620000       0.154536       0.454530       0.270723
      15.630000       0.153985       0.452181       0.271340
      15.640000       0.153379       0.448585       0.271988
      15.650000       0.152695       0.443744       0.272545
      15.660000       0.151923       0.437793       0.272911
      15.670000       0.151062       0.430980       0.273021
      15.680000       0.150134       0.423635       0.272855
      15.690000       0.149176       0.416121       0.272442
      15.700000       0.148244       0.408796       0.271850
      15.710000       0.147412       0.401979       0.271163
      15.720000       0.146755       0.395933       0.270454
      15.730000       0.146348       0.390859       0.269762
      15.740000       0.146253       0.386896       0.269075
      15.750000       0.146515       0.384121       0.268326
      15.760000       0.147156       0.382551       0.267404
      15.770000       0.148178       0.382141       0.266172
      15.780000       0.149560       0.382784       0.264499
      15.790000       0.151255       0.384313       0.262285
      15.800000       0.153196       0.386510       0.259481
      15.810000       0.155295       0.389130       0.256105
      15.820000       0.157446       0.391930       0.252246
      15.830000       0.159545       0.394714       0.248056
      15.840000       0.161499       0.397365       0.243730
      15.850000       0.163238       0.399867       0.239470
      15.860000       0.164730       0.402301       0.235461
      15.870000       0.165971       0.404802       0.231838
      15.880000       0.166980       0.407517       0.228684
      15.890000       0.167784       0.410541       0.226027
      15.900000       0.168411       0.413879       0.223862
      15.910000       0.168879       0.417416       0.222160
      15.920000       0.169197       0.420923       0.220891
      15.930000       0.169368       0.424085       0.220028
      15.940000       0.169389       0.426554       0.219552
      15.950000       0.169261       0.428015       0.219453
      15.960000       0.168986       0.428244       0.219727
      15.970000       0.168576       0.427138       0.220370
      15.980000       0.168049       0.424723       0.221377
      15.990000       0.167434       0.421135       0.222724
      16.000000       0.166767       0.416586       0.224360
      16.010000       0.166091       0.411341       0.226199
      16.020000       0.165452       0.405687       0.228114
      16.030000       0.164896       0.399915       0.229945
      16.040000       0.164461       0.394289       0.231519
      16.050000       0.164169       0.389018       0.232659
      16.060000       0.164024       0.384223       0.233205
      16.070000       0.164004       0.379922       0.233024
      16.080000       0.164063       0.376026       0.232016
      16.090000       0.164141       0.372355       0.230126
      16.100000       0.164174       0.368679       0.227350
      16.110000       0.164107       0.364763       0.223746
      16.120000       0.163906       0.360420       0.219438
      16.130000       0.163564       0.355546       0.214613
      16.140000       0.163093       0.350141       0.209507
      16.150000       0.162524       0.344297       0.204370
      16.160000       0.161889       0.338180       0.199441
      16.170000       0.161218       0.331992       0.194921
      16.180000       0.160533       0.325936       0.190957
      16.190000       0.159855       0.320207       0.187643
      16.200000       0.159213       0.314973       0.185024
      16.210000       0.158642       0.310380       0.183110
      16.220000       0.158183       0.306553       0.181879
      16.230000       0.157878       0.303589       0.181285
      16.240000       0.157756       0.301552       0.181258
      16.250000       0.157838       0.300464       0.181702
      16.260000       0.158132       0.300298       0.182498
      16.270000       0.158642       0.300978       0.183513
      16.280000       0.159369       0.302379       0.184610
      16.290000       0.160305       0.304348       0.185673
      16.300000       0.161433       0.306719       0.186616
      16.310000       0.162712       0.309337       0.187394
      16.320000       0.164076       0.312063       0.187997
      16.330000       0.165434       0.314774       0.188440
      16.340000       0.166686       0.317353       0.188749
      16.350000       0.167744       0.319668       0.188949
      16.360000       0.168547       0.321571       0.189052
      16.370000       0.169068       0.322894       0.189055
      16.380000       0.169316       0.323475       0.188938
      16.390000       0.169320       0.323186       0.188668
      16.400000       0.169118       0.321964       0.188206
      16.410000       0.168751       0.319834       0.187505
      16.420000       0.168256       0.316905       0.186525
      16.430000       0.167655       0.313355       0.185240
      16.440000       0.166955       0.309397       0.183648
      16.450000       0.166133       0.305250       0.181776
      16.460000       0.165145       0.301118       0.179685
      16.470000       0.163925       0.297170       0.177461
      16.480000       0.162400       0.293516       0.175205
      16.490000       0.160504       0.290200       0.173014
      16.500000       0.158195       0.287196       0.170972
      16.510000       0.155477       0.284425       0.169137
      16.520000       0.152401       0.281781       0.167541
      16.530000       0.149067       0.279166       0.166190
      16.540000       0.145601       0.276512       0.165069
      16.550000       0.142134       0.273792       0.164150
      16.560000       0.138779       0.271026       0.163396
      16.570000       0.135625       0.268274       0.162770
      16.580000       0.132731       0.265622       0.162245
      16.590000       0.130131       0.263164       0.161810
      16.600000       0.127836       0.260987       0.161477
      16.610000       0.125839       0.259152       0.161287
      16.620000       0.124115       0.257683       0.161306
      16.630000       0.122629       0.256563       0.161610
      16.640000       0.121339       0.255754       0.162274
      16.650000       0.120208       0.255216       0.163347
      16.660000       0.119213       0.254936       0.164840
      16.670000       0.118346       0.254941       0.166716
      16.680000       0.117614       0.255285       0.168895
      16.690000       0.117036       0.256022       0.171263
      16.700000       0.116626       0.257166       0.173702
      16.710000       0.116391       0.258660       0.176111
      16.720000       0.116323       0.260364       0.178423
      16.730000       0.116401       0.262065       0.180615
      16.740000       0.116590       0.263509       0.182702
      16.750000       0.116851       0.264437       0.184719
      16.760000       0.117142       0.264629       0.186710
      16.770000       0.117425       0.263941       0.188706
      16.780000       0.117666       0.262335       0.190721
      16.790000       0.117848       0.259890       0.192748
      16.800000       0.117965       0.256791       0.194761
      16.810000       0.118023       0.253292       0.196731
      16.820000       0.118033       0.249661       0.198627
      16.830000       0.117997       0.246133       0.200422
      16.840000       0.117907       0.242877       0.202088
      16.850000       0.117740       0.239991       0.203598
      16.860000       0.117468       0.237510       0.204926
      16.870000       0.117067       0.235425       0.206066
      16.880000       0.116527       0.233700       0.207040
      16.890000       0.115856       0.232284       0.207913
      16.900000       0.115081       0.231116       0.208788
      16.910000       0.114244       0.230139       0.209793
      16.920000       0.113402       0.229308       0.211059
      16.930000       0.112616       0.228605       0.212695
      16.940000       0.111949       0.228041       0.214766
      16.950000       0.111458       0.227654       0.217292
      16.960000       0.111186       0.227496       0.220240
      16.970000       0.111152       0.227603       0.223539
      16.980000       0.111348       0.227977       0.227090
      16.990000       0.111732       0.228575       0.230783
      17.000000       0.112238       0.229310       0.234519
      17.010000       0.112788       0.230076       0.238224
      17.020000       0.113303       0.230768       0.241867
      17.030000       0.113724       0.231301       0.245461
      17.040000       0.114017       0.231612       0.249049
      17.050000       0.114176       0.231655       0.252677
      17.060000       0.114220       0.231393       0.256374
      17.070000       0.114180       0.230781       0.260126
      17.080000       0.114094       0.229772       0.263874
      17.090000       0.113992       0.228316       0.267520
      17.100000       0.113896       0.226377       0.270938
      17.110000       0.113804       0.223951       0.273993
      17.120000       0.113700       0.221082       0.276548
      17.130000       0.113546       0.217861       0.278479
      17.140000       0.113298       0.214421       0.279678
      17.150000       0.112919       0.210918       0.280053
      17.160000       0.112386       0.207516       0.279545
      17.170000       0.111702       0.204362       0.278123
      17.180000       0.110895       0.201575       0.275799
      17.190000       0.110005       0.199230       0.272628
      17.200000       0.109078       0.197359       0.268709
      17.210000       0.108155       0.195955       0.264181
      17.220000       0.107265       0.194990       0.259225
      17.230000       0.106424       0.194426       0.254045
      17.240000       0.105642       0.194228       0.248857
      17.250000       0.104924       0.194359       0.243868
      17.260000       0.104279       0.194777       0.239255
      17.270000       0.103721       0.195430       0.235150
      17.280000       0.103272       0.196260       0.231629
      17.290000       0.102963       0.197206       0.228700
      17.300000       0.102829       0.198220       0.226314
      17.310000       0.102894       0.199271       0.224378
      17.320000       0.103170       0.200355       0.222779
      17.330000       0.103642       0.201480       0.221410
      17.340000       0.104272       0.202670       0.220189
      17.350000       0.104997       0.203945       0.219071
      17.360000       0.105748       0.205309       0.218049
      17.370000       0.106461       0.206741       0.217147
      17.380000       0.107088       0.208193       0.216413
      17.390000       0.107614       0.209596       0.215901
      17.400000       0.108049       0.210866       0.215668
      17.410000       0.108427       0.211920       0.215759
      17.420000       0.108789       0.212687       0.216210
      17.430000       0.109175       0.213117       0.217044
      17.440000       0.109614       0.213188       0.218278
      17.450000       0.110122       0.212899       0.219922
      17.460000       0.110701       0.212264       0.221984
      17.470000       0.111345       0.211293       0.224463
      17.480000       0.112034       0.209986       0.227345
      17.490000       0.112735       0.208334       0.230602
      17.500000       0.113411       0.206328       0.234192
      17.510000       0.114020       0.203977       0.238061
      17.520000       0.114529       0.201320       0.242146
      17.530000       0.114919       0.198434       0.246369
      17.540000       0.115191       0.195431       0.250627
      17.550000       0.115358       0.192455       0.254789
      17.560000       0.115443       0.189668       0.258700
      17.570000       0.115460       0.187242       0.262202
      17.580000       0.115415       0.185340       0.265172
      17.590000       0.115298       0.184098       0.267545
      17.600000       0.115083       0.183609       0.269333
      17.610000       0.114737       0.183908       0.270623
      17.620000       0.114231       0.184962       0.271552
      17.630000       0.113548       0.186675       0.272284
      17.640000       0.112693       0.188887       0.272977
      17.650000       0.111684       0.191391       0.273764
      17.660000       0.110545       0.193963       0.274739
      17.670000       0.109296       0.196393       0.275952
      17.680000       0.107947       0.198521       0.277417
      17.690000       0.106498       0.200262       0.279113
      17.700000       0.104951       0.201605       0.281005
      17.710000       0.103319       0.202591       0.283049
      17.720000       0.101631       0.203280       0.285202
      17.730000       0.099930       0.203722       0.287425
      17.740000       0.098276       0.203931       0.289668
      17.750000       0.096728       0.203891       0.291859
      17.760000       0.095346       0.203565       0.293890
      17.770000       0.094181       0.202908       0.295614
      17.780000       0.093272       0.201886       0.296858
      17.790000       0.092643       0.200471       0.297439
      17.800000       0.092306       0.198645       0.297199
      17.810000       0.092250       0.196397       0.296029
      17.820000       0.092447       0.193731       0.293884
      17.830000       0.092849       0.190680       0.290791
      17.840000       0.093389       0.187320       0.286840
      17.850000       0.093986       0.183767       0.282172
      17.860000       0.094556       0.180168       0.276958
      17.870000       0.095015       0.176685       0.271386
      17.880000       0.095291       0.173472       0.265643
      17.890000       0.095335       0.170658       0.259909
      17.900000       0.095123       0.168337       0.254345
      17.910000       0.094655       0.166560       0.249083
      17.920000       0.093958       0.165340       0.244226
      17.930000       0.093078       0.164649       0.239839
      17.940000       0.092074       0.164425       0.235965
      17.950000       0.091006       0.164584       0.232628
      17.960000       0.089929       0.165025       0.229843
      17.970000       0.088881       0.165644       0.227621
      17.980000       0.087888       0.166355       0.225960
      17.990000       0.086961       0.167103       0.224839
      18.000000       0.086100       0.167872       0.224217
      18.010000       0.085301       0.168674       0.224030
      18.020000       0.084562       0.169543       0.224196
      18.030000       0.083883       0.170510       0.224622
      18.040000       0.083269       0.171598       0.225216
      18.050000       0.082731       0.172816       0.225893
      18.060000       0.082283       0.174159       0.226583
      18.070000       0.081940       0.175614       0.227223
      18.080000       0.081716       0.177156       0.227752
      18.090000       0.081619       0.178747       0.228095
      18.100000       0.081654       0.180330       0.228161
      18.110000       0.081816       0.181828       0.227837
      18.120000       0.082094       0.183154       0.227013
      18.130000       0.082470       0.184217       0.225598
      18.140000       0.082920       0.184930       0.223548
      18.150000       0.083411       0.185210       0.220881
      18.160000       0.083902       0.184980       0.217685
      18.170000       0.084345       0.184169       0.214103
      18.180000       0.084688       0.182722       0.210320
      18.190000       0.084881       0.180623       0.206536
      18.200000       0.084888       0.177917       0.202946
      18.210000       0.084696       0.174715       0.199719
      18.220000       0.084320       0.171189       0.196991
      18.230000       0.083803       0.167546       0.194858
      18.240000       0.083210       0.164003       0.193380
      18.250000       0.082616       0.160754       0.192572
      18.260000       0.082091       0.157950       0.192416
      18.270000       0.081691       0.155684       0.192856
      18.280000       0.081451       0.153987       0.193803
      18.290000       0.081385       0.152829       0.195144
      18.300000       0.081497       0.152133       0.196753
      18.310000       0.081779       0.151796       0.198501
      18.320000       0.082222       0.151704       0.200269
      18.330000       0.082808       0.151758       0.201960
      18.340000       0.083510       0.151881       0.203500
      18.350000       0.084291       0.152020       0.204840
      18.360000       0.085100       0.152145       0.205952
      18.370000       0.085879       0.152233       0.206826
      18.380000       0.086565       0.152269       0.207473
      18.390000       0.087105       0.152239       0.207921
      18.400000       0.087461       0.152131       0.208219
      18.410000       0.087616       0.151937       0.208430
      18.420000       0.087579       0.151651       0.208622
      18.430000       0.087380       0.151267       0.208855
      18.440000       0.087067       0.150784       0.209165
      18.450000       0.086693       0.150204       0.209561
      18.460000       0.086313       0.149536       0.210021
      18.470000       0.085971       0.148798       0.210500
      18.480000       0.085703       0.148010       0.210945
      18.490000       0.085528       0.147189       0.211304
      18.500000       0.085453       0.146343       0.211538
      18.510000       0.085476       0.145466       0.211618
      18.520000       0.085594       0.144547       0.211524
      18.530000       0.085800       0.143573       0.211234
      18.540000       0.086088       0.142539       0.210722
      18.550000       0.086457       0.141450       0.209958
      18.560000       0.086906       0.140335       0.208922
      18.570000       0.087432       0.139239       0.207616
      18.580000       0.088035       0.138222       0.206077
      18.590000       0.088707       0.137344       0.204380
      18.600000       0.089431       0.136646       0.202633
      18.610000       0.090177       0.136144       0.200954
      18.620000       0.090898       0.135821       0.199445
      18.630000       0.091538       0.135631       0.198176
      18.640000       0.092034       0.135515       0.197159
      18.650000       0.092331       0.135408       0.196354
      18.660000       0.092389       0.135254       0.195678
      18.670000       0.092199       0.135015       0.195029
      18.680000       0.091779       0.134669       0.194317
      18.690000       0.091174       0.134205       0.193498
      18.700000       0.090433       0.133616       0.192586
      18.710000       0.089608       0.132892       0.191661
      18.720000       0.088735       0.132028       0.190851
      18.730000       0.087839       0.131029       0.190299
      18.740000       0.086935       0.129919       0.190133
      18.750000       0.086032       0.128748       0.190436
      18.760000       0.085142       0.127584       0.191232
      18.770000       0.084280       0.126502       0.192482
      18.780000       0.083468       0.125570       0.194090
      18.790000       0.082731       0.124842       0.195918
      18.800000       0.082096       0.124353       0.197804
      18.810000       0.081582       0.124115       0.199582
      18.820000       0.081200       0.124124       0.201103
      18.830000       0.080939       0.124354       0.202253
      18.840000       0.080772       0.124757       0.202961
      18.850000       0.080650       0.125265       0.203210
      18.860000       0.080514       0.125792       0.203021
      18.870000       0.080304       0.126243       0.202450
      18.880000       0.079968       0.126521       0.201569
      18.890000       0.079474       0.126543       0.200451
      18.900000       0.078811       0.126243       0.199163
      18.910000       0.077987       0.125588       0.197757
      18.920000       0.077028       0.124580       0.196276
      18.930000       0.075970       0.123266       0.194760
      18.940000       0.074853       0.121731       0.193258
      18.950000       0.073719       0.120089       0.191833
      18.960000       0.072608       0.118463       0.190559
      18.970000       0.071557       0.116966       0.189515
      18.980000       0.070597       0.115685       0.188776
      18.990000       0.069751       0.114666       0.188402
      19.000000       0.069033       0.113913       0.188433
      19.010000       0.068443       0.113385       0.188883
      19.020000       0.067968       0.113004       0.189739
      19.030000       0.067581       0.112667       0.190959
      19.040000       0.067246       0.112268       0.192473
      19.050000       0.066921       0.111711       0.194189
      19.060000       0.066569       0.110934       0.196002
      19.070000       0.066165       0.109913       0.197809
      19.080000       0.065701       0.108669       0.199529
      19.090000       0.065189       0.107257       0.201106
      19.100000       0.064653       0.105759       0.202523
      19.110000       0.064127       0.104270       0.203793
      19.120000       0.063643       0.102882       0.204947
      19.130000       0.063227       0.101676       0.206018
      19.140000       0.062897       0.100711       0.207025
      19.150000       0.062665       0.100018       0.207961
      19.160000       0.062536       0.099603       0.208795
      19.170000       0.062519       0.099442       0.209474
      19.180000       0.062617       0.099487       0.209945
      19.190000       0.062836       0.099663       0.210158
      19.200000       0.063176       0.099881       0.210090
      19.210000       0.063628       0.100045       0.209737
      19.220000       0.064179       0.100071       0.209118
      19.230000       0.064804       0.099904       0.208266
      19.240000       0.065482       0.099531       0.207221
      19.250000       0.066194       0.098978       0.206035
      19.260000       0.066933       0.098309       0.204771
      19.270000       0.067700       0.097606       0.203511
      19.280000       0.068509       0.096960       0.202351
      19.290000       0.069370       0.096453       0.201395
      19.300000       0.070290       0.096150       0.200742
      19.310000       0.071259       0.096089       0.200466
      19.320000       0.072260       0.096277       0.200595
      19.330000       0.073261       0.096693       0.201095
      19.340000       0.074227       0.097285       0.201869
      19.350000       0.075124       0.097979       0.202760
      19.360000       0.075924       0.098688       0.203580
      19.370000       0.076610       0.099329       0.204134
      19.380000       0.077171       0.099828       0.204262
      19.390000       0.077603       0.100137       0.203860
      19.400000       0.077904       0.100237       0.202896
      19.410000       0.078070       0.100140       0.201407
      19.420000       0.078095       0.099881       0.199486
      19.430000       0.077977       0.099512       0.197258
      19.440000       0.077724       0.099086       0.194858
      19.450000       0.077355       0.098650       0.192400
      19.460000       0.076908       0.098238       0.189967
      19.470000       0.076436       0.097872       0.187600
      19.480000       0.076004       0.097562       0.185308
      19.490000       0.075677       0.097313       0.183082
      19.500000       0.075510       0.097125       0.180912
      19.510000       0.075541       0.096997       0.178802
      19.520000       0.075786       0.096919       0.176769
      19.530000       0.076237       0.096872       0.174843
      19.540000       0.076868       0.096823       0.173051
      19.550000       0.077638       0.096732       0.171411
      19.560000       0.078502       0.096559       0.169930
      19.570000       0.079415       0.096279       0.168608
      19.580000       0.080345       0.095891       0.167436
      19.590000       0.081270       0.095427       0.166404
      19.600000       0.082182       0.094942       0.165500
      19.610000       0.083081       0.094501       0.164716
      19.620000       0.083965       0.094163       0.164051
      19.630000       0.084823       0.093966       0.163515
      19.640000       0.085631       0.093918       0.163128
      19.650000       0.086351       0.093991       0.162925
      19.660000       0.086938       0.094135       0.162937
      19.670000       0.087356       0.094281       0.163190
      19.680000       0.087584       0.094361       0.163687
      19.690000       0.087627       0.094325       0.164404
      19.700000       0.087518       0.094149       0.165292
      19.710000       0.087305       0.093851       0.166278
      19.720000       0.087050       0.093476       0.167284
      19.730000       0.086810       0.093094       0.168238
      19.740000       0.086631       0.092774       0.169098
      19.750000       0.086542       0.092570       0.169859
      19.760000       0.086546       0.092510       0.170557
      19.770000       0.086628       0.092588       0.171255
      19.780000       0.086755       0.092771       0.172029
      19.790000       0.086891       0.093007       0.172949
      19.800000       0.087001       0.093238       0.174066
      19.810000       0.087068       0.093407       0.175409
      19.820000       0.087089       0.093471       0.176986
      19.830000       0.087080       0.093404       0.178783
      19.840000       0.087065       0.093195       0.180771
      19.850000       0.087073       0.092844       0.182906
      19.860000       0.087124       0.092356       0.185133
      19.870000       0.087231       0.091739       0.187386
      19.880000       0.087395       0.091009       0.189594
      19.890000       0.087607       0.090185       0.191676
      19.900000       0.087852       0.089300       0.193549
      19.910000       0.088109       0.088394       0.195120
      19.920000       0.088348       0.087507       0.196300
      19.930000       0.088539       0.086679       0.197007
      19.940000       0.088651       0.085938       0.197176
      19.950000       0.088658       0.085299       0.196772
      19.960000       0.088542       0.084771       0.195800
      19.970000       0.088297       0.084355       0.194310
      19.980000       0.087928       0.084047       0.192394
      19.990000       0.087454       0.083843       0.190168
      20.000000       0.086903       0.083734       0.187759
