  # energy grid [eV]     epsi_x  epsi_y  epsi_z
       0.000000            NaN            NaN            NaN
       0.010000       0.000115       0.000010       0.000160
       0.020000       0.000230       0.000019       0.000321
       0.030000       0.000344       0.000029       0.000482
       0.040000       0.000459       0.000039       0.000644
       0.050000       0.000574       0.000048       0.000806
       0.060000       0.000689       0.000058       0.000970
       0.070000       0.000804       0.000068       0.001136
       0.080000       0.000919       0.000077       0.001303
       0.090000       0.001034       0.000087       0.001472
       0.100000       0.001149       0.000097       0.001643
       0.110000       0.001264       0.000106       0.001817
       0.120000       0.001379       0.000116       0.001994
       0.130000       0.001494       0.000126       0.002174
       0.140000       0.001609       0.000135       0.002358
       0.150000       0.001725       0.000145       0.002545
       0.160000       0.001840       0.000155       0.002738
       0.170000       0.001956       0.000164       0.002935
       0.180000       0.002071       0.000174       0.003137
       0.190000       0.002187       0.000184       0.003346
       0.200000       0.002302       0.000193       0.003561
       0.210000       0.002418       0.000203       0.003784
       0.220000       0.002534       0.000213       0.004014
       0.230000       0.002650       0.000222       0.004253
       0.240000       0.002766       0.000232       0.004502
       0.250000       0.002882       0.000242       0.004762
       0.260000       0.002999       0.000251       0.005033
       0.270000       0.003115       0.000261       0.005317
       0.280000       0.003231       0.000271       0.005616
       0.290000       0.003348       0.000281       0.005930
       0.300000       0.003465       0.000290       0.006262
       0.310000       0.003582       0.000300       0.006614
       0.320000       0.003699       0.000310       0.006987
       0.330000       0.003816       0.000320       0.007385
       0.340000       0.003934       0.000329       0.007810
       0.350000       0.004051       0.000339       0.008265
       0.360000       0.004169       0.000349       0.008755
       0.370000       0.004287       0.000358       0.009282
       0.380000       0.004405       0.000368       0.009853
       0.390000       0.004523       0.000378       0.010473
       0.400000       0.004641       0.000388       0.011148
       0.410000       0.004760       0.000398       0.011886
       0.420000       0.004879       0.000407       0.012695
       0.430000       0.004998       0.000417       0.013585
       0.440000       0.005117       0.000427       0.014567
       0.450000       0.005236       0.000437       0.015654
       0.460000       0.005356       0.000446       0.016862
       0.470000       0.005476       0.000456       0.018205
       0.480000       0.005596       0.000466       0.019703
       0.490000       0.005716       0.000476       0.021374
       0.500000       0.005836       0.000486       0.023240
       0.510000       0.005957       0.000496       0.025320
       0.520000       0.006078       0.000505       0.027630
       0.530000       0.006199       0.000515       0.030182
       0.540000       0.006321       0.000525       0.032975
       0.550000       0.006443       0.000535       0.035989
       0.560000       0.006565       0.000545       0.039176
       0.570000       0.006687       0.000555       0.042452
       0.580000       0.006810       0.000565       0.045684
       0.590000       0.006932       0.000575       0.048697
       0.600000       0.007056       0.000585       0.051277
       0.610000       0.007179       0.000594       0.053207
       0.620000       0.007303       0.000604       0.054301
       0.630000       0.007427       0.000614       0.054452
       0.640000       0.007551       0.000624       0.053662
       0.650000       0.007675       0.000634       0.052036
       0.660000       0.007800       0.000644       0.049760
       0.670000       0.007926       0.000654       0.047054
       0.680000       0.008051       0.000664       0.044130
       0.690000       0.008177       0.000674       0.041165
       0.700000       0.008303       0.000684       0.038291
       0.710000       0.008430       0.000694       0.035593
       0.720000       0.008557       0.000704       0.033120
       0.730000       0.008684       0.000714       0.030892
       0.740000       0.008812       0.000724       0.028910
       0.750000       0.008940       0.000734       0.027165
       0.760000       0.009068       0.000744       0.025639
       0.770000       0.009197       0.000754       0.024314
       0.780000       0.009326       0.000765       0.023170
       0.790000       0.009456       0.000775       0.022188
       0.800000       0.009586       0.000785       0.021351
       0.810000       0.009716       0.000795       0.020643
       0.820000       0.009847       0.000805       0.020052
       0.830000       0.009979       0.000815       0.019564
       0.840000       0.010110       0.000825       0.019170
       0.850000       0.010242       0.000836       0.018862
       0.860000       0.010375       0.000846       0.018632
       0.870000       0.010508       0.000856       0.018474
       0.880000       0.010642       0.000866       0.018384
       0.890000       0.010776       0.000876       0.018359
       0.900000       0.010910       0.000887       0.018394
       0.910000       0.011045       0.000897       0.018489
       0.920000       0.011180       0.000907       0.018643
       0.930000       0.011316       0.000917       0.018855
       0.940000       0.011453       0.000928       0.019126
       0.950000       0.011590       0.000938       0.019457
       0.960000       0.011727       0.000948       0.019851
       0.970000       0.011865       0.000959       0.020311
       0.980000       0.012003       0.000969       0.020841
       0.990000       0.012143       0.000980       0.021447
       1.000000       0.012282       0.000990       0.022133
       1.010000       0.012422       0.001000       0.022908
       1.020000       0.012563       0.001011       0.023781
       1.030000       0.012704       0.001021       0.024762
       1.040000       0.012846       0.001032       0.025864
       1.050000       0.012988       0.001042       0.027101
       1.060000       0.013131       0.001053       0.028489
       1.070000       0.013275       0.001063       0.030050
       1.080000       0.013419       0.001074       0.031804
       1.090000       0.013564       0.001084       0.033777
       1.100000       0.013710       0.001095       0.035997
       1.110000       0.013856       0.001105       0.038496
       1.120000       0.014003       0.001116       0.041307
       1.130000       0.014150       0.001127       0.044462
       1.140000       0.014298       0.001137       0.047994
       1.150000       0.014447       0.001148       0.051925
       1.160000       0.014596       0.001158       0.056267
       1.170000       0.014746       0.001169       0.061004
       1.180000       0.014897       0.001180       0.066083
       1.190000       0.015049       0.001191       0.071398
       1.200000       0.015201       0.001201       0.076775
       1.210000       0.015354       0.001212       0.081959
       1.220000       0.015508       0.001223       0.086629
       1.230000       0.015662       0.001234       0.090420
       1.240000       0.015818       0.001245       0.092988
       1.250000       0.015974       0.001255       0.094074
       1.260000       0.016131       0.001266       0.093573
       1.270000       0.016288       0.001277       0.091560
       1.280000       0.016447       0.001288       0.088268
       1.290000       0.016606       0.001299       0.084034
       1.300000       0.016766       0.001310       0.079221
       1.310000       0.016927       0.001321       0.074164
       1.320000       0.017088       0.001332       0.069130
       1.330000       0.017251       0.001343       0.064308
       1.340000       0.017414       0.001354       0.059817
       1.350000       0.017579       0.001365       0.055717
       1.360000       0.017744       0.001376       0.052031
       1.370000       0.017910       0.001387       0.048752
       1.380000       0.018077       0.001398       0.045859
       1.390000       0.018245       0.001410       0.043322
       1.400000       0.018414       0.001421       0.041108
       1.410000       0.018584       0.001432       0.039185
       1.420000       0.018755       0.001443       0.037522
       1.430000       0.018927       0.001455       0.036091
       1.440000       0.019100       0.001466       0.034866
       1.450000       0.019274       0.001477       0.033826
       1.460000       0.019448       0.001488       0.032952
       1.470000       0.019624       0.001500       0.032227
       1.480000       0.019801       0.001511       0.031638
       1.490000       0.019979       0.001523       0.031173
       1.500000       0.020159       0.001534       0.030823
       1.510000       0.020339       0.001546       0.030580
       1.520000       0.020520       0.001557       0.030438
       1.530000       0.020703       0.001569       0.030394
       1.540000       0.020886       0.001580       0.030443
       1.550000       0.021071       0.001592       0.030584
       1.560000       0.021257       0.001603       0.030817
       1.570000       0.021444       0.001615       0.031143
       1.580000       0.021632       0.001627       0.031563
       1.590000       0.021822       0.001638       0.032082
       1.600000       0.022013       0.001650       0.032704
       1.610000       0.022205       0.001662       0.033436
       1.620000       0.022398       0.001674       0.034286
       1.630000       0.022593       0.001686       0.035264
       1.640000       0.022788       0.001697       0.036382
       1.650000       0.022986       0.001709       0.037654
       1.660000       0.023184       0.001721       0.039097
       1.670000       0.023384       0.001733       0.040732
       1.680000       0.023586       0.001745       0.042580
       1.690000       0.023788       0.001757       0.044670
       1.700000       0.023992       0.001769       0.047031
       1.710000       0.024198       0.001781       0.049697
       1.720000       0.024405       0.001793       0.052706
       1.730000       0.024614       0.001806       0.056098
       1.740000       0.024824       0.001818       0.059915
       1.750000       0.025035       0.001830       0.064195
       1.760000       0.025249       0.001842       0.068969
       1.770000       0.025463       0.001855       0.074253
       1.780000       0.025680       0.001867       0.080034
       1.790000       0.025897       0.001879       0.086255
       1.800000       0.026117       0.001892       0.092800
       1.810000       0.026338       0.001904       0.099470
       1.820000       0.026561       0.001917       0.105974
       1.830000       0.026786       0.001929       0.111937
       1.840000       0.027012       0.001942       0.116928
       1.850000       0.027240       0.001954       0.120519
       1.860000       0.027470       0.001967       0.122372
       1.870000       0.027702       0.001980       0.122311
       1.880000       0.027936       0.001993       0.120364
       1.890000       0.028171       0.002005       0.116763
       1.900000       0.028409       0.002018       0.111881
       1.910000       0.028648       0.002031       0.106155
       1.920000       0.028889       0.002044       0.100007
       1.930000       0.029132       0.002057       0.093791
       1.940000       0.029378       0.002070       0.087770
       1.950000       0.029625       0.002083       0.082120
       1.960000       0.029875       0.002096       0.076939
       1.970000       0.030126       0.002109       0.072270
       1.980000       0.030380       0.002122       0.068116
       1.990000       0.030636       0.002135       0.064458
       2.000000       0.030894       0.002149       0.061262
       2.010000       0.031154       0.002162       0.058490
       2.020000       0.031417       0.002175       0.056102
       2.030000       0.031682       0.002189       0.054060
       2.040000       0.031949       0.002202       0.052328
       2.050000       0.032219       0.002216       0.050875
       2.060000       0.032491       0.002229       0.049674
       2.070000       0.032765       0.002243       0.048701
       2.080000       0.033042       0.002256       0.047936
       2.090000       0.033322       0.002270       0.047363
       2.100000       0.033604       0.002284       0.046969
       2.110000       0.033889       0.002298       0.046743
       2.120000       0.034177       0.002312       0.046678
       2.130000       0.034467       0.002325       0.046768
       2.140000       0.034760       0.002339       0.047010
       2.150000       0.035056       0.002353       0.047404
       2.160000       0.035355       0.002368       0.047951
       2.170000       0.035657       0.002382       0.048655
       2.180000       0.035961       0.002396       0.049523
       2.190000       0.036269       0.002410       0.050563
       2.200000       0.036580       0.002424       0.051786
       2.210000       0.036894       0.002439       0.053208
       2.220000       0.037211       0.002453       0.054845
       2.230000       0.037531       0.002468       0.056718
       2.240000       0.037855       0.002482       0.058853
       2.250000       0.038182       0.002497       0.061279
       2.260000       0.038512       0.002512       0.064030
       2.270000       0.038846       0.002526       0.067145
       2.280000       0.039183       0.002541       0.070670
       2.290000       0.039524       0.002556       0.074653
       2.300000       0.039869       0.002571       0.079149
       2.310000       0.040217       0.002586       0.084214
       2.320000       0.040569       0.002601       0.089902
       2.330000       0.040925       0.002616       0.096262
       2.340000       0.041285       0.002631       0.103325
       2.350000       0.041649       0.002647       0.111093
       2.360000       0.042017       0.002662       0.119520
       2.370000       0.042389       0.002678       0.128489
       2.380000       0.042765       0.002693       0.137794
       2.390000       0.043146       0.002709       0.147118
       2.400000       0.043531       0.002724       0.156035
       2.410000       0.043921       0.002740       0.164033
       2.420000       0.044315       0.002756       0.170566
       2.430000       0.044714       0.002772       0.175133
       2.440000       0.045118       0.002788       0.177360
       2.450000       0.045526       0.002804       0.177072
       2.460000       0.045940       0.002820       0.174329
       2.470000       0.046358       0.002836       0.169414
       2.480000       0.046782       0.002853       0.162781
       2.490000       0.047211       0.002869       0.154969
       2.500000       0.047645       0.002886       0.146522
       2.510000       0.048085       0.002902       0.137917
       2.520000       0.048531       0.002919       0.129528
       2.530000       0.048982       0.002936       0.121614
       2.540000       0.049439       0.002953       0.114333
       2.550000       0.049902       0.002969       0.107762
       2.560000       0.050371       0.002987       0.101921
       2.570000       0.050846       0.003004       0.096792
       2.580000       0.051328       0.003021       0.092335
       2.590000       0.051816       0.003038       0.088501
       2.600000       0.052311       0.003056       0.085236
       2.610000       0.052813       0.003073       0.082488
       2.620000       0.053322       0.003091       0.080210
       2.630000       0.053837       0.003109       0.078359
       2.640000       0.054361       0.003127       0.076897
       2.650000       0.054891       0.003145       0.075795
       2.660000       0.055429       0.003163       0.075026
       2.670000       0.055975       0.003181       0.074571
       2.680000       0.056530       0.003200       0.074414
       2.690000       0.057092       0.003218       0.074546
       2.700000       0.057662       0.003237       0.074961
       2.710000       0.058242       0.003255       0.075658
       2.720000       0.058830       0.003274       0.076641
       2.730000       0.059427       0.003293       0.077917
       2.740000       0.060034       0.003312       0.079500
       2.750000       0.060649       0.003332       0.081407
       2.760000       0.061275       0.003351       0.083661
       2.770000       0.061911       0.003371       0.086291
       2.780000       0.062557       0.003390       0.089331
       2.790000       0.063214       0.003410       0.092823
       2.800000       0.063881       0.003430       0.096815
       2.810000       0.064559       0.003450       0.101364
       2.820000       0.065249       0.003471       0.106531
       2.830000       0.065951       0.003491       0.112385
       2.840000       0.066665       0.003512       0.118999
       2.850000       0.067391       0.003532       0.126446
       2.860000       0.068130       0.003553       0.134791
       2.870000       0.068882       0.003575       0.144084
       2.880000       0.069648       0.003596       0.154340
       2.890000       0.070427       0.003617       0.165525
       2.900000       0.071221       0.003639       0.177526
       2.910000       0.072030       0.003661       0.190136
       2.920000       0.072854       0.003683       0.203031
       2.930000       0.073693       0.003705       0.215773
       2.940000       0.074549       0.003728       0.227834
       2.950000       0.075421       0.003750       0.238634
       2.960000       0.076311       0.003773       0.247605
       2.970000       0.077218       0.003796       0.254247
       2.980000       0.078144       0.003820       0.258174
       2.990000       0.079089       0.003843       0.259159
       3.000000       0.080053       0.003867       0.257154
       3.010000       0.081038       0.003891       0.252308
       3.020000       0.082043       0.003915       0.244967
       3.030000       0.083070       0.003940       0.235641
       3.040000       0.084120       0.003965       0.224943
       3.050000       0.085193       0.003990       0.213510
       3.060000       0.086290       0.004015       0.201925
       3.070000       0.087413       0.004041       0.190663
       3.080000       0.088561       0.004067       0.180070
       3.090000       0.089736       0.004093       0.170367
       3.100000       0.090939       0.004120       0.161668
       3.110000       0.092171       0.004147       0.154013
       3.120000       0.093433       0.004174       0.147387
       3.130000       0.094727       0.004202       0.141745
       3.140000       0.096053       0.004230       0.137027
       3.150000       0.097414       0.004258       0.133168
       3.160000       0.098810       0.004287       0.130106
       3.170000       0.100243       0.004316       0.127783
       3.180000       0.101715       0.004345       0.126150
       3.190000       0.103227       0.004375       0.125168
       3.200000       0.104781       0.004406       0.124807
       3.210000       0.106379       0.004437       0.125046
       3.220000       0.108023       0.004468       0.125876
       3.230000       0.109716       0.004500       0.127297
       3.240000       0.111459       0.004532       0.129316
       3.250000       0.113256       0.004565       0.131955
       3.260000       0.115108       0.004599       0.135241
       3.270000       0.117019       0.004633       0.139215
       3.280000       0.118991       0.004668       0.143926
       3.290000       0.121029       0.004703       0.149436
       3.300000       0.123134       0.004739       0.155815
       3.310000       0.125312       0.004776       0.163141
       3.320000       0.127567       0.004814       0.171500
       3.330000       0.129901       0.004852       0.180979
       3.340000       0.132321       0.004891       0.191657
       3.350000       0.134831       0.004931       0.203597
       3.360000       0.137437       0.004972       0.216827
       3.370000       0.140145       0.005014       0.231319
       3.380000       0.142961       0.005057       0.246970
       3.390000       0.145892       0.005101       0.263574
       3.400000       0.148947       0.005146       0.280819
       3.410000       0.152132       0.005193       0.298288
       3.420000       0.155458       0.005240       0.315493
       3.430000       0.158934       0.005289       0.331913
       3.440000       0.162572       0.005340       0.347049
       3.450000       0.166383       0.005392       0.360449
       3.460000       0.170381       0.005446       0.371730
       3.470000       0.174580       0.005501       0.380566
       3.480000       0.178997       0.005559       0.386692
       3.490000       0.183650       0.005618       0.389906
       3.500000       0.188559       0.005680       0.390107
       3.510000       0.193745       0.005744       0.387336
       3.520000       0.199234       0.005811       0.381822
       3.530000       0.205054       0.005881       0.373984
       3.540000       0.211235       0.005954       0.364396
       3.550000       0.217814       0.006030       0.353693
       3.560000       0.224829       0.006110       0.342470
       3.570000       0.232326       0.006194       0.331196
       3.580000       0.240354       0.006283       0.320182
       3.590000       0.248972       0.006376       0.309599
       3.600000       0.258245       0.006475       0.299538
       3.610000       0.268248       0.006580       0.290073
       3.620000       0.279066       0.006692       0.281311
       3.630000       0.290796       0.006811       0.273400
       3.640000       0.303550       0.006939       0.266515
       3.650000       0.317457       0.007076       0.260825
       3.660000       0.332663       0.007223       0.256472
       3.670000       0.349335       0.007382       0.253551
       3.680000       0.367665       0.007555       0.252111
       3.690000       0.387870       0.007743       0.252155
       3.700000       0.410192       0.007948       0.253652
       3.710000       0.434900       0.008172       0.256545
       3.720000       0.462286       0.008417       0.260769
       3.730000       0.492658       0.008687       0.266268
       3.740000       0.526317       0.008984       0.273013
       3.750000       0.563539       0.009311       0.281024
       3.760000       0.604523       0.009669       0.290358
       3.770000       0.649325       0.010062       0.301101
       3.780000       0.697768       0.010488       0.313331
       3.790000       0.749328       0.010947       0.327075
       3.800000       0.803006       0.011433       0.342278
       3.810000       0.857235       0.011937       0.358778
       3.820000       0.909860       0.012444       0.376298
       3.830000       0.958276       0.012935       0.394460
       3.840000       0.999740       0.013386       0.412806
       3.850000       1.031856       0.013772       0.430832
       3.860000       1.053106       0.014072       0.448023
       3.870000       1.063233       0.014273       0.463902
       3.880000       1.063346       0.014374       0.478062
       3.890000       1.055690       0.014388       0.490193
       3.900000       1.043186       0.014337       0.500080
       3.910000       1.028897       0.014248       0.507572
       3.920000       1.015596       0.014149       0.512550
       3.930000       1.005488       0.014065       0.514913
       3.940000       1.000116       0.014014       0.514590
       3.950000       1.000360       0.014008       0.511585
       3.960000       1.006503       0.014055       0.506033
       3.970000       1.018317       0.014157       0.498247
       3.980000       1.035149       0.014311       0.488727
       3.990000       1.056040       0.014513       0.478108
       4.000000       1.079867       0.014755       0.467075
       4.010000       1.105496       0.015028       0.456267
       4.020000       1.131904       0.015324       0.446198
       4.030000       1.158215       0.015632       0.437233
       4.040000       1.183667       0.015941       0.429599
       4.050000       1.207539       0.016239       0.423423
       4.060000       1.229166       0.016516       0.418756
       4.070000       1.248047       0.016765       0.415601
       4.080000       1.264042       0.016983       0.413924
       4.090000       1.277516       0.017176       0.413679
       4.100000       1.289366       0.017355       0.414840
       4.110000       1.300880       0.017534       0.417437
       4.120000       1.313499       0.017725       0.421583
       4.130000       1.328560       0.017936       0.427468
       4.140000       1.347097       0.018168       0.435334
       4.150000       1.369753       0.018416       0.445428
       4.160000       1.396837       0.018671       0.457945
       4.170000       1.428497       0.018923       0.472982
       4.180000       1.464948       0.019164       0.490490
       4.190000       1.506653       0.019396       0.510257
       4.200000       1.554362       0.019627       0.531900
       4.210000       1.608957       0.019875       0.554882
       4.220000       1.671153       0.020160       0.578550
       4.230000       1.741144       0.020500       0.602181
       4.240000       1.818259       0.020910       0.625032
       4.250000       1.900743       0.021401       0.646373
       4.260000       1.985715       0.021975       0.665524
       4.270000       2.069381       0.022628       0.681875
       4.280000       2.147552       0.023349       0.694923
       4.290000       2.216387       0.024124       0.704296
       4.300000       2.273191       0.024940       0.709783
       4.310000       2.317000       0.025781       0.711333
       4.320000       2.348718       0.026633       0.709059
       4.330000       2.370774       0.027483       0.703235
       4.340000       2.386441       0.028315       0.694306
       4.350000       2.399075       0.029110       0.682905
       4.360000       2.411506       0.029844       0.669850
       4.370000       2.425682       0.030494       0.656105
       4.380000       2.442509       0.031033       0.642696
       4.390000       2.461862       0.031435       0.630615
       4.400000       2.482737       0.031678       0.620721
       4.410000       2.503550       0.031749       0.613676
       4.420000       2.522563       0.031647       0.609915
       4.430000       2.538278       0.031391       0.609637
       4.440000       2.549638       0.031016       0.612829
       4.450000       2.555966       0.030574       0.619301
       4.460000       2.556702       0.030117       0.628751
       4.470000       2.551188       0.029698       0.640837
       4.480000       2.538692       0.029361       0.655250
       4.490000       2.518774       0.029140       0.671760
       4.500000       2.491804       0.029062       0.690211
       4.510000       2.459340       0.029145       0.710489
       4.520000       2.424108       0.029404       0.732436
       4.530000       2.389548       0.029849       0.755779
       4.540000       2.359116       0.030486       0.780069
       4.550000       2.335587       0.031313       0.804667
       4.560000       2.320543       0.032320       0.828786
       4.570000       2.314142       0.033488       0.851557
       4.580000       2.315157       0.034781       0.872125
       4.590000       2.321260       0.036148       0.889719
       4.600000       2.329478       0.037518       0.903726
       4.610000       2.336709       0.038806       0.913752
       4.620000       2.340168       0.039914       0.919689
       4.630000       2.337677       0.040746       0.921769
       4.640000       2.327827       0.041219       0.920587
       4.650000       2.310063       0.041286       0.917065
       4.660000       2.284714       0.040941       0.912345
       4.670000       2.252919       0.040226       0.907644
       4.680000       2.216352       0.039221       0.904116
       4.690000       2.176805       0.038026       0.902744
       4.700000       2.135770       0.036743       0.904288
       4.710000       2.094210       0.035464       0.909269
       4.720000       2.052642       0.034262       0.917959
       4.730000       2.011467       0.033189       0.930382
       4.740000       1.971380       0.032279       0.946296
       4.750000       1.933621       0.031551       0.965167
       4.760000       1.899988       0.031015       0.986153
       4.770000       1.872612       0.030675       1.008116
       4.780000       1.853666       0.030534       1.029691
       4.790000       1.845118       0.030590       1.049404
       4.800000       1.848593       0.030845       1.065840
       4.810000       1.865338       0.031301       1.077823
       4.820000       1.896227       0.031961       1.084577
       4.830000       1.941768       0.032828       1.085826
       4.840000       2.002053       0.033906       1.081793
       4.850000       2.076654       0.035196       1.073084
       4.860000       2.164441       0.036696       1.060495
       4.870000       2.263368       0.038394       1.044793
       4.880000       2.370274       0.040271       1.026529
       4.890000       2.480806       0.042293       1.005947
       4.900000       2.589574       0.044415       0.982982
       4.910000       2.690626       0.046573       0.957361
       4.920000       2.778242       0.048694       0.928779
       4.930000       2.847859       0.050695       0.897097
       4.940000       2.896847       0.052490       0.862511
       4.950000       2.924803       0.053994       0.825610
       4.960000       2.933292       0.055134       0.787309
       4.970000       2.925183       0.055849       0.748669
       4.980000       2.903899       0.056108       0.710688
       4.990000       2.872829       0.055911       0.674149
       5.000000       2.834967       0.055299       0.639555
       5.010000       2.792750       0.054343       0.607157
       5.020000       2.748007       0.053138       0.577040
       5.030000       2.702020       0.051790       0.549210
       5.040000       2.655670       0.050404       0.523666
       5.050000       2.609673       0.049072       0.500420
       5.060000       2.564791       0.047871       0.479487
       5.070000       2.521922       0.046857       0.460858
       5.080000       2.481989       0.046071       0.444477
       5.090000       2.445701       0.045535       0.430231
       5.100000       2.413325       0.045261       0.417960
       5.110000       2.384574       0.045244       0.407479
       5.120000       2.358663       0.045467       0.398605
       5.130000       2.334486       0.045901       0.391185
       5.140000       2.310870       0.046498       0.385099
       5.150000       2.286854       0.047197       0.380254
       5.160000       2.261930       0.047922       0.376553
       5.170000       2.236182       0.048594       0.373868
       5.180000       2.210263       0.049141       0.372021
       5.190000       2.185270       0.049514       0.370790
       5.200000       2.162560       0.049692       0.369934
       5.210000       2.143573       0.049688       0.369239
       5.220000       2.129727       0.049540       0.368558
       5.230000       2.122357       0.049307       0.367836
       5.240000       2.122702       0.049053       0.367094
       5.250000       2.131847       0.048847       0.366400
       5.260000       2.150599       0.048750       0.365828
       5.270000       2.179278       0.048817       0.365430
       5.280000       2.217487       0.049087       0.365234
       5.290000       2.263914       0.049586       0.365247
       5.300000       2.316260       0.050325       0.365468
       5.310000       2.371365       0.051303       0.365904
       5.320000       2.425573       0.052505       0.366575
       5.330000       2.475317       0.053911       0.367506
       5.340000       2.517785       0.055488       0.368714
       5.350000       2.551446       0.057193       0.370186
       5.360000       2.576226       0.058964       0.371864
       5.370000       2.593303       0.060724       0.373644
       5.380000       2.604638       0.062386       0.375407
       5.390000       2.612487       0.063864       0.377048
       5.400000       2.619036       0.065091       0.378519
       5.410000       2.626142       0.066020       0.379853
       5.420000       2.635093       0.066631       0.381178
       5.430000       2.646366       0.066917       0.382693
       5.440000       2.659461       0.066871       0.384641
       5.450000       2.672970       0.066486       0.387264
       5.460000       2.684946       0.065762       0.390762
       5.470000       2.693514       0.064716       0.395278
       5.480000       2.697494       0.063403       0.400883
       5.490000       2.696762       0.061904       0.407599
       5.500000       2.692195       0.060324       0.415412
       5.510000       2.685264       0.058772       0.424318
       5.520000       2.677523       0.057345       0.434342
       5.530000       2.670265       0.056114       0.445568
       5.540000       2.664464       0.055127       0.458129
       5.550000       2.660938       0.054403       0.472190
       5.560000       2.660552       0.053940       0.487914
       5.570000       2.664330       0.053716       0.505434
       5.580000       2.673444       0.053701       0.524829
       5.590000       2.689121       0.053862       0.546127
       5.600000       2.712540       0.054168       0.569321
       5.610000       2.744738       0.054597       0.594418
       5.620000       2.786501       0.055133       0.621488
       5.630000       2.838277       0.055764       0.650725
       5.640000       2.900112       0.056480       0.682458
       5.650000       2.971666       0.057266       0.717136
       5.660000       3.052260       0.058111       0.755259
       5.670000       3.140946       0.059008       0.797290
       5.680000       3.236545       0.059964       0.843561
       5.690000       3.337685       0.061004       0.894198
       5.700000       3.442902       0.062171       0.949056
       5.710000       3.550878       0.063521       1.007697
       5.720000       3.660847       0.065111       1.069391
       5.730000       3.773046       0.066991       1.133175
       5.740000       3.888994       0.069189       1.197956
       5.750000       4.011397       0.071705       1.262653
       5.760000       4.143623       0.074498       1.326327
       5.770000       4.288908       0.077489       1.388250
       5.780000       4.449585       0.080553       1.447874
       5.790000       4.626568       0.083537       1.504746
       5.800000       4.819193       0.086272       1.558410
       5.810000       5.025383       0.088602       1.608369
       5.820000       5.242010       0.090409       1.654127
       5.830000       5.465295       0.091625       1.695270
       5.840000       5.691163       0.092239       1.731538
       5.850000       5.915511       0.092279       1.762855
       5.860000       6.134434       0.091794       1.789326
       5.870000       6.344495       0.090836       1.811210
       5.880000       6.543074       0.089463       1.828910
       5.890000       6.728736       0.087743       1.842955
       5.900000       6.901457       0.085768       1.853983
       5.910000       7.062544       0.083654       1.862687
       5.920000       7.214188       0.081533       1.869710
       5.930000       7.358745       0.079534       1.875520
       5.940000       7.497958       0.077764       1.880304
       5.950000       7.632327       0.076297       1.883953
       5.960000       7.760799       0.075166       1.886182
       5.970000       7.880843       0.074359       1.886758
       5.980000       7.988856       0.073827       1.885768
       5.990000       8.080802       0.073486       1.883809
       6.000000       8.152921       0.073228       1.881965
       6.010000       8.202329       0.072943       1.881565
       6.020000       8.227426       0.072537       1.883759
       6.030000       8.228077       0.071955       1.889102
       6.040000       8.205584       0.071184       1.897292
       6.050000       8.162441       0.070258       1.907153
       6.060000       8.101914       0.069237       1.916884
       6.070000       8.027537       0.068193       1.924471
       6.080000       7.942705       0.067196       1.928113
       6.090000       7.850447       0.066304       1.926561
       6.100000       7.753392       0.065565       1.919274
       6.110000       7.653788       0.065015       1.906442
       6.120000       7.553505       0.064682       1.888904
       6.130000       7.454029       0.064590       1.868029
       6.140000       7.356492       0.064761       1.845572
       6.150000       7.261744       0.065217       1.823505
       6.160000       7.170385       0.065981       1.803824
       6.170000       7.082766       0.067075       1.788342
       6.180000       6.998956       0.068517       1.778475
       6.190000       6.918761       0.070311       1.775064
       6.200000       6.841740       0.072447       1.778228
       6.210000       6.767190       0.074890       1.787307
       6.220000       6.694060       0.077581       1.800883
       6.230000       6.620900       0.080433       1.816885
       6.240000       6.546020       0.083341       1.832801
       6.250000       6.467937       0.086194       1.845970
       6.260000       6.385989       0.088889       1.853966
       6.270000       6.300832       0.091350       1.855010
       6.280000       6.214598       0.093528       1.848301
       6.290000       6.130612       0.095397       1.834177
       6.300000       6.052793       0.096937       1.814030
       6.310000       5.984955       0.098131       1.790002
       6.320000       5.930200       0.098968       1.764537
       6.330000       5.890512       0.099452       1.739922
       6.340000       5.866563       0.099621       1.717958
       6.350000       5.857651       0.099546       1.699822
       6.360000       5.861681       0.099325       1.686144
       6.370000       5.875136       0.099057       1.677204
       6.380000       5.893061       0.098823       1.673160
       6.390000       5.909189       0.098662       1.674170
       6.400000       5.916355       0.098566       1.680382
       6.410000       5.907310       0.098486       1.691783
       6.420000       5.875859       0.098353       1.707973
       6.430000       5.818085       0.098101       1.727976
       6.440000       5.733307       0.097689       1.750149
       6.450000       5.624411       0.097118       1.772270
       6.460000       5.497400       0.096419       1.791797
       6.470000       5.360228       0.095642       1.806271
       6.480000       5.221269       0.094833       1.813794
       6.490000       5.087856       0.094030       1.813431
       6.500000       4.965302       0.093261       1.805427
       6.510000       4.856563       0.092554       1.791129
       6.520000       4.762495       0.091953       1.772641
       6.530000       4.682486       0.091520       1.752322
       6.540000       4.615225       0.091335       1.732314
       6.550000       4.559352       0.091485       1.714245
       6.560000       4.513836       0.092049       1.699160
       6.570000       4.478047       0.093090       1.687658
       6.580000       4.451599       0.094643       1.680131
       6.590000       4.434146       0.096712       1.676999
       6.600000       4.425263       0.099268       1.678887
       6.610000       4.424443       0.102242       1.686687
       6.620000       4.431153       0.105529       1.701503
       6.630000       4.444848       0.108988       1.724500
       6.640000       4.464930       0.112458       1.756698
       6.650000       4.490653       0.115771       1.798743
       6.660000       4.520993       0.118768       1.850723
       6.670000       4.554507       0.121319       1.912030
       6.680000       4.589188       0.123333       1.981314
       6.690000       4.622393       0.124758       2.056555
       6.700000       4.650960       0.125577       2.135295
       6.710000       4.671536       0.125806       2.215043
       6.720000       4.680999       0.125476       2.293780
       6.730000       4.676793       0.124630       2.370439
       6.740000       4.657030       0.123310       2.445141
       6.750000       4.620433       0.121567       2.519080
       6.760000       4.566283       0.119466       2.594053
       6.770000       4.494518       0.117109       2.671819
       6.780000       4.406017       0.114628       2.753477
       6.790000       4.302920       0.112183       2.839013
       6.800000       4.188786       0.109935       2.927088
       6.810000       4.068436       0.108025       3.015078
       6.820000       3.947465       0.106552       3.099394
       6.830000       3.831531       0.105569       3.176031
       6.840000       3.725623       0.105072       3.241244
       6.850000       3.633456       0.105003       3.292168
       6.860000       3.557129       0.105252       3.327231
       6.870000       3.497035       0.105673       3.346295
       6.880000       3.452036       0.106096       3.350577
       6.890000       3.419838       0.106360       3.342386
       6.900000       3.397496       0.106345       3.324747
       6.910000       3.381983       0.105994       3.300925
       6.920000       3.370675       0.105324       3.273929
       6.930000       3.361647       0.104413       3.246101
       6.940000       3.353693       0.103375       3.218907
       6.950000       3.346098       0.102330       3.192966
       6.960000       3.338332       0.101376       3.168248
       6.970000       3.329852       0.100581       3.144313
       6.980000       3.320112       0.099972       3.120466
       6.990000       3.308725       0.099550       3.095792
       7.000000       3.295651       0.099303       3.069149
       7.010000       3.281279       0.099223       3.039195
       7.020000       3.266446       0.099326       3.004483
       7.030000       3.252447       0.099650       2.963624
       7.040000       3.241092       0.100254       2.915478
       7.050000       3.234752       0.101207       2.859382
       7.060000       3.236311       0.102571       2.795376
       7.070000       3.248962       0.104389       2.724382
       7.080000       3.275874       0.106679       2.648248
       7.090000       3.319780       0.109423       2.569602
       7.100000       3.382595       0.112568       2.491534
       7.110000       3.465104       0.116026       2.417176
       7.120000       3.566732       0.119686       2.349271
       7.130000       3.685385       0.123427       2.289832
       7.140000       3.817343       0.127135       2.239940
       7.150000       3.957217       0.130722       2.199701
       7.160000       4.098014       0.134128       2.168347
       7.170000       4.231386       0.137308       2.144445
       7.180000       4.348197       0.140224       2.126182
       7.190000       4.439507       0.142834       2.111681
       7.200000       4.497923       0.145101       2.099293
       7.210000       4.519030       0.147010       2.087824
       7.220000       4.502398       0.148584       2.076661
       7.230000       4.451718       0.149880       2.065771
       7.240000       4.373920       0.150974       2.055615
       7.250000       4.277679       0.151923       2.046978
       7.260000       4.171860       0.152745       2.040780
       7.270000       4.064415       0.153408       2.037871
       7.280000       3.961854       0.153851       2.038837
       7.290000       3.869164       0.154012       2.043819
       7.300000       3.789948       0.153869       2.052358
       7.310000       3.726612       0.153455       2.063297
       7.320000       3.680508       0.152856       2.074812
       7.330000       3.652053       0.152182       2.084639
       7.340000       3.640844       0.151528       2.090503
       7.350000       3.645815       0.150954       2.090641
       7.360000       3.665429       0.150463       2.084207
       7.370000       3.697841       0.150020       2.071385
       7.380000       3.741004       0.149572       2.053166
       7.390000       3.792685       0.149082       2.030909
       7.400000       3.850451       0.148560       2.005876
       7.410000       3.911729       0.148071       1.978905
       7.420000       3.973993       0.147726       1.950282
       7.430000       4.035058       0.147659       1.919832
       7.440000       4.093356       0.147999       1.887174
       7.450000       4.148080       0.148847       1.852022
       7.460000       4.199168       0.150269       1.814446
       7.470000       4.247175       0.152294       1.774974
       7.480000       4.293122       0.154920       1.734555
       7.490000       4.338342       0.158120       1.694381
       7.500000       4.384359       0.161845       1.655659
       7.510000       4.432777       0.166016       1.619387
       7.520000       4.485152       0.170518       1.586206
       7.530000       4.542787       0.175194       1.556363
       7.540000       4.606442       0.179855       1.529822
       7.550000       4.676038       0.184292       1.506445
       7.560000       4.750496       0.188307       1.486182
       7.570000       4.827854       0.191730       1.469181
       7.580000       4.905720       0.194442       1.455770
       7.590000       4.981938       0.196373       1.446371
       7.600000       5.055218       0.197512       1.441365
       7.610000       5.125451       0.197898       1.440998
       7.620000       5.193516       0.197621       1.445342
       7.630000       5.260672       0.196820       1.454315
       7.640000       5.327757       0.195679       1.467736
       7.650000       5.394499       0.194420       1.485382
       7.660000       5.459132       0.193285       1.506989
       7.670000       5.518397       0.192511       1.532207
       7.680000       5.567949       0.192312       1.560507
       7.690000       5.603103       0.192861       1.591064
       7.700000       5.619809       0.194283       1.622663
       7.710000       5.615625       0.196652       1.653647
       7.720000       5.590374       0.199996       1.681981
       7.730000       5.546272       0.204303       1.705448
       7.740000       5.487483       0.209527       1.721979
       7.750000       5.419330       0.215590       1.730045
       7.760000       5.347416       0.222394       1.728946
       7.770000       5.276906       0.229833       1.718912
       7.780000       5.212063       0.237811       1.700988
       7.790000       5.156077       0.246262       1.676765
       7.800000       5.111110       0.255168       1.648093
       7.810000       5.078414       0.264551       1.616814
       7.820000       5.058369       0.274449       1.584543
       7.830000       5.050375       0.284873       1.552509
       7.840000       5.052708       0.295767       1.521450
       7.850000       5.062530       0.306998       1.491632
       7.860000       5.076212       0.318379       1.462983
       7.870000       5.089944       0.329727       1.435329
       7.880000       5.100399       0.340937       1.408632
       7.890000       5.105182       0.352036       1.383143
       7.900000       5.102901       0.363195       1.359412
       7.910000       5.092927       0.374690       1.338164
       7.920000       5.075010       0.386828       1.320112
       7.930000       5.049006       0.399859       1.305780
       7.940000       5.014858       0.413901       1.295425
       7.950000       4.972854       0.428887       1.289050
       7.960000       4.923950       0.444539       1.286475
       7.970000       4.869892       0.460373       1.287428
       7.980000       4.812928       0.475756       1.291604
       7.990000       4.755166       0.490012       1.298669
       8.000000       4.697861       0.502549       1.308222
       8.010000       4.640995       0.512988       1.319736
       8.020000       4.583285       0.521235       1.332518
       8.030000       4.522598       0.527480       1.345698
       8.040000       4.456565       0.532127       1.358276
       8.050000       4.383239       0.535684       1.369199
       8.060000       4.301699       0.538653       1.377487
       8.070000       4.212502       0.541429       1.382384
       8.080000       4.117855       0.544241       1.383528
       8.090000       4.021383       0.547131       1.381083
       8.100000       3.927554       0.549989       1.375793
       8.110000       3.840937       0.552623       1.368921
       8.120000       3.765511       0.554838       1.362053
       8.130000       3.704172       0.556501       1.356820
       8.140000       3.658470       0.557554       1.354599
       8.150000       3.628520       0.557989       1.356266
       8.160000       3.613089       0.557824       1.362050
       8.170000       3.609813       0.557090       1.371514
       8.180000       3.615575       0.555854       1.383629
       8.190000       3.627011       0.554261       1.396942
       8.200000       3.641067       0.552578       1.409793
       8.210000       3.655407       0.551196       1.420564
       8.220000       3.668488       0.550599       1.427909
       8.230000       3.679239       0.551284       1.430937
       8.240000       3.686492       0.553676       1.429293
       8.250000       3.688521       0.558041       1.423136
       8.260000       3.682961       0.564434       1.413046
       8.270000       3.667239       0.572675       1.399889
       8.280000       3.639322       0.582351       1.384707
       8.290000       3.598457       0.592840       1.368627
       8.300000       3.545578       0.603358       1.352800
       8.310000       3.483260       0.613050       1.338330
       8.320000       3.415301       0.621109       1.326211
       8.330000       3.346128       0.626931       1.317254
       8.340000       3.280153       0.630243       1.312030
       8.350000       3.221170       0.631164       1.310799
       8.360000       3.171846       0.630175       1.313460
       8.370000       3.133381       0.628001       1.319519
       8.380000       3.105405       0.625445       1.328119
       8.390000       3.086160       0.623224       1.338145
       8.400000       3.072947       0.621834       1.348394
       8.410000       3.062734       0.621457       1.357763
       8.420000       3.052734       0.621930       1.365400
       8.430000       3.040775       0.622788       1.370773
       8.440000       3.025353       0.623365       1.373653
       8.450000       3.005449       0.622956       1.374031
       8.460000       2.980276       0.620983       1.372009
       8.470000       2.949133       0.617125       1.367725
       8.480000       2.911385       0.611369       1.361319
       8.490000       2.866556       0.603976       1.352968
       8.500000       2.814481       0.595399       1.342940
       8.510000       2.755476       0.586204       1.331621
       8.520000       2.690496       0.577005       1.319487
       8.530000       2.621160       0.568436       1.307039
       8.540000       2.549578       0.561127       1.294733
       8.550000       2.477976       0.555671       1.282968
       8.560000       2.408257       0.552572       1.272120
       8.570000       2.341677       0.552190       1.262592
       8.580000       2.278751       0.554689       1.254829
       8.590000       2.219400       0.559993       1.249291
       8.600000       2.163253       0.567747       1.246394
       8.610000       2.109981       0.577304       1.246470
       8.620000       2.059515       0.587731       1.249748
       8.630000       2.012107       0.597875       1.256361
       8.640000       1.968242       0.606488       1.266359
       8.650000       1.928481       0.612437       1.279714
       8.660000       1.893335       0.614934       1.296321
       8.670000       1.863226       0.613719       1.315986
       8.680000       1.838509       0.609120       1.338431
       8.690000       1.819517       0.601951       1.363279
       8.700000       1.806571       0.593313       1.390039
       8.710000       1.799928       0.584358       1.418062
       8.720000       1.799716       0.576108       1.446512
       8.730000       1.805858       0.569354       1.474376
       8.740000       1.818045       0.564619       1.500569
       8.750000       1.835770       0.562177       1.524117
       8.760000       1.858445       0.562078       1.544366
       8.770000       1.885564       0.564188       1.561129
       8.780000       1.916872       0.568226       1.574710
       8.790000       1.952422       0.573814       1.585787
       8.800000       1.992466       0.580546       1.595219
       8.810000       2.037203       0.588053       1.603841
       8.820000       2.086423       0.596074       1.612329
       8.830000       2.139190       0.604492       1.621138
       8.840000       2.193625       0.613325       1.630529
       8.850000       2.246871       0.622682       1.640619
       8.860000       2.295280       0.632687       1.651440
       8.870000       2.334841       0.643405       1.662965
       8.880000       2.361797       0.654799       1.675100
       8.890000       2.373360       0.666709       1.687637
       8.900000       2.368331       0.678862       1.700182
       8.910000       2.347441       0.690902       1.712113
       8.920000       2.313285       0.702407       1.722620
       8.930000       2.269825       0.712914       1.730872
       8.940000       2.221625       0.721936       1.736260
       8.950000       2.173065       0.729019       1.738625
       8.960000       2.127736       0.733839       1.738341
       8.970000       2.088136       0.736320       1.736223
       8.980000       2.055633       0.736735       1.733306
       8.990000       2.030618       0.735704       1.730612
       9.000000       2.012787       0.734094       1.729019
       9.010000       2.001452       0.732824       1.729235
       9.020000       1.995851       0.732666       1.731844
       9.030000       1.995343       0.734077       1.737342
       9.040000       1.999442       0.737100       1.746138
       9.050000       2.007673       0.741330       1.758507
       9.060000       2.019337       0.745948       1.774546
       9.070000       2.033331       0.749843       1.794176
       9.080000       2.048143       0.751792       1.817193
       9.090000       2.062045       0.750720       1.843383
       9.100000       2.073432       0.745935       1.872626
       9.110000       2.081146       0.737297       1.904973
       9.120000       2.084634       0.725226       1.940637
       9.130000       2.083851       0.710561       1.979933
       9.140000       2.078967       0.694337       2.023205
       9.150000       2.070065       0.677577       2.070792
       9.160000       2.056973       0.661161       2.123050
       9.170000       2.039295       0.645796       2.180417
       9.180000       2.016585       0.632053       2.243456
       9.190000       1.988564       0.620411       2.312872
       9.200000       1.955318       0.611291       2.389476
       9.210000       1.917436       0.605075       2.474125
       9.220000       1.876049       0.602093       2.567659
       9.230000       1.832742       0.602615       2.670843
       9.240000       1.789323       0.606825       2.784340
       9.250000       1.747538       0.614788       2.908706
       9.260000       1.708776       0.626424       3.044410
       9.270000       1.673853       0.641483       3.191884
       9.280000       1.642903       0.659547       3.351590
       9.290000       1.615409       0.680055       3.524086
       9.300000       1.590390       0.702354       3.710091
       9.310000       1.566699       0.725771       3.910524
       9.320000       1.543372       0.749648       4.126509
       9.330000       1.519893       0.773335       4.359327
       9.340000       1.496309       0.796137       4.610293
       9.350000       1.473174       0.817252       4.880550
       9.360000       1.451367       0.835762       5.170797
       9.370000       1.431886       0.850717       5.480969
       9.380000       1.415671       0.861295       5.809901
       9.390000       1.403497       0.866976       6.155041
       9.400000       1.395952       0.867672       6.512251
       9.410000       1.393457       0.863753       6.875786
       9.420000       1.396315       0.855970       7.238477
       9.430000       1.404728       0.845318       7.592127
       9.440000       1.418766       0.832879       7.928049
       9.450000       1.438284       0.819678       8.237665
       9.460000       1.462796       0.806580       8.513090
       9.470000       1.491349       0.794208       8.747653
       9.480000       1.522430       0.782904       8.936330
       9.490000       1.553967       0.772730       9.076041
       9.500000       1.583445       0.763539       9.165789
       9.510000       1.608155       0.755092       9.206628
       9.520000       1.625542       0.747191       9.201462
       9.530000       1.633570       0.739777       9.154721
       9.540000       1.631047       0.732947       9.072001
       9.550000       1.617827       0.726897       8.959723
       9.560000       1.594870       0.721826       8.824764
       9.570000       1.564110       0.717855       8.674001
       9.580000       1.528158       0.715007       8.513754
       9.590000       1.489885       0.713245       8.349220
       9.600000       1.451980       0.712525       8.184123
       9.610000       1.416604       0.712836       8.020730
       9.620000       1.385179       0.714184       7.860256
       9.630000       1.358348       0.716548       7.703492
       9.640000       1.336080       0.719829       7.551347
       9.650000       1.317869       0.723835       7.405051
       9.660000       1.302995       0.728327       7.265917
       9.670000       1.290786       0.733094       7.134814
       9.680000       1.280801       0.738019       7.011629
       9.690000       1.272911       0.743103       6.894976
       9.700000       1.267259       0.748438       6.782256
       9.710000       1.264130       0.754145       6.670061
       9.720000       1.263810       0.760295       6.554808
       9.730000       1.266442       0.766852       6.433514
       9.740000       1.271928       0.773625       6.304529
       9.750000       1.279875       0.780279       6.168071
       9.760000       1.289601       0.786400       6.026370
       9.770000       1.300213       0.791606       5.883347
       9.780000       1.310730       0.795662       5.743873
       9.790000       1.320260       0.798532       5.612811
       9.800000       1.328164       0.800355       5.494123
       9.810000       1.334166       0.801365       5.390242
       9.820000       1.338388       0.801840       5.301810
       9.830000       1.341297       0.802098       5.227748
       9.840000       1.343598       0.802538       5.165538
       9.850000       1.346115       0.803684       5.111613
       9.860000       1.349655       0.806168       5.061797
       9.870000       1.354889       0.810645       5.011795
       9.880000       1.362245       0.817664       4.957738
       9.890000       1.371880       0.827532       4.896756
       9.900000       1.383714       0.840213       4.827485
       9.910000       1.397520       0.855287       4.750334
       9.920000       1.413017       0.871996       4.667387
       9.930000       1.429906       0.889361       4.581930
       9.940000       1.447866       0.906364       4.497763
       9.950000       1.466519       0.922131       4.418512
       9.960000       1.485420       0.936062       4.347126
       9.970000       1.504090       0.947858       4.285616
       9.980000       1.522090       0.957470       4.235001
       9.990000       1.539114       0.965017       4.195372
      10.000000       1.555041       0.970738       4.166021
      10.010000       1.569896       0.974991       4.145601
      10.020000       1.583724       0.978260       4.132291
      10.030000       1.596438       0.981142       4.123940
      10.040000       1.607702       0.984283       4.118184
      10.050000       1.616907       0.988260       4.112541
      10.060000       1.623245       0.993446       4.104506
      10.070000       1.625876       0.999911       4.091693
      10.080000       1.624155       1.007386       4.072057
      10.090000       1.617867       1.015322       4.044179
      10.100000       1.607368       1.023000       4.007566
      10.110000       1.593565       1.029653       3.962805
      10.120000       1.577729       1.034567       3.911479
      10.130000       1.561216       1.037150       3.855819
      10.140000       1.545222       1.036994       3.798209
      10.150000       1.530620       1.033941       3.740743
      10.160000       1.517887       1.028149       3.684969
      10.170000       1.507079       1.020121       3.631874
      10.180000       1.497820       1.010670       3.582028
      10.190000       1.489322       1.000803       3.535765
      10.200000       1.480465       0.991537       3.493307
      10.210000       1.469954       0.983688       3.454838
      10.220000       1.456536       0.977706       3.420546
      10.230000       1.439231       0.973577       3.390654
      10.240000       1.417488       0.970841       3.365430
      10.250000       1.391251       0.968715       3.345125
      10.260000       1.360901       0.966301       3.329833
      10.270000       1.327141       0.962798       3.319311
      10.280000       1.290849       0.957660       3.312836
      10.290000       1.252972       0.950657       3.309133
      10.300000       1.214460       0.941837       3.306388
      10.310000       1.176252       0.931437       3.302326
      10.320000       1.139263       0.919802       3.294344
      10.330000       1.104370       0.907318       3.279737
      10.340000       1.072365       0.894403       3.256039
      10.350000       1.043913       0.881515       3.221436
      10.360000       1.019515       0.869175       3.175141
      10.370000       0.999497       0.857966       3.117579
      10.380000       0.984016       0.848510       3.050320
      10.390000       0.973076       0.841401       2.975755
      10.400000       0.966534       0.837147       2.896668
      10.410000       0.964081       0.836100       2.815825
      10.420000       0.965207       0.838402       2.735697
      10.430000       0.969156       0.843950       2.658318
      10.440000       0.974927       0.852399       2.585277
      10.450000       0.981329       0.863213       2.517761
      10.460000       0.987116       0.875779       2.456603
      10.470000       0.991180       0.889552       2.402302
      10.480000       0.992738       0.904198       2.355024
      10.490000       0.991463       0.919671       2.314604
      10.500000       0.987515       0.936187       2.280602
      10.510000       0.981458       0.954098       2.252423
      10.520000       0.974099       0.973711       2.229498
      10.530000       0.966319       0.995111       2.211453
      10.540000       0.958941       1.018058       2.198197
      10.550000       0.952674       1.041992       2.189855
      10.560000       0.948102       1.066142       2.186578
      10.570000       0.945709       1.089715       2.188280
      10.580000       0.945879       1.112095       2.194421
      10.590000       0.948881       1.133005       2.203899
      10.600000       0.954840       1.152568       2.215108
      10.610000       0.963706       1.171252       2.226141
      10.620000       0.975241       1.189707       2.235093
      10.630000       0.989039       1.208543       2.240393
      10.640000       1.004572       1.228136       2.241059
      10.650000       1.021264       1.248492       2.236811
      10.660000       1.038555       1.269226       2.227980
      10.670000       1.055960       1.289620       2.215267
      10.680000       1.073095       1.308771       2.199439
      10.690000       1.089676       1.325768       2.181138
      10.700000       1.105521       1.339870       2.160870
      10.710000       1.120519       1.350618       2.139169
      10.720000       1.134609       1.357860       2.116809
      10.730000       1.147741       1.361688       2.094901
      10.740000       1.159878       1.362362       2.074810
      10.750000       1.171020       1.360267       2.057907
      10.760000       1.181278       1.355918       2.045276
      10.770000       1.190924       1.349982       2.037496
      10.780000       1.200429       1.343250       2.034574
      10.790000       1.210436       1.336552       2.036013
      10.800000       1.221679       1.330629       2.040993
      10.810000       1.234856       1.325998       2.048568
      10.820000       1.250464       1.322834       2.057853
      10.830000       1.268648       1.320915       2.068154
      10.840000       1.289112       1.319648       2.079036
      10.850000       1.311116       1.318208       2.090301
      10.860000       1.333562       1.315754       2.101863
      10.870000       1.355142       1.311641       2.113562
      10.880000       1.374500       1.305552       2.124962
      10.890000       1.390406       1.297491       2.135250
      10.900000       1.401903       1.287697       2.143257
      10.910000       1.408430       1.276536       2.147640
      10.920000       1.409891       1.264434       2.147132
      10.930000       1.406626       1.251857       2.140808
      10.940000       1.399316       1.239292       2.128296
      10.950000       1.388812       1.227214       2.109875
      10.960000       1.375961       1.216029       2.086475
      10.970000       1.361476       1.206050       2.059551
      10.980000       1.345879       1.197495       2.030894
      10.990000       1.329510       1.190528       2.002399
      11.000000       1.312559       1.185292       1.975828
      11.010000       1.295098       1.181933       1.952633
      11.020000       1.277096       1.180611       1.933833
      11.030000       1.258455       1.181502       1.919968
      11.040000       1.239064       1.184801       1.911131
      11.050000       1.218863       1.190699       1.907044
      11.060000       1.197908       1.199337       1.907184
      11.070000       1.176412       1.210749       1.910907
      11.080000       1.154766       1.224847       1.917556
      11.090000       1.133539       1.241470       1.926539
      11.100000       1.113427       1.260487       1.937378
      11.110000       1.095157       1.281909       1.949751
      11.120000       1.079368       1.305941       1.963540
      11.130000       1.066498       1.332941       1.978875
      11.140000       1.056718       1.363301       1.996131
      11.150000       1.049911       1.397313       2.015853
      11.160000       1.045695       1.435055       2.038621
      11.170000       1.043479       1.476310       2.064901
      11.180000       1.042545       1.520542       2.094923
      11.190000       1.042143       1.566890       2.128624
      11.200000       1.041597       1.614222       2.165650
      11.210000       1.040398       1.661232       2.205409
      11.220000       1.038266       1.706575       2.247148
      11.230000       1.035153       1.749018       2.290042
      11.240000       1.031208       1.787569       2.333253
      11.250000       1.026720       1.821583       2.375934
      11.260000       1.022071       1.850828       2.417170
      11.270000       1.017694       1.875484       2.455909
      11.280000       1.014029       1.896061       2.490911
      11.290000       1.011475       1.913245       2.520777
      11.300000       1.010318       1.927718       2.544042
      11.310000       1.010678       1.939980       2.559324
      11.320000       1.012482       1.950224       2.565484
      11.330000       1.015468       1.958286       2.561775
      11.340000       1.019222       1.963689       2.547946
      11.350000       1.023242       1.965770       2.524293
      11.360000       1.026992       1.963851       2.491615
      11.370000       1.029972       1.957420       2.451074
      11.380000       1.031775       1.946260       2.404019
      11.390000       1.032154       1.930554       2.351824
      11.400000       1.031091       1.910966       2.295848
      11.410000       1.028818       1.888662       2.237467
      11.420000       1.025799       1.865244       2.178131
      11.430000       1.022632       1.842534       2.119344
      11.440000       1.019923       1.822254       2.062522
      11.450000       1.018156       1.805702       2.008774
      11.460000       1.017599       1.793511       1.958704
      11.470000       1.018276       1.785561       1.912308
      11.480000       1.019983       1.781047       1.869011
      11.490000       1.022346       1.778662       1.827838
      11.500000       1.024908       1.776869       1.787662
      11.510000       1.027221       1.774175       1.747471
      11.520000       1.028936       1.769363       1.706600
      11.530000       1.029878       1.761618       1.664864
      11.540000       1.030074       1.750560       1.622601
      11.550000       1.029728       1.736189       1.580596
      11.560000       1.029135       1.718790       1.539905
      11.570000       1.028546       1.698836       1.501618
      11.580000       1.028012       1.676909       1.466613
      11.590000       1.027277       1.653666       1.435353
      11.600000       1.025754       1.629824       1.407803
      11.610000       1.022624       1.606161       1.383485
      11.620000       1.017041       1.583502       1.361661
      11.630000       1.008378       1.562687       1.341588
      11.640000       0.996429       1.544507       1.322774
      11.650000       0.981485       1.529608       1.305143
      11.660000       0.964263       1.518378       1.289067
      11.670000       0.945734       1.510855       1.275255
      11.680000       0.926920       1.506717       1.264554
      11.690000       0.908732       1.505371       1.257733
      11.700000       0.891889       1.506137       1.255295
      11.710000       0.876888       1.508453       1.257350
      11.720000       0.864036       1.512058       1.263551
      11.730000       0.853480       1.517048       1.273063
      11.740000       0.845240       1.523825       1.284571
      11.750000       0.839234       1.532928       1.296333
      11.760000       0.835293       1.544834       1.306287
      11.770000       0.833180       1.559757       1.312252
      11.780000       0.832597       1.577473       1.312199
      11.790000       0.833192       1.597217       1.304566
      11.800000       0.834555       1.617652       1.288531
      11.810000       0.836234       1.636982       1.264167
      11.820000       0.837775       1.653178       1.232417
      11.830000       0.838768       1.664309       1.194886
      11.840000       0.838908       1.668876       1.153539
      11.850000       0.838025       1.666061       1.110374
      11.860000       0.836099       1.655826       1.067192
      11.870000       0.833236       1.638843       1.025472
      11.880000       0.829621       1.616300       0.986345
      11.890000       0.825463       1.589677       0.950625
      11.900000       0.820950       1.560530       0.918867
      11.910000       0.816218       1.530321       0.891421
      11.920000       0.811341       1.500312       0.868483
      11.930000       0.806344       1.471517       0.850122
      11.940000       0.801226       1.444679       0.836290
      11.950000       0.795978       1.420282       0.826810
      11.960000       0.790599       1.398564       0.821366
      11.970000       0.785096       1.379541       0.819487
      11.980000       0.779487       1.363035       0.820543
      11.990000       0.773806       1.348702       0.823775
      12.000000       0.768114       1.336060       0.828355
      12.010000       0.762520       1.324538       0.833492
      12.020000       0.757181       1.313556       0.838549
      12.030000       0.752298       1.302640       0.843135
      12.040000       0.748087       1.291547       0.847121
      12.050000       0.744749       1.280341       0.850577
      12.060000       0.742442       1.269378       0.853654
      12.070000       0.741268       1.259204       0.856456
      12.080000       0.741263       1.250408       0.858969
      12.090000       0.742410       1.243525       0.861040
      12.100000       0.744656       1.239018       0.862417
      12.110000       0.747943       1.237333       0.862816
      12.120000       0.752225       1.238938       0.861981
      12.130000       0.757473       1.244312       0.859714
      12.140000       0.763652       1.253862       0.855873
      12.150000       0.770679       1.267807       0.850337
      12.160000       0.778380       1.286093       0.842984
      12.170000       0.786473       1.308352       0.833690
      12.180000       0.794584       1.333940       0.822376
      12.190000       0.802310       1.362035       0.809073
      12.200000       0.809291       1.391782       0.793969
      12.210000       0.815288       1.422416       0.777403
      12.220000       0.820212       1.453314       0.759798
      12.230000       0.824086       1.483947       0.741555
      12.240000       0.826972       1.513759       0.722973
      12.250000       0.828872       1.542053       0.704226
      12.260000       0.829654       1.567964       0.685418
      12.270000       0.829033       1.590523       0.666672
      12.280000       0.826585       1.608809       0.648206
      12.290000       0.821824       1.622112       0.630359
      12.300000       0.814309       1.630072       0.613564
      12.310000       0.803775       1.632738       0.598278
      12.320000       0.790252       1.630540       0.584906
      12.330000       0.774101       1.624150       0.573754
      12.340000       0.755959       1.614270       0.565010
      12.350000       0.736592       1.601426       0.558749
      12.360000       0.716732       1.585863       0.554962
      12.370000       0.696949       1.567627       0.553576
      12.380000       0.677609       1.546792       0.554479
      12.390000       0.658908       1.523740       0.557528
      12.400000       0.640950       1.499327       0.562551
      12.410000       0.623819       1.474864       0.569331
      12.420000       0.607615       1.451912       0.577598
      12.430000       0.592463       1.432013       0.587008
      12.440000       0.578495       1.416433       0.597143
      12.450000       0.565848       1.406029       0.607530
      12.460000       0.554658       1.401229       0.617681
      12.470000       0.545070       1.402114       0.627140
      12.480000       0.537231       1.408544       0.635530
      12.490000       0.531272       1.420242       0.642576
      12.500000       0.527269       1.436823       0.648092
      12.510000       0.525209       1.457742       0.651956
      12.520000       0.524969       1.482201       0.654082
      12.530000       0.526306       1.509083       0.654420
      12.540000       0.528871       1.536947       0.652991
      12.550000       0.532238       1.564119       0.649936
      12.560000       0.535945       1.588875       0.645545
      12.570000       0.539539       1.609650       0.640246
      12.580000       0.542641       1.625251       0.634549
      12.590000       0.544996       1.634978       0.628958
      12.600000       0.546520       1.638655       0.623900
      12.610000       0.547299       1.636545       0.619665
      12.620000       0.547553       1.629195       0.616391
      12.630000       0.547543       1.617243       0.614068
      12.640000       0.547484       1.601295       0.612561
      12.650000       0.547478       1.581915       0.611649
      12.660000       0.547500       1.559745       0.611057
      12.670000       0.547431       1.535647       0.610502
      12.680000       0.547124       1.510753       0.609728
      12.690000       0.546466       1.486342       0.608551
      12.700000       0.545422       1.463597       0.606878
      12.710000       0.544041       1.443322       0.604704
      12.720000       0.542428       1.425752       0.602088
      12.730000       0.540705       1.410506       0.599114
      12.740000       0.538961       1.396694       0.595864
      12.750000       0.537227       1.383159       0.592413
      12.760000       0.535467       1.368787       0.588826
      12.770000       0.533600       1.352819       0.585168
      12.780000       0.531542       1.335065       0.581498
      12.790000       0.529244       1.315964       0.577869
      12.800000       0.526727       1.296470       0.574328
      12.810000       0.524079       1.277818       0.570925
      12.820000       0.521439       1.261250       0.567709
      12.830000       0.518964       1.247790       0.564727
      12.840000       0.516814       1.238128       0.562005
      12.850000       0.515145       1.232600       0.559524
      12.860000       0.514117       1.231254       0.557210
      12.870000       0.513896       1.233938       0.554926
      12.880000       0.514647       1.240388       0.552498
      12.890000       0.516500       1.250262       0.549742
      12.900000       0.519511       1.263114       0.546509
      12.910000       0.523616       1.278343       0.542704
      12.920000       0.528612       1.295142       0.538305
      12.930000       0.534167       1.312529       0.533345
      12.940000       0.539873       1.329447       0.527901
      12.950000       0.545325       1.344901       0.522071
      12.960000       0.550184       1.358075       0.515968
      12.970000       0.554213       1.368368       0.509715
      12.980000       0.557276       1.375376       0.503437
      12.990000       0.559300       1.378855       0.497263
      13.000000       0.560253       1.378718       0.491308
      13.010000       0.560125       1.375119       0.485675
      13.020000       0.558934       1.368557       0.480452
      13.030000       0.556732       1.359959       0.475713
      13.040000       0.553612       1.350656       0.471529
      13.050000       0.549714       1.342267       0.467969
      13.060000       0.545220       1.336533       0.465107
      13.070000       0.540342       1.335127       0.463018
      13.080000       0.535307       1.339478       0.461769
      13.090000       0.530329       1.350603       0.461405
      13.100000       0.525595       1.368959       0.461945
      13.110000       0.521255       1.394328       0.463376
      13.120000       0.517424       1.425758       0.465664
      13.130000       0.514181       1.461582       0.468772
      13.140000       0.511579       1.499570       0.472680
      13.150000       0.509640       1.537210       0.477400
      13.160000       0.508359       1.572106       0.482979
      13.170000       0.507719       1.602393       0.489500
      13.180000       0.507697       1.627022       0.497081
      13.190000       0.508286       1.645807       0.505880
      13.200000       0.509485       1.659224       0.516104
      13.210000       0.511296       1.668066       0.528008
      13.220000       0.513710       1.673108       0.541894
      13.230000       0.516692       1.674922       0.558094
      13.240000       0.520172       1.673842       0.576939
      13.250000       0.524041       1.670025       0.598735
      13.260000       0.528153       1.663541       0.623729
      13.270000       0.532340       1.654436       0.652062
      13.280000       0.536430       1.642791       0.683728
      13.290000       0.540269       1.628786       0.718500
      13.300000       0.543720       1.612749       0.755879
      13.310000       0.546669       1.595150       0.795055
      13.320000       0.549011       1.576532       0.834920
      13.330000       0.550653       1.557409       0.874140
      13.340000       0.551541       1.538204       0.911270
      13.350000       0.551687       1.519285       0.944901
      13.360000       0.551202       1.501054       0.973774
      13.370000       0.550299       1.484048       0.996882
      13.380000       0.549272       1.468961       1.013533
      13.390000       0.548455       1.456564       1.023397
      13.400000       0.548161       1.447545       1.026511
      13.410000       0.548626       1.442309       1.023262
      13.420000       0.549971       1.440818       1.014313
      13.430000       0.552197       1.442513       1.000510
      13.440000       0.555212       1.446366       0.982785
      13.450000       0.558879       1.451028       0.962079
      13.460000       0.563068       1.455045       0.939294
      13.470000       0.567685       1.457051       0.915262
      13.480000       0.572675       1.455905       0.890735
      13.490000       0.577974       1.450763       0.866372
      13.500000       0.583461       1.441096       0.842739
      13.510000       0.588904       1.426715       0.820313
      13.520000       0.593932       1.407806       0.799494
      13.530000       0.598064       1.384959       0.780629
      13.540000       0.600770       1.359148       0.764030
      13.550000       0.601570       1.331630       0.749987
      13.560000       0.600137       1.303783       0.738759
      13.570000       0.596360       1.276916       0.730551
      13.580000       0.590365       1.252115       0.725489
      13.590000       0.582470       1.230173       0.723590
      13.600000       0.573106       1.211586       0.724744
      13.610000       0.562726       1.196613       0.728692
      13.620000       0.551743       1.185361       0.735000
      13.630000       0.540488       1.177873       0.743041
      13.640000       0.529216       1.174216       0.751998
      13.650000       0.518128       1.174546       0.760933
      13.660000       0.507402       1.179123       0.768898
      13.670000       0.497221       1.188251       0.775085
      13.680000       0.487773       1.202157       0.778937
      13.690000       0.479237       1.220836       0.780205
      13.700000       0.471748       1.243945       0.778902
      13.710000       0.465361       1.270767       0.775212
      13.720000       0.460030       1.300278       0.769388
      13.730000       0.455605       1.331283       0.761673
      13.740000       0.451862       1.362562       0.752270
      13.750000       0.448539       1.392971       0.741355
      13.760000       0.445383       1.421465       0.729106
      13.770000       0.442183       1.447066       0.715735
      13.780000       0.438783       1.468820       0.701497
      13.790000       0.435080       1.485825       0.686682
      13.800000       0.431013       1.497336       0.671598
      13.810000       0.426561       1.502934       0.656551
      13.820000       0.421753       1.502670       0.641821
      13.830000       0.416663       1.497095       0.627646
      13.840000       0.411411       1.487129       0.614206
      13.850000       0.406122       1.473790       0.601601
      13.860000       0.400894       1.457906       0.589850
      13.870000       0.395757       1.439938       0.578883
      13.880000       0.390668       1.419977       0.568563
      13.890000       0.385528       1.397925       0.558717
      13.900000       0.380228       1.373748       0.549174
      13.910000       0.374695       1.347698       0.539816
      13.920000       0.368921       1.320423       0.530602
      13.930000       0.362975       1.292921       0.521586
      13.940000       0.356973       1.266367       0.512913
      13.950000       0.351050       1.241870       0.504795
      13.960000       0.345317       1.220240       0.497491
      13.970000       0.339844       1.201819       0.491272
      13.980000       0.334652       1.186425       0.486390
      13.990000       0.329723       1.173440       0.483053
      14.000000       0.325009       1.162003       0.481407
      14.010000       0.320452       1.151254       0.481529
      14.020000       0.315989       1.140518       0.483427
      14.030000       0.311560       1.129393       0.487054
      14.040000       0.307114       1.117695       0.492322
      14.050000       0.302618       1.105367       0.499123
      14.060000       0.298065       1.092399       0.507347
      14.070000       0.293494       1.078816       0.516901
      14.080000       0.288994       1.064721       0.527722
      14.090000       0.284689       1.050330       0.539773
      14.100000       0.280719       1.035971       0.553039
      14.110000       0.277201       1.022041       0.567487
      14.120000       0.274210       1.008945       0.583017
      14.130000       0.271769       0.997042       0.599398
      14.140000       0.269854       0.986602       0.616206
      14.150000       0.268417       0.977793       0.632793
      14.160000       0.267416       0.970696       0.648328
      14.170000       0.266835       0.965342       0.661907
      14.180000       0.266695       0.961743       0.672734
      14.190000       0.267045       0.959916       0.680307
      14.200000       0.267936       0.959866       0.684541
      14.210000       0.269392       0.961559       0.685777
      14.220000       0.271382       0.964889       0.684677
      14.230000       0.273810       0.969655       0.682067
      14.240000       0.276508       0.975557       0.678774
      14.250000       0.279262       0.982215       0.675525
      14.260000       0.281840       0.989223       0.672898
      14.270000       0.284041       0.996225       0.671332
      14.280000       0.285741       1.003006       0.671139
      14.290000       0.286918       1.009560       0.672543
      14.300000       0.287660       1.016110       0.675686
      14.310000       0.288127       1.023082       0.680654
      14.320000       0.288511       1.031049       0.687489
      14.330000       0.288982       1.040642       0.696212
      14.340000       0.289666       1.052446       0.706845
      14.350000       0.290641       1.066905       0.719395
      14.360000       0.291956       1.084255       0.733834
      14.370000       0.293654       1.104506       0.750033
      14.380000       0.295789       1.127453       0.767721
      14.390000       0.298431       1.152675       0.786438
      14.400000       0.301638       1.179485       0.805541
      14.410000       0.305434       1.206851       0.824239
      14.420000       0.309781       1.233371       0.841662
      14.430000       0.314579       1.257376       0.856981
      14.440000       0.319692       1.277191       0.869534
      14.450000       0.324977       1.291466       0.878954
      14.460000       0.330331       1.299438       0.885244
      14.470000       0.335698       1.300991       0.888761
      14.480000       0.341075       1.296510       0.890126
      14.490000       0.346479       1.286625       0.890083
      14.500000       0.351915       1.271999       0.889352
      14.510000       0.357347       1.253213       0.888533
      14.520000       0.362689       1.230768       0.888048
      14.530000       0.367808       1.205142       0.888143
      14.540000       0.372546       1.176856       0.888923
      14.550000       0.376744       1.146501       0.890412
      14.560000       0.380261       1.114746       0.892618
      14.570000       0.382984       1.082301       0.895573
      14.580000       0.384834       1.049887       0.899351
      14.590000       0.385761       1.018204       0.904043
      14.600000       0.385737       0.987903       0.909726
      14.610000       0.384752       0.959559       0.916433
      14.620000       0.382807       0.933654       0.924126
      14.630000       0.379920       0.910580       0.932700
      14.640000       0.376119       0.890649       0.941990
      14.650000       0.371451       0.874115       0.951798
      14.660000       0.365984       0.861166       0.961923
      14.670000       0.359803       0.851890       0.972199
      14.680000       0.353021       0.846217       0.982520
      14.690000       0.345771       0.843859       0.992843
      14.700000       0.338206       0.844283       1.003165
      14.710000       0.330476       0.846721       1.013480
      14.720000       0.322714       0.850225       1.023710
      14.730000       0.315020       0.853750       1.033635
      14.740000       0.307455       0.856256       1.042826
      14.750000       0.300056       0.856799       1.050616
      14.760000       0.292838       0.854629       1.056126
      14.770000       0.285815       0.849274       1.058379
      14.780000       0.279005       0.840600       1.056484
      14.790000       0.272434       0.828807       1.049841
      14.800000       0.266137       0.814362       1.038286
      14.810000       0.260141       0.797864       1.022114
      14.820000       0.254452       0.779903       1.001991
      14.830000       0.249045       0.760970       0.978798
      14.840000       0.243872       0.741440       0.953494
      14.850000       0.238875       0.721618       0.927013
      14.860000       0.234012       0.701818       0.900209
      14.870000       0.229279       0.682406       0.873822
      14.880000       0.224712       0.663813       0.848450
      14.890000       0.220384       0.646503       0.824540
      14.900000       0.216373       0.630906       0.802381
      14.910000       0.212742       0.617352       0.782119
      14.920000       0.209516       0.606001       0.763772
      14.930000       0.206668       0.596814       0.747260
      14.940000       0.204130       0.589551       0.732426
      14.950000       0.201814       0.583820       0.719078
      14.960000       0.199632       0.579162       0.707017
      14.970000       0.197525       0.575170       0.696078
      14.980000       0.195469       0.571593       0.686144
      14.990000       0.193482       0.568408       0.677154
      15.000000       0.191612       0.565829       0.669073
      15.010000       0.189920       0.564239       0.661838
      15.020000       0.188466       0.564103       0.655312
      15.030000       0.187294       0.565858       0.649239
      15.040000       0.186431       0.569839       0.643261
      15.050000       0.185879       0.576227       0.636954
      15.060000       0.185619       0.585028       0.629908
      15.070000       0.185611       0.596080       0.621802
      15.080000       0.185799       0.609077       0.612454
      15.090000       0.186111       0.623607       0.601850
      15.100000       0.186464       0.639205       0.590139
      15.110000       0.186775       0.655398       0.577600
      15.120000       0.186964       0.671746       0.564587
      15.130000       0.186972       0.687871       0.551469
      15.140000       0.186765       0.703475       0.538571
      15.150000       0.186345       0.718348       0.526137
      15.160000       0.185743       0.732355       0.514323
      15.170000       0.185011       0.745413       0.503204
      15.180000       0.184206       0.757464       0.492813
      15.190000       0.183380       0.768460       0.483171
      15.200000       0.182571       0.778385       0.474314
      15.210000       0.181809       0.787285       0.466301
      15.220000       0.181117       0.795295       0.459204
      15.230000       0.180510       0.802611       0.453090
      15.240000       0.179993       0.809436       0.448002
      15.250000       0.179558       0.815906       0.443951
      15.260000       0.179176       0.822049       0.440918
      15.270000       0.178814       0.827810       0.438858
      15.280000       0.178441       0.833114       0.437712
      15.290000       0.178052       0.837926       0.437408
      15.300000       0.177672       0.842240       0.437859
      15.310000       0.177359       0.845988       0.438968
      15.320000       0.177183       0.848914       0.440631
      15.330000       0.177219       0.850498       0.442747
      15.340000       0.177528       0.849975       0.445236
      15.350000       0.178152       0.846500       0.448058
      15.360000       0.179112       0.839375       0.451215
      15.370000       0.180402       0.828282       0.454742
      15.380000       0.181993       0.813414       0.458664
      15.390000       0.183836       0.795458       0.462933
      15.400000       0.185874       0.775432       0.467369
      15.410000       0.188048       0.754460       0.471623
      15.420000       0.190312       0.733548       0.475195
      15.430000       0.192618       0.713428       0.477496
      15.440000       0.194918       0.694505       0.477965
      15.450000       0.197146       0.676883       0.476180
      15.460000       0.199224       0.660477       0.471957
      15.470000       0.201076       0.645144       0.465379
      15.480000       0.202646       0.630802       0.456770
      15.490000       0.203912       0.617481       0.446623
      15.500000       0.204890       0.605306       0.435501
      15.510000       0.205618       0.594429       0.423958
      15.520000       0.206150       0.584947       0.412475
      15.530000       0.206535       0.576866       0.401429
      15.540000       0.206823       0.570111       0.391087
      15.550000       0.207068       0.564588       0.381624
      15.560000       0.207336       0.560258       0.373145
      15.570000       0.207708       0.557177       0.365712
      15.580000       0.208267       0.555487       0.359355
      15.590000       0.209087       0.555360       0.354089
      15.600000       0.210216       0.556922       0.349914
      15.610000       0.211670       0.560190       0.346823
      15.620000       0.213435       0.565046       0.344804
      15.630000       0.215479       0.571248       0.343845
      15.640000       0.217763       0.578465       0.343928
      15.650000       0.220245       0.586316       0.345022
      15.660000       0.222886       0.594400       0.347078
      15.670000       0.225645       0.602293       0.350023
      15.680000       0.228468       0.609555       0.353749
      15.690000       0.231288       0.615745       0.358113
      15.700000       0.234015       0.620470       0.362919
      15.710000       0.236553       0.623446       0.367919
      15.720000       0.238798       0.624532       0.372805
      15.730000       0.240652       0.623749       0.377239
      15.740000       0.242021       0.621255       0.380886
      15.750000       0.242804       0.617322       0.383468
      15.760000       0.242897       0.612319       0.384807
      15.770000       0.242192       0.606697       0.384859
      15.780000       0.240589       0.600963       0.383718
      15.790000       0.238013       0.595646       0.381601
      15.800000       0.234436       0.591240       0.378813
      15.810000       0.229883       0.588170       0.375697
      15.820000       0.224441       0.586773       0.372587
      15.830000       0.218251       0.587309       0.369763
      15.840000       0.211488       0.589995       0.367425
      15.850000       0.204343       0.595025       0.365685
      15.860000       0.197007       0.602574       0.364565
      15.870000       0.189658       0.612777       0.364022
      15.880000       0.182454       0.625700       0.363971
      15.890000       0.175529       0.641296       0.364319
      15.900000       0.168990       0.659378       0.364986
      15.910000       0.162912       0.679604       0.365937
      15.920000       0.157342       0.701484       0.367175
      15.930000       0.152301       0.724419       0.368739
      15.940000       0.147794       0.747762       0.370675
      15.950000       0.143816       0.770899       0.373010
      15.960000       0.140356       0.793316       0.375737
      15.970000       0.137397       0.814644       0.378815
      15.980000       0.134913       0.834679       0.382171
      15.990000       0.132867       0.853362       0.385720
      16.000000       0.131214       0.870741       0.389380
      16.010000       0.129907       0.886900       0.393087
      16.020000       0.128897       0.901897       0.396804
      16.030000       0.128145       0.915722       0.400524
      16.040000       0.127617       0.928300       0.404270
      16.050000       0.127291       0.939556       0.408068
      16.060000       0.127152       0.949521       0.411924
      16.070000       0.127196       0.958430       0.415793
      16.080000       0.127428       0.966787       0.419557
      16.090000       0.127863       0.975332       0.423019
      16.100000       0.128525       0.984929       0.425907
      16.110000       0.129443       0.996405       0.427899
      16.120000       0.130638       1.010377       0.428661
      16.130000       0.132113       1.027113       0.427898
      16.140000       0.133846       1.046445       0.425422
      16.150000       0.135778       1.067731       0.421205
      16.160000       0.137817       1.089901       0.415412
      16.170000       0.139848       1.111568       0.408377
      16.180000       0.141751       1.131230       0.400538
      16.190000       0.143417       1.147507       0.392356
      16.200000       0.144770       1.159355       0.384232
      16.210000       0.145772       1.166177       0.376467
      16.220000       0.146416       1.167811       0.369239
      16.230000       0.146717       1.164413       0.362618
      16.240000       0.146705       1.156317       0.356583
      16.250000       0.146417       1.143951       0.351040
      16.260000       0.145897       1.127823       0.345845
      16.270000       0.145201       1.108569       0.340836
      16.280000       0.144396       1.086978       0.335859
      16.290000       0.143559       1.063974       0.330800
      16.300000       0.142769       1.040540       0.325598
      16.310000       0.142099       1.017620       0.320258
      16.320000       0.141617       0.996028       0.314838
      16.330000       0.141381       0.976373       0.309434
      16.340000       0.141435       0.959014       0.304157
      16.350000       0.141808       0.944022       0.299108
      16.360000       0.142503       0.931172       0.294361
      16.370000       0.143493       0.919977       0.289959
      16.380000       0.144722       0.909771       0.285910
      16.390000       0.146111       0.899849       0.282198
      16.400000       0.147575       0.889619       0.278789
      16.410000       0.149035       0.878733       0.275634
      16.420000       0.150437       0.867158       0.272679
      16.430000       0.151762       0.855166       0.269867
      16.440000       0.153014       0.843244       0.267147
      16.450000       0.154220       0.831973       0.264485
      16.460000       0.155417       0.821887       0.261872
      16.470000       0.156640       0.813371       0.259322
      16.480000       0.157923       0.806604       0.256874
      16.490000       0.159291       0.801571       0.254577
      16.500000       0.160762       0.798109       0.252484
      16.510000       0.162344       0.795987       0.250646
      16.520000       0.164030       0.794969       0.249103
      16.530000       0.165807       0.794865       0.247886
      16.540000       0.167655       0.795549       0.247015
      16.550000       0.169554       0.796950       0.246501
      16.560000       0.171479       0.799019       0.246349
      16.570000       0.173403       0.801680       0.246558
      16.580000       0.175292       0.804774       0.247125
      16.590000       0.177104       0.808021       0.248046
      16.600000       0.178793       0.811026       0.249318
      16.610000       0.180312       0.813332       0.250945
      16.620000       0.181617       0.814517       0.252941
      16.630000       0.182668       0.814287       0.255334
      16.640000       0.183432       0.812546       0.258162
      16.650000       0.183887       0.809415       0.261465
      16.660000       0.184027       0.805192       0.265274
      16.670000       0.183868       0.800270       0.269596
      16.680000       0.183446       0.795045       0.274413
      16.690000       0.182819       0.789838       0.279674
      16.700000       0.182049       0.784844       0.285306
      16.710000       0.181193       0.780113       0.291218
      16.720000       0.180289       0.775568       0.297313
      16.730000       0.179346       0.771044       0.303481
      16.740000       0.178342       0.766358       0.309601
      16.750000       0.177224       0.761377       0.315528
      16.760000       0.175924       0.756071       0.321082
      16.770000       0.174367       0.750536       0.326044
      16.780000       0.172490       0.744981       0.330163
      16.790000       0.170260       0.739696       0.333167
      16.800000       0.167683       0.735015       0.334783
      16.810000       0.164813       0.731282       0.334767
      16.820000       0.161747       0.728809       0.332941
      16.830000       0.158601       0.727829       0.329232
      16.840000       0.155498       0.728453       0.323706
      16.850000       0.152540       0.730663       0.316573
      16.860000       0.149805       0.734333       0.308171
      16.870000       0.147344       0.739310       0.298905
      16.880000       0.145184       0.745486       0.289189
      16.890000       0.143333       0.752849       0.279384
      16.900000       0.141784       0.761481       0.269759
      16.910000       0.140508       0.771514       0.260491
      16.920000       0.139459       0.783061       0.251671
      16.930000       0.138577       0.796140       0.243336
      16.940000       0.137795       0.810606       0.235495
      16.950000       0.137053       0.826085       0.228149
      16.960000       0.136303       0.841937       0.221310
      16.970000       0.135516       0.857271       0.214999
      16.980000       0.134677       0.871021       0.209244
      16.990000       0.133784       0.882108       0.204070
      17.000000       0.132838       0.889625       0.199483
      17.010000       0.131839       0.893012       0.195471
      17.020000       0.130787       0.892156       0.191997
      17.030000       0.129679       0.887383       0.189013
      17.040000       0.128517       0.879364       0.186472
      17.050000       0.127304       0.868980       0.184335
      17.060000       0.126055       0.857194       0.182584
      17.070000       0.124797       0.844944       0.181215
      17.080000       0.123563       0.833071       0.180234
      17.090000       0.122393       0.822253       0.179658
      17.100000       0.121321       0.812974       0.179501
      17.110000       0.120374       0.805500       0.179773
      17.120000       0.119561       0.799897       0.180476
      17.130000       0.118884       0.796078       0.181599
      17.140000       0.118330       0.793857       0.183119
      17.150000       0.117887       0.793009       0.184996
      17.160000       0.117544       0.793305       0.187185
      17.170000       0.117292       0.794530       0.189631
      17.180000       0.117132       0.796468       0.192282
      17.190000       0.117067       0.798900       0.195081
      17.200000       0.117103       0.801589       0.197968
      17.210000       0.117246       0.804293       0.200877
      17.220000       0.117497       0.806758       0.203746
      17.230000       0.117850       0.808714       0.206522
      17.240000       0.118287       0.809858       0.209183
      17.250000       0.118776       0.809845       0.211746
      17.260000       0.119277       0.808307       0.214269
      17.270000       0.119744       0.804918       0.216835
      17.280000       0.120132       0.799478       0.219528
      17.290000       0.120407       0.791997       0.222410
      17.300000       0.120555       0.782726       0.225511
      17.310000       0.120583       0.772115       0.228828
      17.320000       0.120518       0.760713       0.232336
      17.330000       0.120406       0.749065       0.236005
      17.340000       0.120302       0.737621       0.239807
      17.350000       0.120266       0.726706       0.243719
      17.360000       0.120355       0.716528       0.247725
      17.370000       0.120610       0.707210       0.251805
      17.380000       0.121057       0.698835       0.255932
      17.390000       0.121697       0.691487       0.260058
      17.400000       0.122507       0.685259       0.264108
      17.410000       0.123445       0.680265       0.267974
      17.420000       0.124452       0.676617       0.271514
      17.430000       0.125454       0.674416       0.274558
      17.440000       0.126376       0.673725       0.276922
      17.450000       0.127141       0.674556       0.278430
      17.460000       0.127684       0.676837       0.278941
      17.470000       0.127955       0.680384       0.278385
      17.480000       0.127926       0.684876       0.276776
      17.490000       0.127589       0.689840       0.274222
      17.500000       0.126955       0.694677       0.270901
      17.510000       0.126053       0.698732       0.267033
      17.520000       0.124920       0.701411       0.262841
      17.530000       0.123604       0.702301       0.258528
      17.540000       0.122155       0.701248       0.254258
      17.550000       0.120634       0.698371       0.250158
      17.560000       0.119105       0.694001       0.246318
      17.570000       0.117639       0.688590       0.242810
      17.580000       0.116309       0.682632       0.239691
      17.590000       0.115186       0.676612       0.237003
      17.600000       0.114332       0.670981       0.234780
      17.610000       0.113792       0.666137       0.233036
      17.620000       0.113596       0.662391       0.231778
      17.630000       0.113753       0.659931       0.231005
      17.640000       0.114253       0.658783       0.230712
      17.650000       0.115066       0.658785       0.230890
      17.660000       0.116147       0.659609       0.231513
      17.670000       0.117439       0.660809       0.232534
      17.680000       0.118883       0.661898       0.233882
      17.690000       0.120422       0.662427       0.235475
      17.700000       0.122001       0.662050       0.237236
      17.710000       0.123571       0.660551       0.239107
      17.720000       0.125079       0.657849       0.241059
      17.730000       0.126474       0.653971       0.243094
      17.740000       0.127708       0.649019       0.245228
      17.750000       0.128738       0.643134       0.247490
      17.760000       0.129530       0.636465       0.249901
      17.770000       0.130060       0.629143       0.252481
      17.780000       0.130303       0.621268       0.255248
      17.790000       0.130237       0.612895       0.258221
      17.800000       0.129837       0.604046       0.261422
      17.810000       0.129082       0.594721       0.264860
      17.820000       0.127967       0.584927       0.268522
      17.830000       0.126512       0.574717       0.272360
      17.840000       0.124768       0.564218       0.276286
      17.850000       0.122809       0.553648       0.280164
      17.860000       0.120733       0.543309       0.283816
      17.870000       0.118637       0.533553       0.287037
      17.880000       0.116614       0.524738       0.289605
      17.890000       0.114737       0.517181       0.291312
      17.900000       0.113059       0.511110       0.291998
      17.910000       0.111608       0.506633       0.291582
      17.920000       0.110391       0.503712       0.290085
      17.930000       0.109392       0.502154       0.287630
      17.940000       0.108583       0.501618       0.284410
      17.950000       0.107920       0.501648       0.280639
      17.960000       0.107358       0.501730       0.276511
      17.970000       0.106848       0.501371       0.272174
      17.980000       0.106353       0.500179       0.267719
      17.990000       0.105846       0.497932       0.263196
      18.000000       0.105313       0.494597       0.258630
      18.010000       0.104754       0.490316       0.254040
      18.020000       0.104176       0.485334       0.249459
      18.030000       0.103592       0.479930       0.244944
      18.040000       0.103016       0.474346       0.240578
      18.050000       0.102463       0.468748       0.236466
      18.060000       0.101949       0.463233       0.232726
      18.070000       0.101489       0.457858       0.229478
      18.080000       0.101103       0.452674       0.226829
      18.090000       0.100813       0.447754       0.224867
      18.100000       0.100639       0.443178       0.223652
      18.110000       0.100600       0.439008       0.223212
      18.120000       0.100703       0.435250       0.223535
      18.130000       0.100940       0.431842       0.224575
      18.140000       0.101293       0.428670       0.226253
      18.150000       0.101733       0.425621       0.228471
      18.160000       0.102228       0.422615       0.231121
      18.170000       0.102748       0.419637       0.234090
      18.180000       0.103271       0.416725       0.237267
      18.190000       0.103780       0.413950       0.240536
      18.200000       0.104268       0.411395       0.243779
      18.210000       0.104735       0.409144       0.246871
      18.220000       0.105174       0.407285       0.249686
      18.230000       0.105575       0.405910       0.252105
      18.240000       0.105918       0.405109       0.254021
      18.250000       0.106172       0.404945       0.255352
      18.260000       0.106307       0.405433       0.256046
      18.270000       0.106299       0.406514       0.256086
      18.280000       0.106133       0.408059       0.255495
      18.290000       0.105812       0.409885       0.254336
      18.300000       0.105352       0.411796       0.252709
      18.310000       0.104778       0.413604       0.250736
      18.320000       0.104127       0.415142       0.248542
      18.330000       0.103430       0.416251       0.246236
      18.340000       0.102720       0.416760       0.243896
      18.350000       0.102021       0.416485       0.241568
      18.360000       0.101352       0.415234       0.239275
      18.370000       0.100729       0.412838       0.237028
      18.380000       0.100166       0.409186       0.234838
      18.390000       0.099678       0.404248       0.232727
      18.400000       0.099273       0.398093       0.230725
      18.410000       0.098956       0.390889       0.228864
      18.420000       0.098715       0.382890       0.227168
      18.430000       0.098529       0.374406       0.225638
      18.440000       0.098359       0.365780       0.224253
      18.450000       0.098158       0.357345       0.222962
      18.460000       0.097881       0.349404       0.221697
      18.470000       0.097491       0.342199       0.220379
      18.480000       0.096973       0.335898       0.218932
      18.490000       0.096342       0.330581       0.217289
      18.500000       0.095636       0.326251       0.215404
      18.510000       0.094906       0.322843       0.213263
      18.520000       0.094201       0.320244       0.210897
      18.530000       0.093557       0.318311       0.208385
      18.540000       0.092990       0.316881       0.205844
      18.550000       0.092492       0.315775       0.203417
      18.560000       0.092036       0.314807       0.201249
      18.570000       0.091585       0.313794       0.199465
      18.580000       0.091098       0.312575       0.198157
      18.590000       0.090542       0.311031       0.197376
      18.600000       0.089899       0.309104       0.197131
      18.610000       0.089169       0.306795       0.197381
      18.620000       0.088370       0.304165       0.198043
      18.630000       0.087534       0.301317       0.198991
      18.640000       0.086695       0.298386       0.200074
      18.650000       0.085885       0.295516       0.201131
      18.660000       0.085124       0.292842       0.202014
      18.670000       0.084414       0.290466       0.202616
      18.680000       0.083743       0.288450       0.202887
      18.690000       0.083083       0.286811       0.202843
      18.700000       0.082400       0.285528       0.202555
      18.710000       0.081654       0.284546       0.202131
      18.720000       0.080811       0.283788       0.201681
      18.730000       0.079850       0.283160       0.201297
      18.740000       0.078764       0.282553       0.201044
      18.750000       0.077566       0.281856       0.200955
      18.760000       0.076281       0.280962       0.201046
      18.770000       0.074945       0.279771       0.201327
      18.780000       0.073594       0.278202       0.201810
      18.790000       0.072264       0.276194       0.202507
      18.800000       0.070985       0.273713       0.203420
      18.810000       0.069786       0.270759       0.204531
      18.820000       0.068693       0.267374       0.205796
      18.830000       0.067731       0.263651       0.207135
      18.840000       0.066925       0.259733       0.208440
      18.850000       0.066302       0.255807       0.209582
      18.860000       0.065888       0.252081       0.210424
      18.870000       0.065706       0.248756       0.210841
      18.880000       0.065774       0.246002       0.210737
      18.890000       0.066099       0.243934       0.210059
      18.900000       0.066676       0.242591       0.208805
      18.910000       0.067485       0.241938       0.207023
      18.920000       0.068492       0.241860       0.204803
      18.930000       0.069649       0.242186       0.202253
      18.940000       0.070899       0.242716       0.199480
      18.950000       0.072174       0.243254       0.196572
      18.960000       0.073410       0.243648       0.193592
      18.970000       0.074544       0.243818       0.190581
      18.980000       0.075526       0.243760       0.187573
      18.990000       0.076328       0.243537       0.184598
      19.000000       0.076945       0.243252       0.181694
      19.010000       0.077395       0.243014       0.178902
      19.020000       0.077714       0.242916       0.176267
      19.030000       0.077947       0.243019       0.173835
      19.040000       0.078132       0.243350       0.171652
      19.050000       0.078293       0.243902       0.169761
      19.060000       0.078437       0.244638       0.168196
      19.070000       0.078553       0.245503       0.166981
      19.080000       0.078623       0.246425       0.166118
      19.090000       0.078632       0.247327       0.165592
      19.100000       0.078572       0.248140       0.165364
      19.110000       0.078449       0.248816       0.165372
      19.120000       0.078279       0.249327       0.165535
      19.130000       0.078080       0.249665       0.165755
      19.140000       0.077873       0.249823       0.165923
      19.150000       0.077674       0.249775       0.165936
      19.160000       0.077493       0.249469       0.165710
      19.170000       0.077333       0.248828       0.165198
      19.180000       0.077193       0.247770       0.164399
      19.190000       0.077068       0.246228       0.163362
      19.200000       0.076950       0.244173       0.162166
      19.210000       0.076832       0.241625       0.160905
      19.220000       0.076710       0.238645       0.159661
      19.230000       0.076584       0.235317       0.158487
      19.240000       0.076457       0.231723       0.157410
      19.250000       0.076334       0.227917       0.156432
      19.260000       0.076218       0.223926       0.155548
      19.270000       0.076110       0.219748       0.154755
      19.280000       0.076003       0.215375       0.154065
      19.290000       0.075887       0.210812       0.153501
      19.300000       0.075751       0.206097       0.153099
      19.310000       0.075592       0.201301       0.152902
      19.320000       0.075418       0.196526       0.152955
      19.330000       0.075250       0.191894       0.153293
      19.340000       0.075118       0.187533       0.153942
      19.350000       0.075057       0.183563       0.154907
      19.360000       0.075098       0.180081       0.156173
      19.370000       0.075263       0.177152       0.157705
      19.380000       0.075556       0.174811       0.159440
      19.390000       0.075971       0.173061       0.161298
      19.400000       0.076485       0.171887       0.163174
      19.410000       0.077063       0.171259       0.164950
      19.420000       0.077667       0.171143       0.166501
      19.430000       0.078254       0.171498       0.167709
      19.440000       0.078787       0.172278       0.168472
      19.450000       0.079234       0.173420       0.168716
      19.460000       0.079578       0.174846       0.168392
      19.470000       0.079816       0.176457       0.167490
      19.480000       0.079958       0.178139       0.166035
      19.490000       0.080023       0.179776       0.164092
      19.500000       0.080033       0.181259       0.161765
      19.510000       0.080003       0.182508       0.159189
      19.520000       0.079944       0.183476       0.156515
      19.530000       0.079855       0.184154       0.153895
      19.540000       0.079737       0.184568       0.151464
      19.550000       0.079592       0.184763       0.149328
      19.560000       0.079437       0.184796       0.147566
      19.570000       0.079303       0.184716       0.146228
      19.580000       0.079232       0.184566       0.145332
      19.590000       0.079271       0.184369       0.144874
      19.600000       0.079461       0.184136       0.144820
      19.610000       0.079836       0.183863       0.145111
      19.620000       0.080413       0.183531       0.145662
      19.630000       0.081198       0.183118       0.146375
      19.640000       0.082186       0.182611       0.147137
      19.650000       0.083368       0.182022       0.147843
      19.660000       0.084729       0.181393       0.148404
      19.670000       0.086248       0.180780       0.148763
      19.680000       0.087901       0.180244       0.148902
      19.690000       0.089660       0.179827       0.148841
      19.700000       0.091497       0.179547       0.148629
      19.710000       0.093388       0.179393       0.148331
      19.720000       0.095320       0.179323       0.148002
      19.730000       0.097285       0.179274       0.147681
      19.740000       0.099289       0.179179       0.147371
      19.750000       0.101340       0.178987       0.147050
      19.760000       0.103450       0.178685       0.146673
      19.770000       0.105625       0.178313       0.146193
      19.780000       0.107860       0.177959       0.145578
      19.790000       0.110142       0.177745       0.144817
      19.800000       0.112447       0.177803       0.143932
      19.810000       0.114745       0.178250       0.142966
      19.820000       0.117007       0.179164       0.141976
      19.830000       0.119210       0.180580       0.141017
      19.840000       0.121342       0.182482       0.140128
      19.850000       0.123400       0.184813       0.139321
      19.860000       0.125389       0.187490       0.138576
      19.870000       0.127317       0.190419       0.137852
      19.880000       0.129187       0.193515       0.137102
      19.890000       0.130988       0.196712       0.136292
      19.900000       0.132697       0.199968       0.135423
      19.910000       0.134280       0.203260       0.134537
      19.920000       0.135703       0.206578       0.133720
      19.930000       0.136933       0.209914       0.133078
      19.940000       0.137951       0.213252       0.132723
      19.950000       0.138746       0.216561       0.132754
      19.960000       0.139316       0.219786       0.133242
      19.970000       0.139660       0.222846       0.134225
      19.980000       0.139777       0.225642       0.135705
      19.990000       0.139667       0.228072       0.137649
      20.000000       0.139335       0.230050       0.139992
