  # energy grid [eV]     epsi_x  epsi_y  epsi_z
       0.000000            NaN            NaN            NaN
       0.010000       0.000100       0.000010       0.000146
       0.020000       0.000201       0.000020       0.000293
       0.030000       0.000301       0.000031       0.000440
       0.040000       0.000402       0.000041       0.000587
       0.050000       0.000502       0.000051       0.000735
       0.060000       0.000602       0.000061       0.000885
       0.070000       0.000703       0.000071       0.001035
       0.080000       0.000803       0.000082       0.001187
       0.090000       0.000904       0.000092       0.001340
       0.100000       0.001004       0.000102       0.001495
       0.110000       0.001105       0.000112       0.001652
       0.120000       0.001206       0.000122       0.001811
       0.130000       0.001306       0.000133       0.001973
       0.140000       0.001407       0.000143       0.002138
       0.150000       0.001508       0.000153       0.002306
       0.160000       0.001609       0.000163       0.002477
       0.170000       0.001709       0.000173       0.002652
       0.180000       0.001810       0.000184       0.002832
       0.190000       0.001911       0.000194       0.003016
       0.200000       0.002012       0.000204       0.003205
       0.210000       0.002114       0.000214       0.003399
       0.220000       0.002215       0.000224       0.003599
       0.230000       0.002316       0.000235       0.003806
       0.240000       0.002418       0.000245       0.004020
       0.250000       0.002519       0.000255       0.004242
       0.260000       0.002621       0.000265       0.004473
       0.270000       0.002722       0.000276       0.004713
       0.280000       0.002824       0.000286       0.004963
       0.290000       0.002926       0.000296       0.005225
       0.300000       0.003028       0.000306       0.005500
       0.310000       0.003130       0.000317       0.005788
       0.320000       0.003233       0.000327       0.006091
       0.330000       0.003335       0.000337       0.006412
       0.340000       0.003437       0.000347       0.006751
       0.350000       0.003540       0.000358       0.007110
       0.360000       0.003643       0.000368       0.007493
       0.370000       0.003746       0.000378       0.007901
       0.380000       0.003849       0.000389       0.008338
       0.390000       0.003952       0.000399       0.008808
       0.400000       0.004055       0.000409       0.009313
       0.410000       0.004159       0.000420       0.009858
       0.420000       0.004263       0.000430       0.010449
       0.430000       0.004366       0.000440       0.011091
       0.440000       0.004470       0.000451       0.011791
       0.450000       0.004574       0.000461       0.012557
       0.460000       0.004679       0.000471       0.013397
       0.470000       0.004783       0.000482       0.014323
       0.480000       0.004888       0.000492       0.015345
       0.490000       0.004993       0.000502       0.016478
       0.500000       0.005098       0.000513       0.017736
       0.510000       0.005203       0.000523       0.019137
       0.520000       0.005309       0.000534       0.020700
       0.530000       0.005414       0.000544       0.022446
       0.540000       0.005520       0.000554       0.024397
       0.550000       0.005626       0.000565       0.026575
       0.560000       0.005733       0.000575       0.029000
       0.570000       0.005839       0.000586       0.031684
       0.580000       0.005946       0.000596       0.034633
       0.590000       0.006053       0.000607       0.037830
       0.600000       0.006160       0.000617       0.041234
       0.610000       0.006268       0.000628       0.044764
       0.620000       0.006376       0.000638       0.048293
       0.630000       0.006484       0.000649       0.051641
       0.640000       0.006592       0.000659       0.054586
       0.650000       0.006700       0.000670       0.056887
       0.660000       0.006809       0.000680       0.058328
       0.670000       0.006918       0.000691       0.058765
       0.680000       0.007028       0.000701       0.058163
       0.690000       0.007137       0.000712       0.056608
       0.700000       0.007247       0.000722       0.054281
       0.710000       0.007357       0.000733       0.051415
       0.720000       0.007468       0.000744       0.048247
       0.730000       0.007578       0.000754       0.044983
       0.740000       0.007689       0.000765       0.041781
       0.750000       0.007801       0.000775       0.038748
       0.760000       0.007912       0.000786       0.035947
       0.770000       0.008024       0.000797       0.033407
       0.780000       0.008137       0.000807       0.031135
       0.790000       0.008249       0.000818       0.029123
       0.800000       0.008362       0.000829       0.027353
       0.810000       0.008476       0.000840       0.025806
       0.820000       0.008589       0.000850       0.024459
       0.830000       0.008703       0.000861       0.023293
       0.840000       0.008818       0.000872       0.022287
       0.850000       0.008933       0.000883       0.021424
       0.860000       0.009048       0.000893       0.020687
       0.870000       0.009163       0.000904       0.020064
       0.880000       0.009279       0.000915       0.019541
       0.890000       0.009395       0.000926       0.019110
       0.900000       0.009512       0.000937       0.018761
       0.910000       0.009629       0.000948       0.018487
       0.920000       0.009746       0.000958       0.018283
       0.930000       0.009864       0.000969       0.018142
       0.940000       0.009982       0.000980       0.018061
       0.950000       0.010101       0.000991       0.018036
       0.960000       0.010220       0.001002       0.018067
       0.970000       0.010340       0.001013       0.018150
       0.980000       0.010460       0.001024       0.018285
       0.990000       0.010580       0.001035       0.018471
       1.000000       0.010701       0.001046       0.018709
       1.010000       0.010822       0.001057       0.019001
       1.020000       0.010944       0.001068       0.019347
       1.030000       0.011066       0.001079       0.019751
       1.040000       0.011189       0.001090       0.020214
       1.050000       0.011312       0.001101       0.020742
       1.060000       0.011436       0.001112       0.021340
       1.070000       0.011560       0.001124       0.022012
       1.080000       0.011685       0.001135       0.022766
       1.090000       0.011810       0.001146       0.023611
       1.100000       0.011936       0.001157       0.024556
       1.110000       0.012062       0.001168       0.025613
       1.120000       0.012189       0.001180       0.026794
       1.130000       0.012316       0.001191       0.028115
       1.140000       0.012444       0.001202       0.029595
       1.150000       0.012573       0.001213       0.031254
       1.160000       0.012702       0.001225       0.033115
       1.170000       0.012831       0.001236       0.035205
       1.180000       0.012961       0.001248       0.037555
       1.190000       0.013092       0.001259       0.040198
       1.200000       0.013223       0.001270       0.043169
       1.210000       0.013355       0.001282       0.046505
       1.220000       0.013488       0.001293       0.050242
       1.230000       0.013621       0.001305       0.054407
       1.240000       0.013755       0.001316       0.059015
       1.250000       0.013889       0.001328       0.064060
       1.260000       0.014024       0.001339       0.069494
       1.270000       0.014160       0.001351       0.075220
       1.280000       0.014296       0.001362       0.081066
       1.290000       0.014433       0.001374       0.086781
       1.300000       0.014571       0.001386       0.092033
       1.310000       0.014709       0.001397       0.096437
       1.320000       0.014848       0.001409       0.099608
       1.330000       0.014988       0.001421       0.101237
       1.340000       0.015129       0.001433       0.101159
       1.350000       0.015270       0.001444       0.099400
       1.360000       0.015412       0.001456       0.096165
       1.370000       0.015555       0.001468       0.091792
       1.380000       0.015698       0.001480       0.086672
       1.390000       0.015842       0.001492       0.081180
       1.400000       0.015987       0.001504       0.075630
       1.410000       0.016133       0.001516       0.070252
       1.420000       0.016280       0.001527       0.065198
       1.430000       0.016427       0.001539       0.060553
       1.440000       0.016575       0.001552       0.056351
       1.450000       0.016724       0.001564       0.052594
       1.460000       0.016874       0.001576       0.049263
       1.470000       0.017025       0.001588       0.046327
       1.480000       0.017176       0.001600       0.043752
       1.490000       0.017329       0.001612       0.041501
       1.500000       0.017482       0.001624       0.039540
       1.510000       0.017636       0.001637       0.037837
       1.520000       0.017791       0.001649       0.036362
       1.530000       0.017947       0.001661       0.035092
       1.540000       0.018104       0.001673       0.034002
       1.550000       0.018262       0.001686       0.033075
       1.560000       0.018421       0.001698       0.032293
       1.570000       0.018581       0.001711       0.031643
       1.580000       0.018742       0.001723       0.031113
       1.590000       0.018903       0.001736       0.030693
       1.600000       0.019066       0.001748       0.030376
       1.610000       0.019230       0.001761       0.030153
       1.620000       0.019395       0.001773       0.030022
       1.630000       0.019561       0.001786       0.029976
       1.640000       0.019728       0.001799       0.030014
       1.650000       0.019896       0.001811       0.030135
       1.660000       0.020065       0.001824       0.030336
       1.670000       0.020235       0.001837       0.030620
       1.680000       0.020407       0.001850       0.030988
       1.690000       0.020579       0.001863       0.031443
       1.700000       0.020753       0.001875       0.031987
       1.710000       0.020928       0.001888       0.032627
       1.720000       0.021104       0.001901       0.033369
       1.730000       0.021281       0.001914       0.034220
       1.740000       0.021459       0.001927       0.035191
       1.750000       0.021639       0.001941       0.036292
       1.760000       0.021820       0.001954       0.037538
       1.770000       0.022002       0.001967       0.038944
       1.780000       0.022186       0.001980       0.040529
       1.790000       0.022371       0.001993       0.042314
       1.800000       0.022557       0.002007       0.044325
       1.810000       0.022744       0.002020       0.046590
       1.820000       0.022933       0.002033       0.049143
       1.830000       0.023124       0.002047       0.052019
       1.840000       0.023315       0.002060       0.055261
       1.850000       0.023508       0.002074       0.058911
       1.860000       0.023703       0.002087       0.063013
       1.870000       0.023899       0.002101       0.067611
       1.880000       0.024096       0.002115       0.072739
       1.890000       0.024295       0.002128       0.078416
       1.900000       0.024496       0.002142       0.084630
       1.910000       0.024698       0.002156       0.091329
       1.920000       0.024902       0.002170       0.098392
       1.930000       0.025107       0.002184       0.105620
       1.940000       0.025314       0.002198       0.112715
       1.950000       0.025523       0.002212       0.119291
       1.960000       0.025733       0.002226       0.124898
       1.970000       0.025945       0.002240       0.129085
       1.980000       0.026158       0.002254       0.131476
       1.990000       0.026374       0.002268       0.131849
       2.000000       0.026591       0.002283       0.130186
       2.010000       0.026810       0.002297       0.126680
       2.020000       0.027031       0.002311       0.121689
       2.030000       0.027254       0.002326       0.115657
       2.040000       0.027478       0.002340       0.109040
       2.050000       0.027705       0.002355       0.102240
       2.060000       0.027933       0.002370       0.095566
       2.070000       0.028164       0.002384       0.089238
       2.080000       0.028396       0.002399       0.083384
       2.090000       0.028631       0.002414       0.078071
       2.100000       0.028867       0.002429       0.073313
       2.110000       0.029106       0.002444       0.069098
       2.120000       0.029347       0.002459       0.065393
       2.130000       0.029590       0.002474       0.062158
       2.140000       0.029835       0.002489       0.059349
       2.150000       0.030082       0.002504       0.056924
       2.160000       0.030332       0.002519       0.054843
       2.170000       0.030584       0.002534       0.053069
       2.180000       0.030839       0.002550       0.051571
       2.190000       0.031096       0.002565       0.050321
       2.200000       0.031355       0.002581       0.049295
       2.210000       0.031617       0.002596       0.048474
       2.220000       0.031881       0.002612       0.047840
       2.230000       0.032148       0.002628       0.047380
       2.240000       0.032417       0.002644       0.047082
       2.250000       0.032689       0.002659       0.046939
       2.260000       0.032964       0.002675       0.046944
       2.270000       0.033242       0.002691       0.047093
       2.280000       0.033522       0.002707       0.047385
       2.290000       0.033805       0.002724       0.047819
       2.300000       0.034092       0.002740       0.048398
       2.310000       0.034381       0.002756       0.049125
       2.320000       0.034673       0.002773       0.050007
       2.330000       0.034968       0.002789       0.051052
       2.340000       0.035266       0.002806       0.052272
       2.350000       0.035567       0.002822       0.053680
       2.360000       0.035872       0.002839       0.055292
       2.370000       0.036180       0.002856       0.057129
       2.380000       0.036491       0.002873       0.059213
       2.390000       0.036806       0.002890       0.061572
       2.400000       0.037124       0.002907       0.064239
       2.410000       0.037445       0.002924       0.067250
       2.420000       0.037771       0.002942       0.070649
       2.430000       0.038100       0.002959       0.074484
       2.440000       0.038432       0.002977       0.078808
       2.450000       0.038769       0.002994       0.083681
       2.460000       0.039109       0.003012       0.089163
       2.470000       0.039453       0.003030       0.095316
       2.480000       0.039802       0.003048       0.102193
       2.490000       0.040154       0.003066       0.109834
       2.500000       0.040511       0.003084       0.118248
       2.510000       0.040872       0.003102       0.127399
       2.520000       0.041237       0.003120       0.137180
       2.530000       0.041607       0.003139       0.147398
       2.540000       0.041981       0.003157       0.157751
       2.550000       0.042360       0.003176       0.167830
       2.560000       0.042744       0.003195       0.177141
       2.570000       0.043133       0.003214       0.185144
       2.580000       0.043526       0.003233       0.191323
       2.590000       0.043925       0.003252       0.195249
       2.600000       0.044328       0.003271       0.196645
       2.610000       0.044737       0.003290       0.195424
       2.620000       0.045152       0.003310       0.191703
       2.630000       0.045572       0.003330       0.185792
       2.640000       0.045997       0.003349       0.178148
       2.650000       0.046429       0.003369       0.169310
       2.660000       0.046866       0.003389       0.159825
       2.670000       0.047309       0.003410       0.150182
       2.680000       0.047758       0.003430       0.140772
       2.690000       0.048214       0.003451       0.131874
       2.700000       0.048676       0.003471       0.123663
       2.710000       0.049145       0.003492       0.116225
       2.720000       0.049621       0.003513       0.109586
       2.730000       0.050103       0.003534       0.103728
       2.740000       0.050593       0.003555       0.098610
       2.750000       0.051089       0.003577       0.094177
       2.760000       0.051594       0.003599       0.090369
       2.770000       0.052105       0.003620       0.087131
       2.780000       0.052625       0.003642       0.084407
       2.790000       0.053153       0.003664       0.082149
       2.800000       0.053689       0.003687       0.080316
       2.810000       0.054233       0.003709       0.078871
       2.820000       0.054786       0.003732       0.077785
       2.830000       0.055348       0.003755       0.077033
       2.840000       0.055919       0.003778       0.076598
       2.850000       0.056499       0.003801       0.076464
       2.860000       0.057089       0.003825       0.076623
       2.870000       0.057689       0.003849       0.077071
       2.880000       0.058299       0.003873       0.077807
       2.890000       0.058920       0.003897       0.078835
       2.900000       0.059551       0.003921       0.080161
       2.910000       0.060193       0.003946       0.081798
       2.920000       0.060847       0.003971       0.083761
       2.930000       0.061512       0.003996       0.086066
       2.940000       0.062190       0.004021       0.088738
       2.950000       0.062879       0.004047       0.091804
       2.960000       0.063582       0.004073       0.095296
       2.970000       0.064297       0.004099       0.099255
       2.980000       0.065027       0.004126       0.103732
       2.990000       0.065770       0.004152       0.108787
       3.000000       0.066528       0.004180       0.114491
       3.010000       0.067300       0.004207       0.120923
       3.020000       0.068088       0.004235       0.128163
       3.030000       0.068892       0.004263       0.136290
       3.040000       0.069712       0.004291       0.145366
       3.050000       0.070550       0.004320       0.155426
       3.060000       0.071404       0.004349       0.166461
       3.070000       0.072277       0.004378       0.178393
       3.080000       0.073169       0.004408       0.191060
       3.090000       0.074081       0.004438       0.204196
       3.100000       0.075012       0.004468       0.217435
       3.110000       0.075964       0.004499       0.230326
       3.120000       0.076938       0.004531       0.242375
       3.130000       0.077935       0.004563       0.253096
       3.140000       0.078955       0.004595       0.262051
       3.150000       0.079999       0.004628       0.268884
       3.160000       0.081068       0.004661       0.273330
       3.170000       0.082164       0.004695       0.275216
       3.180000       0.083287       0.004729       0.274459
       3.190000       0.084438       0.004764       0.271078
       3.200000       0.085619       0.004799       0.265207
       3.210000       0.086831       0.004835       0.257111
       3.220000       0.088075       0.004871       0.247191
       3.230000       0.089352       0.004908       0.235946
       3.240000       0.090665       0.004946       0.223932
       3.250000       0.092014       0.004985       0.211687
       3.260000       0.093402       0.005024       0.199680
       3.270000       0.094830       0.005064       0.188275
       3.280000       0.096300       0.005104       0.177719
       3.290000       0.097814       0.005146       0.168158
       3.300000       0.099375       0.005188       0.159654
       3.310000       0.100984       0.005231       0.152209
       3.320000       0.102644       0.005275       0.145787
       3.330000       0.104358       0.005320       0.140334
       3.340000       0.106129       0.005366       0.135785
       3.350000       0.107960       0.005413       0.132074
       3.360000       0.109855       0.005462       0.129140
       3.370000       0.111816       0.005511       0.126931
       3.380000       0.113847       0.005562       0.125402
       3.390000       0.115954       0.005614       0.124519
       3.400000       0.118140       0.005667       0.124257
       3.410000       0.120411       0.005722       0.124602
       3.420000       0.122771       0.005778       0.125551
       3.430000       0.125228       0.005836       0.127107
       3.440000       0.127786       0.005895       0.129288
       3.450000       0.130453       0.005957       0.132120
       3.460000       0.133237       0.006020       0.135639
       3.470000       0.136146       0.006086       0.139892
       3.480000       0.139189       0.006153       0.144935
       3.490000       0.142376       0.006223       0.150835
       3.500000       0.145719       0.006296       0.157664
       3.510000       0.149230       0.006371       0.165498
       3.520000       0.152923       0.006450       0.174409
       3.530000       0.156812       0.006531       0.184457
       3.540000       0.160916       0.006616       0.195676
       3.550000       0.165252       0.006705       0.208054
       3.560000       0.169842       0.006798       0.221513
       3.570000       0.174711       0.006895       0.235888
       3.580000       0.179884       0.006997       0.250912
       3.590000       0.185393       0.007104       0.266222
       3.600000       0.191271       0.007217       0.281377
       3.610000       0.197558       0.007336       0.295909
       3.620000       0.204297       0.007462       0.309369
       3.630000       0.211540       0.007596       0.321381
       3.640000       0.219342       0.007738       0.331661
       3.650000       0.227770       0.007890       0.340023
       3.660000       0.236900       0.008052       0.346357
       3.670000       0.246815       0.008226       0.350598
       3.680000       0.257614       0.008413       0.352707
       3.690000       0.269408       0.008615       0.352641
       3.700000       0.282322       0.008834       0.350361
       3.710000       0.296498       0.009071       0.345835
       3.720000       0.312092       0.009328       0.339078
       3.730000       0.329275       0.009609       0.330192
       3.740000       0.348225       0.009915       0.319407
       3.750000       0.369122       0.010250       0.307093
       3.760000       0.392132       0.010615       0.293742
       3.770000       0.417381       0.011014       0.279910
       3.780000       0.444918       0.011446       0.266143
       3.790000       0.474661       0.011911       0.252915
       3.800000       0.506334       0.012406       0.240589
       3.810000       0.539388       0.012925       0.229409
       3.820000       0.572935       0.013457       0.219512
       3.830000       0.605736       0.013987       0.210951
       3.840000       0.636264       0.014496       0.203723
       3.850000       0.662900       0.014964       0.197792
       3.860000       0.684246       0.015375       0.193103
       3.870000       0.699462       0.015719       0.189598
       3.880000       0.708525       0.015997       0.187224
       3.890000       0.712271       0.016223       0.185937
       3.900000       0.712211       0.016417       0.185706
       3.910000       0.710204       0.016605       0.186515
       3.920000       0.708132       0.016816       0.188364
       3.930000       0.707661       0.017073       0.191266
       3.940000       0.710136       0.017397       0.195250
       3.950000       0.716574       0.017805       0.200359
       3.960000       0.727716       0.018311       0.206646
       3.970000       0.744091       0.018924       0.214170
       3.980000       0.766077       0.019654       0.222991
       3.990000       0.793932       0.020506       0.233155
       4.000000       0.827796       0.021482       0.244687
       4.010000       0.867664       0.022579       0.257567
       4.020000       0.913327       0.023787       0.271710
       4.030000       0.964306       0.025086       0.286949
       4.040000       1.019782       0.026442       0.303016
       4.050000       1.078581       0.027808       0.319550
       4.060000       1.139250       0.029129       0.336111
       4.070000       1.200250       0.030345       0.352234
       4.080000       1.260252       0.031406       0.367478
       4.090000       1.318432       0.032280       0.381476
       4.100000       1.374617       0.032967       0.393952
       4.110000       1.429175       0.033490       0.404722
       4.120000       1.482655       0.033895       0.413657
       4.130000       1.535322       0.034225       0.420654
       4.140000       1.586786       0.034514       0.425607
       4.150000       1.635880       0.034773       0.428393
       4.160000       1.680822       0.034990       0.428879
       4.170000       1.719589       0.035132       0.426950
       4.180000       1.750337       0.035155       0.422562
       4.190000       1.771689       0.035021       0.415798
       4.200000       1.782846       0.034700       0.406917
       4.210000       1.783539       0.034184       0.396371
       4.220000       1.773968       0.033485       0.384771
       4.230000       1.754794       0.032634       0.372813
       4.240000       1.727212       0.031676       0.361189
       4.250000       1.693024       0.030665       0.350511
       4.260000       1.654632       0.029655       0.341264
       4.270000       1.614884       0.028695       0.333801
       4.280000       1.576805       0.027824       0.328357
       4.290000       1.543267       0.027072       0.325079
       4.300000       1.516698       0.026456       0.324053
       4.310000       1.498891       0.025986       0.325331
       4.320000       1.490920       0.025667       0.328950
       4.330000       1.493123       0.025495       0.334938
       4.340000       1.505121       0.025466       0.343318
       4.350000       1.525863       0.025571       0.354095
       4.360000       1.553671       0.025802       0.367245
       4.370000       1.586345       0.026149       0.382687
       4.380000       1.621314       0.026604       0.400262
       4.390000       1.655865       0.027159       0.419704
       4.400000       1.687414       0.027806       0.440628
       4.410000       1.713799       0.028532       0.462541
       4.420000       1.733494       0.029316       0.484876
       4.430000       1.745686       0.030131       0.507048
       4.440000       1.750203       0.030940       0.528514
       4.450000       1.747374       0.031704       0.548812
       4.460000       1.737936       0.032385       0.567567
       4.470000       1.723040       0.032958       0.584478
       4.480000       1.704283       0.033418       0.599279
       4.490000       1.683670       0.033774       0.611723
       4.500000       1.663438       0.034049       0.621572
       4.510000       1.645777       0.034268       0.628617
       4.520000       1.632525       0.034446       0.632698
       4.530000       1.624949       0.034586       0.633731
       4.540000       1.623655       0.034673       0.631728
       4.550000       1.628644       0.034682       0.626823
       4.560000       1.639457       0.034590       0.619305
       4.570000       1.655304       0.034386       0.609651
       4.580000       1.675111       0.034077       0.598536
       4.590000       1.697434       0.033691       0.586812
       4.600000       1.720337       0.033265       0.575428
       4.610000       1.741365       0.032844       0.565328
       4.620000       1.757775       0.032468       0.557358
       4.630000       1.767066       0.032169       0.552199
       4.640000       1.767654       0.031973       0.550336
       4.650000       1.759423       0.031900       0.552072
       4.660000       1.743885       0.031963       0.557552
       4.670000       1.723855       0.032176       0.566800
       4.680000       1.702793       0.032543       0.579749
       4.690000       1.684087       0.033066       0.596256
       4.700000       1.670499       0.033737       0.616105
       4.710000       1.663847       0.034536       0.638978
       4.720000       1.664919       0.035432       0.664416
       4.730000       1.673547       0.036383       0.691797
       4.740000       1.688807       0.037338       0.720324
       4.750000       1.709305       0.038245       0.749072
       4.760000       1.733509       0.039063       0.777054
       4.770000       1.760050       0.039766       0.803319
       4.780000       1.787892       0.040353       0.827036
       4.790000       1.816320       0.040841       0.847559
       4.800000       1.844796       0.041259       0.864461
       4.810000       1.872794       0.041636       0.877531
       4.820000       1.899768       0.041999       0.886771
       4.830000       1.925273       0.042364       0.892394
       4.840000       1.949160       0.042744       0.894843
       4.850000       1.971695       0.043157       0.894807
       4.860000       1.993470       0.043622       0.893202
       4.870000       2.015084       0.044167       0.891093
       4.880000       2.036717       0.044818       0.889567
       4.890000       2.057764       0.045594       0.889596
       4.900000       2.076691       0.046503       0.891917
       4.910000       2.091233       0.047530       0.896965
       4.920000       2.098905       0.048645       0.904828
       4.930000       2.097688       0.049802       0.915235
       4.940000       2.086643       0.050947       0.927556
       4.950000       2.066204       0.052026       0.940832
       4.960000       2.038052       0.052991       0.953835
       4.970000       2.004691       0.053807       0.965176
       4.980000       1.968968       0.054457       0.973443
       4.990000       1.933737       0.054950       0.977361
       5.000000       1.901707       0.055322       0.975943
       5.010000       1.875393       0.055635       0.968616
       5.020000       1.857071       0.055974       0.955276
       5.030000       1.848690       0.056427       0.936256
       5.040000       1.851760       0.057078       0.912206
       5.050000       1.867233       0.057991       0.883959
       5.060000       1.895390       0.059207       0.852404
       5.070000       1.935722       0.060734       0.818447
       5.080000       1.986803       0.062551       0.782998
       5.090000       2.046172       0.064604       0.746990
       5.100000       2.110309       0.066812       0.711355
       5.110000       2.174773       0.069069       0.676976
       5.120000       2.234618       0.071263       0.644613
       5.130000       2.285082       0.073281       0.614847
       5.140000       2.322443       0.075029       0.588040
       5.150000       2.344766       0.076437       0.564330
       5.160000       2.352282       0.077469       0.543644
       5.170000       2.347176       0.078122       0.525736
       5.180000       2.332877       0.078429       0.510230
       5.190000       2.313053       0.078441       0.496685
       5.200000       2.290658       0.078218       0.484667
       5.210000       2.267273       0.077798       0.473814
       5.220000       2.242913       0.077186       0.463872
       5.230000       2.216310       0.076354       0.454698
       5.240000       2.185623       0.075257       0.446227
       5.250000       2.149327       0.073858       0.438431
       5.260000       2.107000       0.072154       0.431295
       5.270000       2.059682       0.070193       0.424813
       5.280000       2.009730       0.068066       0.419006
       5.290000       1.960264       0.065890       0.413937
       5.300000       1.914515       0.063785       0.409704
       5.310000       1.875278       0.061857       0.406426
       5.320000       1.844611       0.060189       0.404204
       5.330000       1.823730       0.058836       0.403103
       5.340000       1.813043       0.057829       0.403136
       5.350000       1.812236       0.057180       0.404273
       5.360000       1.820367       0.056884       0.406461
       5.370000       1.835948       0.056925       0.409644
       5.380000       1.857033       0.057272       0.413781
       5.390000       1.881352       0.057887       0.418848
       5.400000       1.906548       0.058721       0.424822
       5.410000       1.930534       0.059724       0.431662
       5.420000       1.951923       0.060851       0.439288
       5.430000       1.970363       0.062067       0.447568
       5.440000       1.986637       0.063356       0.456327
       5.450000       2.002444       0.064714       0.465368
       5.460000       2.019959       0.066150       0.474521
       5.470000       2.041362       0.067672       0.483694
       5.480000       2.068482       0.069288       0.492909
       5.490000       2.102640       0.071006       0.502317
       5.500000       2.144627       0.072835       0.512184
       5.510000       2.194750       0.074795       0.522861
       5.520000       2.252843       0.076908       0.534740
       5.530000       2.318266       0.079200       0.548221
       5.540000       2.389897       0.081686       0.563674
       5.550000       2.466163       0.084366       0.581408
       5.560000       2.545104       0.087214       0.601664
       5.570000       2.624408       0.090175       0.624612
       5.580000       2.701415       0.093158       0.650360
       5.590000       2.773121       0.096040       0.678983
       5.600000       2.836323       0.098677       0.710536
       5.610000       2.887999       0.100923       0.745067
       5.620000       2.925893       0.102657       0.782611
       5.630000       2.949113       0.103801       0.823159
       5.640000       2.958470       0.104333       0.866603
       5.650000       2.956353       0.104279       0.912670
       5.660000       2.946189       0.103701       0.960858
       5.670000       2.931704       0.102688       1.010416
       5.680000       2.916277       0.101344       1.060386
       5.690000       2.902541       0.099788       1.109737
       5.700000       2.892234       0.098148       1.157546
       5.710000       2.886233       0.096546       1.203220
       5.720000       2.884688       0.095090       1.246653
       5.730000       2.887274       0.093852       1.288291
       5.740000       2.893531       0.092861       1.329052
       5.750000       2.903231       0.092108       1.370143
       5.760000       2.916634       0.091545       1.412817
       5.770000       2.934540       0.091108       1.458169
       5.780000       2.958147       0.090724       1.506996
       5.790000       2.988801       0.090322       1.559734
       5.800000       3.027740       0.089840       1.616396
       5.810000       3.075908       0.089221       1.676487
       5.820000       3.133857       0.088417       1.738918
       5.830000       3.201736       0.087394       1.801985
       5.840000       3.279358       0.086141       1.863498
       5.850000       3.366348       0.084680       1.921061
       5.860000       3.462323       0.083067       1.972457
       5.870000       3.567097       0.081384       2.016007
       5.880000       3.680817       0.079725       2.050811
       5.890000       3.803995       0.078178       2.076834
       5.900000       3.937432       0.076820       2.094876
       5.910000       4.082067       0.075716       2.106436
       5.920000       4.238836       0.074918       2.113507
       5.930000       4.408574       0.074471       2.118293
       5.940000       4.591968       0.074411       2.122851
       5.950000       4.789538       0.074771       2.128760
       5.960000       5.001603       0.075575       2.136862
       5.970000       5.228231       0.076837       2.147152
       5.980000       5.469140       0.078562       2.158799
       5.990000       5.723563       0.080738       2.170268
       6.000000       5.990082       0.083336       2.179565
       6.010000       6.266412       0.086307       2.184585
       6.020000       6.549173       0.089574       2.183573
       6.030000       6.833699       0.093039       2.175564
       6.040000       7.113993       0.096586       2.160677
       6.050000       7.382935       0.100095       2.140121
       6.060000       7.632784       0.103455       2.115921
       6.070000       7.855893       0.106579       2.090464
       6.080000       8.045507       0.109409       2.066026
       6.090000       8.196464       0.111903       2.044414
       6.100000       8.305729       0.114022       2.026774
       6.110000       8.372732       0.115711       2.013574
       6.120000       8.399501       0.116901       2.004703
       6.130000       8.390431       0.117522       1.999645
       6.140000       8.351573       0.117532       1.997679
       6.150000       8.289436       0.116943       1.998076
       6.160000       8.209632       0.115826       2.000249
       6.170000       8.115806       0.114301       2.003804
       6.180000       8.009264       0.112508       2.008486
       6.190000       7.889462       0.110581       2.014050
       6.200000       7.755173       0.108634       2.020124
       6.210000       7.605902       0.106746       2.026141
       6.220000       7.443031       0.104961       2.031362
       6.230000       7.270280       0.103290       2.034957
       6.240000       7.093368       0.101725       2.036137
       6.250000       6.919075       0.100255       2.034267
       6.260000       6.754069       0.098882       2.028930
       6.270000       6.603896       0.097634       2.019950
       6.280000       6.472380       0.096561       2.007352
       6.290000       6.361469       0.095724       1.991334
       6.300000       6.271398       0.095178       1.972269
       6.310000       6.200994       0.094959       1.950762
       6.320000       6.148005       0.095078       1.927719
       6.330000       6.109451       0.095517       1.904356
       6.340000       6.082003       0.096239       1.882107
       6.350000       6.062390       0.097200       1.862425
       6.360000       6.047729       0.098356       1.846558
       6.370000       6.035689       0.099680       1.835384
       6.380000       6.024456       0.101172       1.829355
       6.390000       6.012522       0.102861       1.828520
       6.400000       5.998416       0.104800       1.832591
       6.410000       5.980497       0.107062       1.840973
       6.420000       5.956895       0.109716       1.852765
       6.430000       5.925633       0.112810       1.866741
       6.440000       5.884915       0.116360       1.881371
       6.450000       5.833467       0.120338       1.894899
       6.460000       5.770806       0.124659       1.905489
       6.470000       5.697325       0.129184       1.911388
       6.480000       5.614214       0.133712       1.911099
       6.490000       5.523271       0.137995       1.903552
       6.500000       5.426719       0.141761       1.888282
       6.510000       5.327068       0.144761       1.865577
       6.520000       5.227023       0.146816       1.836549
       6.530000       5.129427       0.147855       1.803085
       6.540000       5.037165       0.147921       1.767666
       6.550000       4.952974       0.147141       1.733070
       6.560000       4.879156       0.145678       1.702041
       6.570000       4.817272       0.143686       1.676997
       6.580000       4.767954       0.141288       1.659822
       6.590000       4.730907       0.138582       1.651783
       6.600000       4.705089       0.135655       1.653531
       6.610000       4.688943       0.132599       1.665174
       6.620000       4.680618       0.129516       1.686392
       6.630000       4.678130       0.126519       1.716549
       6.640000       4.679530       0.123722       1.754799
       6.650000       4.683061       0.121234       1.800107
       6.660000       4.687297       0.119142       1.851190
       6.670000       4.691198       0.117505       1.906392
       6.680000       4.694063       0.116334       1.963584
       6.690000       4.695328       0.115596       2.020197
       6.700000       4.694230       0.115203       2.073464
       6.710000       4.689400       0.115029       2.120848
       6.720000       4.678565       0.114928       2.160522
       6.730000       4.658524       0.114760       2.191767
       6.740000       4.625506       0.114428       2.215139
       6.750000       4.575910       0.113898       2.232399
       6.760000       4.507226       0.113208       2.246219
       6.770000       4.418891       0.112456       2.259801
       6.780000       4.312725       0.111774       2.276488
       6.790000       4.192758       0.111297       2.299452
       6.800000       4.064414       0.111138       2.331479
       6.810000       3.933342       0.111368       2.374827
       6.820000       3.804274       0.112007       2.431120
       6.830000       3.680307       0.113023       2.501253
       6.840000       3.562784       0.114333       2.585291
       6.850000       3.451735       0.115820       2.682369
       6.860000       3.346675       0.117353       2.790579
       6.870000       3.247401       0.118822       2.906909
       6.880000       3.154522       0.120162       3.027290
       6.890000       3.069551       0.121374       3.146851
       6.900000       2.994636       0.122523       3.260443
       6.910000       2.932104       0.123713       3.363356
       6.920000       2.884013       0.125058       3.452010
       6.930000       2.851824       0.126642       3.524380
       6.940000       2.836209       0.128502       3.579985
       6.950000       2.836964       0.130615       3.619491
       6.960000       2.852996       0.132906       3.644124
       6.970000       2.882332       0.135269       3.655096
       6.980000       2.922198       0.137595       3.653220
       6.990000       2.969149       0.139786       3.638772
       7.000000       3.019323       0.141766       3.611637
       7.010000       3.068814       0.143469       3.571666
       7.020000       3.114184       0.144828       3.519118
       7.030000       3.153025       0.145772       3.455008
       7.040000       3.184462       0.146241       3.381254
       7.050000       3.209421       0.146217       3.300577
       7.060000       3.230522       0.145749       3.216234
       7.070000       3.251582       0.144959       3.131656
       7.080000       3.276870       0.144025       3.050081
       7.090000       3.310319       0.143143       2.974208
       7.100000       3.354884       0.142489       2.905893
       7.110000       3.412109       0.142189       2.845927
       7.120000       3.481857       0.142301       2.793932
       7.130000       3.562142       0.142821       2.748445
       7.140000       3.649051       0.143687       2.707219
       7.150000       3.736804       0.144802       2.667727
       7.160000       3.818057       0.146051       2.627754
       7.170000       3.884570       0.147328       2.585931
       7.180000       3.928310       0.148543       2.542008
       7.190000       3.942877       0.149630       2.496818
       7.200000       3.924925       0.150548       2.451950
       7.210000       3.875049       0.151286       2.409328
       7.220000       3.797742       0.151862       2.370832
       7.230000       3.700358       0.152311       2.338075
       7.240000       3.591503       0.152680       2.312289
       7.250000       3.479419       0.153009       2.294272
       7.260000       3.370841       0.153332       2.284316
       7.270000       3.270470       0.153683       2.282101
       7.280000       3.180971       0.154103       2.286591
       7.290000       3.103312       0.154649       2.295999
       7.300000       3.037265       0.155392       2.307837
       7.310000       2.981967       0.156408       2.319117
       7.320000       2.936405       0.157766       2.326705
       7.330000       2.899733       0.159516       2.327802
       7.340000       2.871340       0.161675       2.320450
       7.350000       2.850700       0.164229       2.303880
       7.360000       2.837157       0.167125       2.278547
       7.370000       2.829785       0.170276       2.245847
       7.380000       2.827426       0.173561       2.207647
       7.390000       2.828883       0.176828       2.165826
       7.400000       2.833168       0.179890       2.121992
       7.410000       2.839653       0.182544       2.077377
       7.420000       2.848042       0.184597       2.032885
       7.430000       2.858152       0.185903       1.989201
       7.440000       2.869609       0.186397       1.946925
       7.450000       2.881612       0.186100       1.906679
       7.460000       2.892879       0.185104       1.869152
       7.470000       2.901843       0.183530       1.835064
       7.480000       2.907054       0.181501       1.805046
       7.490000       2.907687       0.179112       1.779476
       7.500000       2.903949       0.176447       1.758335
       7.510000       2.897243       0.173590       1.741113
       7.520000       2.889968       0.170648       1.726835
       7.530000       2.885026       0.167758       1.714178
       7.540000       2.885217       0.165081       1.701700
       7.550000       2.892750       0.162779       1.688132
       7.560000       2.909051       0.160996       1.672654
       7.570000       2.934881       0.159845       1.655100
       7.580000       2.970723       0.159391       1.636011
       7.590000       3.017212       0.159650       1.616545
       7.600000       3.075436       0.160586       1.598286
       7.610000       3.146925       0.162111       1.583009
       7.620000       3.233340       0.164088       1.572452
       7.630000       3.335949       0.166339       1.568109
       7.640000       3.455049       0.168670       1.571052
       7.650000       3.589447       0.170897       1.581795
       7.660000       3.736062       0.172876       1.600200
       7.670000       3.889685       0.174523       1.625443
       7.680000       4.043022       0.175809       1.656044
       7.690000       4.187141       0.176748       1.689957
       7.700000       4.312451       0.177377       1.724733
       7.710000       4.410140       0.177741       1.757736
       7.720000       4.473733       0.177899       1.786424
       7.730000       4.500274       0.177920       1.808638
       7.740000       4.490700       0.177889       1.822872
       7.750000       4.449351       0.177893       1.828396
       7.760000       4.382883       0.178021       1.825213
       7.770000       4.298978       0.178362       1.813859
       7.780000       4.205165       0.179007       1.795135
       7.790000       4.107899       0.180051       1.769900
       7.800000       4.011987       0.181590       1.738984
       7.810000       3.920390       0.183711       1.703224
       7.820000       3.834384       0.186475       1.663568
       7.830000       3.754000       0.189909       1.621129
       7.840000       3.678591       0.194001       1.577164
       7.850000       3.607429       0.198698       1.532969
       7.860000       3.540205       0.203914       1.489771
       7.870000       3.477386       0.209542       1.448670
       7.880000       3.420332       0.215474       1.410632
       7.890000       3.371173       0.221616       1.376509
       7.900000       3.332466       0.227912       1.347023
       7.910000       3.306721       0.234349       1.322720
       7.920000       3.295896       0.240942       1.303879
       7.930000       3.300940       0.247709       1.290432
       7.940000       3.321453       0.254646       1.281925
       7.950000       3.355518       0.261718       1.277543
       7.960000       3.399729       0.268875       1.276216
       7.970000       3.449482       0.276085       1.276790
       7.980000       3.499515       0.283366       1.278231
       7.990000       3.544654       0.290807       1.279832
       8.000000       3.580624       0.298556       1.281353
       8.010000       3.604730       0.306789       1.283062
       8.020000       3.616193       0.315674       1.285667
       8.030000       3.616071       0.325336       1.290140
       8.040000       3.606803       0.335845       1.297501
       8.050000       3.591578       0.347212       1.308592
       8.060000       3.573723       0.359407       1.323902
       8.070000       3.556285       0.372362       1.343459
       8.080000       3.541842       0.385970       1.366792
       8.090000       3.532515       0.400074       1.392965
       8.100000       3.530075       0.414463       1.420671
       8.110000       3.536046       0.428881       1.448382
       8.120000       3.551671       0.443069       1.474550
       8.130000       3.577711       0.456812       1.497829
       8.140000       3.614128       0.470000       1.517234
       8.150000       3.659798       0.482652       1.532188
       8.160000       3.712463       0.494918       1.542418
       8.170000       3.769065       0.507055       1.547762
       8.180000       3.826475       0.519379       1.548001
       8.190000       3.882386       0.532229       1.542830
       8.200000       3.936010       0.545920       1.531997
       8.210000       3.988237       0.560708       1.515506
       8.220000       4.041151       0.576728       1.493790
       8.230000       4.097102       0.593923       1.467741
       8.240000       4.157708       0.611984       1.438609
       8.250000       4.223115       0.630315       1.407810
       8.260000       4.291692       0.648086       1.376726
       8.270000       4.360143       0.664342       1.346534
       8.280000       4.423947       0.678183       1.318112
       8.290000       4.477999       0.688931       1.292012
       8.300000       4.517387       0.696239       1.268502
       8.310000       4.538222       0.700107       1.247651
       8.320000       4.538379       0.700803       1.229445
       8.330000       4.517993       0.698771       1.213886
       8.340000       4.479565       0.694544       1.201075
       8.350000       4.427653       0.688717       1.191227
       8.360000       4.368202       0.681914       1.184633
       8.370000       4.307688       0.674748       1.181577
       8.380000       4.252220       0.667742       1.182221
       8.390000       4.206805       0.661240       1.186519
       8.400000       4.174897       0.655361       1.194168
       8.410000       4.158255       0.650010       1.204640
       8.420000       4.157040       0.644954       1.217262
       8.430000       4.169985       0.639940       1.231323
       8.440000       4.194530       0.634822       1.246161
       8.450000       4.226919       0.629643       1.261197
       8.460000       4.262372       0.624654       1.275914
       8.470000       4.295493       0.620258       1.289775
       8.480000       4.320943       0.616924       1.302157
       8.490000       4.334279       0.615086       1.312320
       8.500000       4.332670       0.615075       1.319477
       8.510000       4.315245       0.617061       1.322946
       8.520000       4.282969       0.621031       1.322350
       8.530000       4.238174       0.626796       1.317757
       8.540000       4.183937       0.634035       1.309689
       8.550000       4.123529       0.642387       1.298987
       8.560000       4.060016       0.651554       1.286597
       8.570000       3.996044       0.661361       1.273388
       8.580000       3.933793       0.671764       1.260077
       8.590000       3.875001       0.682774       1.247282
       8.600000       3.820986       0.694351       1.235627
       8.610000       3.772553       0.706311       1.225840
       8.620000       3.729811       0.718305       1.218757
       8.630000       3.691989       0.729849       1.215252
       8.640000       3.657384       0.740405       1.216089
       8.650000       3.623529       0.749464       1.221782
       8.660000       3.587578       0.756608       1.232482
       8.670000       3.546829       0.761552       1.247917
       8.680000       3.499247       0.764155       1.267395
       8.690000       3.443867       0.764422       1.289843
       8.700000       3.380996       0.762504       1.313895
       8.710000       3.312202       0.758694       1.338020
       8.720000       3.240067       0.753436       1.360715
       8.730000       3.167746       0.747302       1.380725
       8.740000       3.098408       0.740920       1.397260
       8.750000       3.034701       0.734857       1.410112
       8.760000       2.978365       0.729476       1.419643
       8.770000       2.930081       0.724837       1.426635
       8.780000       2.889553       0.720678       1.432053
       8.790000       2.855772       0.716505       1.436800
       8.800000       2.827344       0.711766       1.441521
       8.810000       2.802819       0.706040       1.446523
       8.820000       2.780978       0.699189       1.451798
       8.830000       2.761096       0.691398       1.457158
       8.840000       2.743169       0.683120       1.462422
       8.850000       2.728023       0.674960       1.467587
       8.860000       2.717215       0.667554       1.472909
       8.870000       2.712700       0.661484       1.478873
       8.880000       2.716339       0.657233       1.486073
       8.890000       2.729380       0.655153       1.495059
       8.900000       2.752030       0.655440       1.506193
       8.910000       2.783213       0.658112       1.519530
       8.920000       2.820566       0.663004       1.534746
       8.930000       2.860697       0.669791       1.551107
       8.940000       2.899704       0.678064       1.567504
       8.950000       2.933844       0.687423       1.582564
       8.960000       2.960214       0.697585       1.594843
       8.970000       2.977233       0.708455       1.603092
       8.980000       2.984774       0.720131       1.606523
       8.990000       2.983907       0.732837       1.605008
       9.000000       2.976353       0.746832       1.599120
       9.010000       2.963877       0.762324       1.589984
       9.020000       2.947837       0.779408       1.579001
       9.030000       2.929034       0.798043       1.567547
       9.040000       2.907826       0.818018       1.556743
       9.050000       2.884403       0.838921       1.547375
       9.060000       2.859038       0.860115       1.539933
       9.070000       2.832225       0.880754       1.534721
       9.080000       2.804656       0.899868       1.531959
       9.090000       2.777074       0.916486       1.531824
       9.100000       2.750065       0.929766       1.534448
       9.110000       2.723872       0.939087       1.539888
       9.120000       2.698280       0.944087       1.548113
       9.130000       2.672602       0.944687       1.559008
       9.140000       2.645741       0.941100       1.572403
       9.150000       2.616321       0.933850       1.588114
       9.160000       2.582878       0.923734       1.605997
       9.170000       2.544108       0.911730       1.626006
       9.180000       2.499153       0.898842       1.648249
       9.190000       2.447782       0.885915       1.673012
       9.200000       2.390385       0.873492       1.700736
       9.210000       2.327782       0.861744       1.731944
       9.220000       2.260964       0.850495       1.767139
       9.230000       2.190933       0.839325       1.806730
       9.240000       2.118686       0.827708       1.851011
       9.250000       2.045306       0.815147       1.900208
       9.260000       1.972030       0.801263       1.954556
       9.270000       1.900235       0.785865       2.014364
       9.280000       1.831336       0.768989       2.080005
       9.290000       1.766668       0.750922       2.151874
       9.300000       1.707405       0.732194       2.230325
       9.310000       1.654523       0.713535       2.315626
       9.320000       1.608801       0.695805       2.407968
       9.330000       1.570805       0.679889       2.507495
       9.340000       1.540868       0.666602       2.614356
       9.350000       1.519046       0.656612       2.728760
       9.360000       1.505084       0.650401       2.851030
       9.370000       1.498374       0.648250       2.981667
       9.380000       1.497954       0.650244       3.121414
       9.390000       1.502535       0.656278       3.271300
       9.400000       1.510605       0.666074       3.432628
       9.410000       1.520603       0.679196       3.606908
       9.420000       1.531145       0.695066       3.795701
       9.430000       1.541249       0.712995       4.000410
       9.440000       1.550467       0.732189       4.222059
       9.450000       1.558881       0.751756       4.461087
       9.460000       1.566953       0.770696       4.717201
       9.470000       1.575332       0.787920       4.989246
       9.480000       1.584702       0.802331       5.275107
       9.490000       1.595720       0.812987       5.571631
       9.500000       1.609007       0.819305       5.874648
       9.510000       1.625144       0.821241       6.179154
       9.520000       1.644622       0.819351       6.479692
       9.530000       1.667743       0.814702       6.770827
       9.540000       1.694514       0.808658       7.047580
       9.550000       1.724583       0.802633       7.305689
       9.560000       1.757252       0.797878       7.541661
       9.570000       1.791594       0.795354       7.752649
       9.580000       1.826598       0.795682       7.936248
       9.590000       1.861309       0.799159       8.090286
       9.600000       1.894880       0.805794       8.212750
       9.610000       1.926552       0.815348       8.301907
       9.620000       1.955619       0.827360       8.356659
       9.630000       1.981397       0.841163       8.376993
       9.640000       2.003236       0.855932       8.364308
       9.650000       2.020542       0.870763       8.321456
       9.660000       2.032796       0.884802       8.252474
       9.670000       2.039599       0.897345       8.162138
       9.680000       2.040753       0.907900       8.055497
       9.690000       2.036384       0.916146       7.937429
       9.700000       2.027067       0.921865       7.812185
       9.710000       2.013865       0.924888       7.682895
       9.720000       1.998215       0.925108       7.551157
       9.730000       1.981705       0.922561       7.416955
       9.740000       1.965797       0.917508       7.279047
       9.750000       1.951636       0.910488       7.135825
       9.760000       1.939970       0.902310       6.986365
       9.770000       1.931181       0.893979       6.831291
       9.780000       1.925384       0.886585       6.673102
       9.790000       1.922548       0.881179       6.515844
       9.800000       1.922590       0.878638       6.364258
       9.810000       1.925398       0.879571       6.222754
       9.820000       1.930759       0.884264       6.094540
       9.830000       1.938228       0.892658       5.981112
       9.840000       1.947011       0.904361       5.882096
       9.850000       1.955923       0.918674       5.795351
       9.860000       1.963446       0.934645       5.717267
       9.870000       1.967872       0.951166       5.643263
       9.880000       1.967492       0.967102       5.568541
       9.890000       1.960828       0.981440       5.489020
       9.900000       1.946883       0.993410       5.402256
       9.910000       1.925350       1.002553       5.308020
       9.920000       1.896686       1.008702       5.208342
       9.930000       1.862002       1.011927       5.106975
       9.940000       1.822790       1.012481       5.008516
       9.950000       1.780615       1.010779       4.917503
       9.960000       1.736865       1.007404       4.837719
       9.970000       1.692622       1.003086       4.771776
       9.980000       1.648670       0.998617       4.720928
       9.990000       1.605565       0.994691       4.685015
      10.000000       1.563739       0.991735       4.662457
      10.010000       1.523558       0.989776       4.650340
      10.020000       1.485346       0.988440       4.644631
      10.030000       1.449383       0.987063       4.640574
      10.040000       1.415917       0.984914       4.633287
      10.050000       1.385193       0.981447       4.618447
      10.060000       1.357477       0.976490       4.592928
      10.070000       1.333056       0.970305       4.555203
      10.080000       1.312213       0.963489       4.505424
      10.090000       1.295177       0.956774       4.445182
      10.100000       1.282080       0.950830       4.377068
      10.110000       1.272918       0.946145       4.304178
      10.120000       1.267527       0.943004       4.229670
      10.130000       1.265554       0.941569       4.156417
      10.140000       1.266452       0.941965       4.086792
      10.150000       1.269489       0.944363       4.022550
      10.160000       1.273815       0.948986       3.964792
      10.170000       1.278564       0.956055       3.913940
      10.180000       1.282982       0.965679       3.869730
      10.190000       1.286542       0.977731       3.831215
      10.200000       1.289008       0.991768       3.796863
      10.210000       1.290432       1.007021       3.764789
      10.220000       1.291120       1.022480       3.733113
      10.230000       1.291584       1.037030       3.700369
      10.240000       1.292514       1.049608       3.665815
      10.250000       1.294729       1.059333       3.629481
      10.260000       1.299110       1.065615       3.591938
      10.270000       1.306489       1.068246       3.553868
      10.280000       1.317509       1.067470       3.515653
      10.290000       1.332490       1.063987       3.477139
      10.300000       1.351309       1.058862       3.437663
      10.310000       1.373326       1.053320       3.396264
      10.320000       1.397377       1.048495       3.351967
      10.330000       1.421866       1.045203       3.304048
      10.340000       1.444948       1.043818       3.252217
      10.350000       1.464804       1.044258       3.196714
      10.360000       1.479924       1.046072       3.138303
      10.370000       1.489334       1.048581       3.078191
      10.380000       1.492681       1.051015       3.017872
      10.390000       1.490178       1.052630       2.958971
      10.400000       1.482468       1.052758       2.903097
      10.410000       1.470467       1.050832       2.851715
      10.420000       1.455231       1.046404       2.806031
      10.430000       1.437869       1.039189       2.766906
      10.440000       1.419461       1.029123       2.734822
      10.450000       1.400979       1.016415       2.709915
      10.460000       1.383206       1.001543       2.692057
      10.470000       1.366666       0.985208       2.680927
      10.480000       1.351602       0.968259       2.676061
      10.490000       1.338021       0.951635       2.676877
      10.500000       1.325798       0.936321       2.682722
      10.510000       1.314794       0.923305       2.692950
      10.520000       1.304959       0.913530       2.707019
      10.530000       1.296371       0.907827       2.724560
      10.540000       1.289233       0.906859       2.745349
      10.550000       1.283821       0.911078       2.769189
      10.560000       1.280407       0.920711       2.795727
      10.570000       1.279176       0.935762       2.824295
      10.580000       1.280155       0.956039       2.853827
      10.590000       1.283206       0.981185       2.882861
      10.600000       1.288085       1.010718       2.909617
      10.610000       1.294559       1.044071       2.932151
      10.620000       1.302513       1.080597       2.948548
      10.630000       1.311983       1.119558       2.957176
      10.640000       1.323087       1.160089       2.956961
      10.650000       1.335895       1.201171       2.947646
      10.660000       1.350288       1.241656       2.929941
      10.670000       1.365878       1.280337       2.905502
      10.680000       1.382044       1.316078       2.876687
      10.690000       1.398034       1.347960       2.846179
      10.700000       1.413115       1.375388       2.816562
      10.710000       1.426646       1.398143       2.789999
      10.720000       1.438060       1.416332       2.768040
      10.730000       1.446771       1.430294       2.751585
      10.740000       1.452094       1.440506       2.740941
      10.750000       1.453253       1.447548       2.735943
      10.760000       1.449496       1.452102       2.736069
      10.770000       1.440255       1.454929       2.740531
      10.780000       1.425315       1.456777       2.748295
      10.790000       1.404920       1.458236       2.758063
      10.800000       1.379810       1.459605       2.768252
      10.810000       1.351150       1.460839       2.777062
      10.820000       1.320358       1.461609       2.782675
      10.830000       1.288862       1.461424       2.783557
      10.840000       1.257873       1.459770       2.778786
      10.850000       1.228245       1.456207       2.768267
      10.860000       1.200450       1.450399       2.752749
      10.870000       1.174662       1.442116       2.733631
      10.880000       1.150886       1.431250       2.712604
      10.890000       1.129102       1.417888       2.691246
      10.900000       1.109367       1.402426       2.670661
      10.910000       1.091877       1.385663       2.651238
      10.920000       1.076967       1.368803       2.632575
      10.930000       1.065069       1.353310       2.613586
      10.940000       1.056627       1.340645       2.592749
      10.950000       1.052000       1.331975       2.568467
      10.960000       1.051382       1.327923       2.539474
      10.970000       1.054742       1.328428       2.505169
      10.980000       1.061814       1.332729       2.465803
      10.990000       1.072127       1.339470       2.422443
      11.000000       1.085091       1.346922       2.376723
      11.010000       1.100099       1.353271       2.330489
      11.020000       1.116641       1.356933       2.285436
      11.030000       1.134370       1.356801       2.242852
      11.040000       1.153101       1.352376       2.203506
      11.050000       1.172734       1.343763       2.167673
      11.060000       1.193115       1.331576       2.135237
      11.070000       1.213904       1.316794       2.105814
      11.080000       1.234499       1.300641       2.078875
      11.090000       1.254043       1.284480       2.053859
      11.100000       1.271551       1.269731       2.030292
      11.110000       1.286098       1.257804       2.007918
      11.120000       1.297023       1.250025       1.986797
      11.130000       1.304064       1.247559       1.967338
      11.140000       1.307377       1.251329       1.950244
      11.150000       1.307454       1.261935       1.936386
      11.160000       1.304987       1.279609       1.926650
      11.170000       1.300718       1.304183       1.921814
      11.180000       1.295333       1.335093       1.922464
      11.190000       1.289369       1.371380       1.928956
      11.200000       1.283161       1.411705       1.941434
      11.210000       1.276817       1.454387       1.959875
      11.220000       1.270221       1.497505       1.984170
      11.230000       1.263086       1.539093       2.014189
      11.240000       1.255046       1.577411       2.049799
      11.250000       1.245774       1.611221       2.090833
      11.260000       1.235103       1.639977       2.137011
      11.270000       1.223102       1.663864       2.187856
      11.280000       1.210090       1.683697       2.242641
      11.290000       1.196582       1.700693       2.300379
      11.300000       1.183170       1.716198       2.359845
      11.310000       1.170390       1.731432       2.419649
      11.320000       1.158627       1.747318       2.478335
      11.330000       1.148086       1.764430       2.534513
      11.340000       1.138828       1.783011       2.586979
      11.350000       1.130839       1.803016       2.634802
      11.360000       1.124088       1.824143       2.677366
      11.370000       1.118556       1.845877       2.714385
      11.380000       1.114231       1.867568       2.745898
      11.390000       1.111075       1.888550       2.772225
      11.400000       1.108984       1.908232       2.793858
      11.410000       1.107747       1.926107       2.811302
      11.420000       1.107027       1.941652       2.824899
      11.430000       1.106384       1.954212       2.834694
      11.440000       1.105353       1.962954       2.840394
      11.450000       1.103554       1.966985       2.841412
      11.460000       1.100784       1.965603       2.837000
      11.470000       1.097047       1.958579       2.826397
      11.480000       1.092494       1.946342       2.808951
      11.490000       1.087301       1.929953       2.784170
      11.500000       1.081549       1.910873       2.751720
      11.510000       1.075151       1.890603       2.711433
      11.520000       1.067841       1.870349       2.663372
      11.530000       1.059225       1.850815       2.607968
      11.540000       1.048887       1.832195       2.546142
      11.550000       1.036512       1.814338       2.479345
      11.560000       1.022006       1.796974       2.409454
      11.570000       1.005569       1.779907       2.338548
      11.580000       0.987675       1.763115       2.268639
      11.590000       0.968993       1.746746       2.201421
      11.600000       0.950266       1.731072       2.138115
      11.610000       0.932201       1.716428       2.079407
      11.620000       0.915403       1.703146       2.025487
      11.630000       0.900347       1.691475       1.976149
      11.640000       0.887385       1.681511       1.930921
      11.650000       0.876757       1.673141       1.889189
      11.660000       0.868604       1.666019       1.850326
      11.670000       0.862977       1.659576       1.813826
      11.680000       0.859846       1.653078       1.779423
      11.690000       0.859130       1.645728       1.747170
      11.700000       0.860729       1.636831       1.717419
      11.710000       0.864556       1.625948       1.690717
      11.720000       0.870538       1.612983       1.667604
      11.730000       0.878608       1.598166       1.648416
      11.740000       0.888686       1.581958       1.633125
      11.750000       0.900690       1.564976       1.621265
      11.760000       0.914577       1.547968       1.611929
      11.770000       0.930406       1.531851       1.603828
      11.780000       0.948376       1.517746       1.595376
      11.790000       0.968834       1.506955       1.584811
      11.800000       0.992203       1.500851       1.570363
      11.810000       1.018854       1.500689       1.550467
      11.820000       1.048932       1.507373       1.524014
      11.830000       1.082192       1.521239       1.490567
      11.840000       1.117895       1.541888       1.450492
      11.850000       1.154785       1.568107       1.404937
      11.860000       1.191190       1.597904       1.355656
      11.870000       1.225215       1.628673       1.304715
      11.880000       1.254997       1.657499       1.254170
      11.890000       1.278957       1.681571       1.205800
      11.900000       1.295983       1.698625       1.160955
      11.910000       1.305515       1.707272       1.120524
      11.920000       1.307519       1.707123       1.084993
      11.930000       1.302386       1.698681       1.054539
      11.940000       1.290783       1.683076       1.029117
      11.950000       1.273487       1.661753       1.008534
      11.960000       1.251249       1.636197       0.992484
      11.970000       1.224715       1.607742       0.980586
      11.980000       1.194414       1.577489       0.972413
      11.990000       1.160817       1.546316       0.967517
      12.000000       1.124436       1.514932       0.965439
      12.010000       1.085915       1.483941       0.965707
      12.020000       1.046055       1.453865       0.967821
      12.030000       1.005781       1.425168       0.971276
      12.040000       0.966038       1.398286       0.975607
      12.050000       0.927685       1.373678       0.980478
      12.060000       0.891405       1.351866       0.985743
      12.070000       0.857672       1.333423       0.991438
      12.080000       0.826746       1.318886       0.997698
      12.090000       0.798695       1.308626       1.004601
      12.100000       0.773428       1.302685       1.012036
      12.110000       0.750729       1.300668       1.019631
      12.120000       0.730303       1.301704       1.026762
      12.130000       0.711815       1.304516       1.032639
      12.140000       0.694935       1.307594       1.036397
      12.150000       0.679368       1.309439       1.037205
      12.160000       0.664890       1.308837       1.034365
      12.170000       0.651356       1.305109       1.027419
      12.180000       0.638703       1.298273       1.016253
      12.190000       0.626930       1.289078       1.001159
      12.200000       0.616076       1.278888       0.982805
      12.210000       0.606201       1.269445       0.962127
      12.220000       0.597376       1.262594       0.940159
      12.230000       0.589682       1.260016       0.917870
      12.240000       0.583218       1.263044       0.896033
      12.250000       0.578089       1.272526       0.875153
      12.260000       0.574384       1.288739       0.855445
      12.270000       0.572144       1.311334       0.836866
      12.280000       0.571327       1.339312       0.819188
      12.290000       0.571796       1.371064       0.802104
      12.300000       0.573325       1.404506       0.785328
      12.310000       0.575642       1.437341       0.768683
      12.320000       0.578477       1.467402       0.752140
      12.330000       0.581608       1.493029       0.735823
      12.340000       0.584880       1.513347       0.719974
      12.350000       0.588202       1.528352       0.704913
      12.360000       0.591508       1.538758       0.690988
      12.370000       0.594731       1.545671       0.678529
      12.380000       0.597766       1.550202       0.667820
      12.390000       0.600468       1.553145       0.659062
      12.400000       0.602653       1.554796       0.652371
      12.410000       0.604128       1.554921       0.647773
      12.420000       0.604730       1.552890       0.645216
      12.430000       0.604380       1.547924       0.644580
      12.440000       0.603139       1.539407       0.645680
      12.450000       0.601233       1.527157       0.648247
      12.460000       0.599054       1.511555       0.651921
      12.470000       0.597122       1.493526       0.656245
      12.480000       0.596013       1.474389       0.660700
      12.490000       0.596284       1.455682       0.664776
      12.500000       0.598403       1.438989       0.668059
      12.510000       0.602682       1.425802       0.670298
      12.520000       0.609237       1.417397       0.671438
      12.530000       0.617957       1.414727       0.671587
      12.540000       0.628502       1.418335       0.670955
      12.550000       0.640334       1.428291       0.669795
      12.560000       0.652776       1.444191       0.668346
      12.570000       0.665104       1.465193       0.666821
      12.580000       0.676652       1.490117       0.665393
      12.590000       0.686901       1.517588       0.664199
      12.600000       0.695528       1.546197       0.663334
      12.610000       0.702410       1.574650       0.662828
      12.620000       0.707581       1.601886       0.662621
      12.630000       0.711157       1.627141       0.662541
      12.640000       0.713282       1.649961       0.662300
      12.650000       0.714076       1.670164       0.661518
      12.660000       0.713626       1.687764       0.659801
      12.670000       0.711984       1.702852       0.656831
      12.680000       0.709196       1.715465       0.652457
      12.690000       0.705315       1.725467       0.646745
      12.700000       0.700412       1.732490       0.639944
      12.710000       0.694565       1.735980       0.632405
      12.720000       0.687838       1.735352       0.624484
      12.730000       0.680280       1.730196       0.616469
      12.740000       0.671934       1.720457       0.608575
      12.750000       0.662869       1.706477       0.600980
      12.760000       0.653217       1.688888       0.593869
      12.770000       0.643186       1.668412       0.587471
      12.780000       0.633059       1.645682       0.582051
      12.790000       0.623157       1.621172       0.577869
      12.800000       0.613796       1.595255       0.575140
      12.810000       0.605239       1.568297       0.573993
      12.820000       0.597665       1.540704       0.574457
      12.830000       0.591152       1.512887       0.576458
      12.840000       0.585704       1.485194       0.579834
      12.850000       0.581302       1.457880       0.584351
      12.860000       0.577952       1.431154       0.589723
      12.870000       0.575721       1.405286       0.595619
      12.880000       0.574722       1.380700       0.601665
      12.890000       0.575068       1.357995       0.607445
      12.900000       0.576807       1.337890       0.612522
      12.910000       0.579879       1.321082       0.616476
      12.920000       0.584104       1.308098       0.618954
      12.930000       0.589222       1.299157       0.619731
      12.940000       0.594955       1.294117       0.618731
      12.950000       0.601076       1.292480       0.616015
      12.960000       0.607443       1.293466       0.611748
      12.970000       0.613987       1.296134       0.606137
      12.980000       0.620671       1.299551       0.599390
      12.990000       0.627439       1.302961       0.591687
      13.000000       0.634197       1.305928       0.583176
      13.010000       0.640822       1.308368       0.573975
      13.020000       0.647192       1.310484       0.564188
      13.030000       0.653215       1.312631       0.553921
      13.040000       0.658847       1.315141       0.543300
      13.050000       0.664072       1.318174       0.532482
      13.060000       0.668874       1.321596       0.521659
      13.070000       0.673201       1.324936       0.511048
      13.080000       0.676947       1.327435       0.500872
      13.090000       0.679948       1.328223       0.491331
      13.100000       0.681971       1.326545       0.482575
      13.110000       0.682716       1.321981       0.474688
      13.120000       0.681809       1.314586       0.467683
      13.130000       0.678833       1.304885       0.461511
      13.140000       0.673397       1.293769       0.456082
      13.150000       0.665236       1.282337       0.451288
      13.160000       0.654302       1.271741       0.447027
      13.170000       0.640808       1.263058       0.443219
      13.180000       0.625204       1.257196       0.439822
      13.190000       0.608102       1.254824       0.436841
      13.200000       0.590179       1.256335       0.434333
      13.210000       0.572085       1.261839       0.432400
      13.220000       0.554396       1.271187       0.431179
      13.230000       0.537580       1.284010       0.430817
      13.240000       0.521997       1.299806       0.431438
      13.250000       0.507901       1.318054       0.433124
      13.260000       0.495463       1.338356       0.435894
      13.270000       0.484785       1.360535       0.439712
      13.280000       0.475930       1.384655       0.444502
      13.290000       0.468928       1.410938       0.450170
      13.300000       0.463788       1.439588       0.456633
      13.310000       0.460490       1.470602       0.463821
      13.320000       0.458969       1.503603       0.471662
      13.330000       0.459105       1.537770       0.480051
      13.340000       0.460709       1.571880       0.488812
      13.350000       0.463531       1.604463       0.497673
      13.360000       0.467285       1.634048       0.506257
      13.370000       0.471674       1.659425       0.514109
      13.380000       0.476426       1.679863       0.520747
      13.390000       0.481317       1.695192       0.525731
      13.400000       0.486183       1.705750       0.528737
      13.410000       0.490925       1.712254       0.529621
      13.420000       0.495498       1.715662       0.528442
      13.430000       0.499901       1.717068       0.525450
      13.440000       0.504155       1.717596       0.521042
      13.450000       0.508280       1.718273       0.515696
      13.460000       0.512277       1.719885       0.509911
      13.470000       0.516115       1.722870       0.504141
      13.480000       0.519720       1.727298       0.498771
      13.490000       0.522982       1.732936       0.494095
      13.500000       0.525750       1.739328       0.490325
      13.510000       0.527838       1.745838       0.487608
      13.520000       0.529040       1.751637       0.486048
      13.530000       0.529143       1.755663       0.485732
      13.540000       0.527966       1.756626       0.486748
      13.550000       0.525380       1.753107       0.489198
      13.560000       0.521351       1.743775       0.493208
      13.570000       0.515950       1.727662       0.498917
      13.580000       0.509361       1.704428       0.506473
      13.590000       0.501871       1.674484       0.516024
      13.600000       0.493841       1.638937       0.527716
      13.610000       0.485667       1.599385       0.541684
      13.620000       0.477741       1.557623       0.558044
      13.630000       0.470411       1.515365       0.576881
      13.640000       0.463942       1.474013       0.598226
      13.650000       0.458484       1.434515       0.622034
      13.660000       0.454061       1.397325       0.648163
      13.670000       0.450581       1.362467       0.676348
      13.680000       0.447872       1.329699       0.706180
      13.690000       0.445740       1.298723       0.737075
      13.700000       0.444024       1.269376       0.768256
      13.710000       0.442626       1.241744       0.798737
      13.720000       0.441532       1.216178       0.827351
      13.730000       0.440791       1.193214       0.852835
      13.740000       0.440482       1.173434       0.873980
      13.750000       0.440680       1.157324       0.889814
      13.760000       0.441416       1.145148       0.899754
      13.770000       0.442673       1.136916       0.903676
      13.780000       0.444388       1.132422       0.901891
      13.790000       0.446480       1.131345       0.895044
      13.800000       0.448883       1.133373       0.883981
      13.810000       0.451569       1.138291       0.869621
      13.820000       0.454554       1.146014       0.852861
      13.830000       0.457891       1.156557       0.834521
      13.840000       0.461637       1.169965       0.815326
      13.850000       0.465826       1.186244       0.795915
      13.860000       0.470444       1.205292       0.776867
      13.870000       0.475425       1.226863       0.758706
      13.880000       0.480662       1.250551       0.741906
      13.890000       0.486032       1.275813       0.726857
      13.900000       0.491421       1.302005       0.713826
      13.910000       0.496741       1.328417       0.702929
      13.920000       0.501930       1.354253       0.694130
      13.930000       0.506944       1.378586       0.687276
      13.940000       0.511750       1.400329       0.682162
      13.950000       0.516316       1.418322       0.678597
      13.960000       0.520616       1.431523       0.676449
      13.970000       0.524629       1.439252       0.675659
      13.980000       0.528338       1.441355       0.676235
      13.990000       0.531722       1.438234       0.678234
      14.000000       0.534752       1.430732       0.681746
      14.010000       0.537394       1.419963       0.686892
      14.020000       0.539620       1.407141       0.693807
      14.030000       0.541420       1.393426       0.702631
      14.040000       0.542818       1.379777       0.713475
      14.050000       0.543871       1.366813       0.726366
      14.060000       0.544671       1.354712       0.741172
      14.070000       0.545330       1.343211       0.757525
      14.080000       0.545967       1.331737       0.774766
      14.090000       0.546691       1.319626       0.791932
      14.100000       0.547594       1.306353       0.807832
      14.110000       0.548733       1.291656       0.821181
      14.120000       0.550133       1.275527       0.830797
      14.130000       0.551774       1.258117       0.835794
      14.140000       0.553592       1.239645       0.835721
      14.150000       0.555476       1.220367       0.830607
      14.160000       0.557276       1.200600       0.820912
      14.170000       0.558813       1.180738       0.807405
      14.180000       0.559903       1.161224       0.791021
      14.190000       0.560386       1.142478       0.772718
      14.200000       0.560142       1.124806       0.753378
      14.210000       0.559103       1.108351       0.733734
      14.220000       0.557262       1.093080       0.714347
      14.230000       0.554667       1.078828       0.695612
      14.240000       0.551429       1.065367       0.677790
      14.250000       0.547725       1.052487       0.661058
      14.260000       0.543787       1.040067       0.645546
      14.270000       0.539882       1.028105       0.631364
      14.280000       0.536262       1.016722       0.618607
      14.290000       0.533121       1.006125       0.607359
      14.300000       0.530550       0.996575       0.597701
      14.310000       0.528531       0.988345       0.589727
      14.320000       0.526933       0.981672       0.583562
      14.330000       0.525520       0.976709       0.579372
      14.340000       0.523961       0.973501       0.577358
      14.350000       0.521839       0.971994       0.577726
      14.360000       0.518698       0.972090       0.580655
      14.370000       0.514117       0.973731       0.586263
      14.380000       0.507798       0.976958       0.594591
      14.390000       0.499652       0.981941       0.605600
      14.400000       0.489838       0.988966       0.619191
      14.410000       0.478734       0.998389       0.635226
      14.420000       0.466854       1.010565       0.653563
      14.430000       0.454735       1.025760       0.674076
      14.440000       0.442833       1.044048       0.696664
      14.450000       0.431459       1.065221       0.721233
      14.460000       0.420767       1.088756       0.747653
      14.470000       0.410795       1.113838       0.775708
      14.480000       0.401517       1.139474       0.805041
      14.490000       0.392907       1.164619       0.835138
      14.500000       0.384972       1.188298       0.865328
      14.510000       0.377756       1.209669       0.894840
      14.520000       0.371323       1.228039       0.922891
      14.530000       0.365719       1.242877       0.948819
      14.540000       0.360950       1.253855       0.972225
      14.550000       0.356972       1.260898       0.993075
      14.560000       0.353705       1.264217       1.011727
      14.570000       0.351053       1.264271       1.028851
      14.580000       0.348938       1.261660       1.045281
      14.590000       0.347304       1.256955       1.061818
      14.600000       0.346121       1.250559       1.079072
      14.610000       0.345368       1.242633       1.097341
      14.620000       0.345016       1.233136       1.116553
      14.630000       0.345011       1.221917       1.136254
      14.640000       0.345268       1.208817       1.155648
      14.650000       0.345664       1.193704       1.173661
      14.660000       0.346040       1.176461       1.189069
      14.670000       0.346211       1.156969       1.200668
      14.680000       0.345987       1.135118       1.207486
      14.690000       0.345189       1.110875       1.208968
      14.700000       0.343690       1.084366       1.205088
      14.710000       0.341433       1.055946       1.196321
      14.720000       0.338453       1.026206       1.183496
      14.730000       0.334872       0.995933       1.167571
      14.740000       0.330882       0.966039       1.149412
      14.750000       0.326718       0.937459       1.129647
      14.760000       0.322618       0.911059       1.108629
      14.770000       0.318797       0.887536       1.086485
      14.780000       0.315424       0.867348       1.063235
      14.790000       0.312615       0.850684       1.038903
      14.800000       0.310437       0.837473       1.013597
      14.810000       0.308925       0.827438       0.987525
      14.820000       0.308096       0.820156       0.960969
      14.830000       0.307951       0.815111       0.934241
      14.840000       0.308466       0.811710       0.907648
      14.850000       0.309582       0.809273       0.881496
      14.860000       0.311193       0.807022       0.856107
      14.870000       0.313146       0.804107       0.831833
      14.880000       0.315253       0.799687       0.809055
      14.890000       0.317310       0.793064       0.788140
      14.900000       0.319115       0.783807       0.769399
      14.910000       0.320490       0.771823       0.753039
      14.920000       0.321288       0.757348       0.739141
      14.930000       0.321403       0.740852       0.727655
      14.940000       0.320777       0.722918       0.718407
      14.950000       0.319401       0.704134       0.711123
      14.960000       0.317318       0.685032       0.705469
      14.970000       0.314614       0.666071       0.701094
      14.980000       0.311392       0.647645       0.697671
      14.990000       0.307750       0.630089       0.694925
      15.000000       0.303756       0.613687       0.692640
      15.010000       0.299445       0.598669       0.690642
      15.020000       0.294824       0.585216       0.688770
      15.030000       0.289904       0.573458       0.686869
      15.040000       0.284729       0.563479       0.684790
      15.050000       0.279399       0.555308       0.682408
      15.060000       0.274060       0.548924       0.679646
      15.070000       0.268888       0.544258       0.676487
      15.080000       0.264053       0.541213       0.672975
      15.090000       0.259686       0.539690       0.669196
      15.100000       0.255871       0.539610       0.665266
      15.110000       0.252642       0.540949       0.661314
      15.120000       0.250010       0.543747       0.657471
      15.130000       0.247985       0.548110       0.653866
      15.140000       0.246597       0.554167       0.650612
      15.150000       0.245888       0.562022       0.647793
      15.160000       0.245890       0.571691       0.645451
      15.170000       0.246602       0.583059       0.643576
      15.180000       0.247967       0.595878       0.642114
      15.190000       0.249869       0.609806       0.640989
      15.200000       0.252155       0.624488       0.640128
      15.210000       0.254666       0.639651       0.639485
      15.220000       0.257272       0.655168       0.639066
      15.230000       0.259896       0.671063       0.638934
      15.240000       0.262515       0.687433       0.639208
      15.250000       0.265140       0.704328       0.640053
      15.260000       0.267784       0.721625       0.641636
      15.270000       0.270433       0.738957       0.644082
      15.280000       0.273028       0.755736       0.647411
      15.290000       0.275467       0.771242       0.651479
      15.300000       0.277625       0.784779       0.655942
      15.310000       0.279385       0.795808       0.660246
      15.320000       0.280671       0.804058       0.663654
      15.330000       0.281476       0.809557       0.665331
      15.340000       0.281867       0.812618       0.664473
      15.350000       0.281972       0.813778       0.660464
      15.360000       0.281946       0.813708       0.653024
      15.370000       0.281928       0.813106       0.642286
      15.380000       0.282006       0.812593       0.628765
      15.390000       0.282210       0.812631       0.613242
      15.400000       0.282521       0.813473       0.596600
      15.410000       0.282905       0.815145       0.579673
      15.420000       0.283350       0.817425       0.563137
      15.430000       0.283876       0.819841       0.547466
      15.440000       0.284534       0.821662       0.532923
      15.450000       0.285376       0.821945       0.519585
      15.460000       0.286422       0.819642       0.507385
      15.470000       0.287648       0.813773       0.496166
      15.480000       0.288980       0.803643       0.485729
      15.490000       0.290309       0.789035       0.475887
      15.500000       0.291507       0.770310       0.466503
      15.510000       0.292442       0.748358       0.457502
      15.520000       0.292984       0.724426       0.448870
      15.530000       0.293013       0.699880       0.440630
      15.540000       0.292424       0.675978       0.432815
      15.550000       0.291136       0.653731       0.425439
      15.560000       0.289089       0.633850       0.418482
      15.570000       0.286242       0.616757       0.411886
      15.580000       0.282567       0.602635       0.405561
      15.590000       0.278050       0.591466       0.399400
      15.600000       0.272704       0.583069       0.393302
      15.610000       0.266583       0.577118       0.387188
      15.620000       0.259791       0.573176       0.381019
      15.630000       0.252486       0.570729       0.374802
      15.640000       0.244861       0.569235       0.368584
      15.650000       0.237123       0.568180       0.362434
      15.660000       0.229465       0.567125       0.356423
      15.670000       0.222050       0.565741       0.350612
      15.680000       0.215007       0.563825       0.345045
      15.690000       0.208437       0.561292       0.339757
      15.700000       0.202415       0.558166       0.334789
      15.710000       0.197005       0.554567       0.330200
      15.720000       0.192260       0.550703       0.326071
      15.730000       0.188228       0.546861       0.322494
      15.740000       0.184953       0.543386       0.319555
      15.750000       0.182467       0.540642       0.317316
      15.760000       0.180780       0.538937       0.315809
      15.770000       0.179871       0.538458       0.315036
      15.780000       0.179676       0.539208       0.314979
      15.790000       0.180079       0.540992       0.315617
      15.800000       0.180914       0.543437       0.316928
      15.810000       0.181973       0.546056       0.318889
      15.820000       0.183021       0.548308       0.321466
      15.830000       0.183820       0.549660       0.324595
      15.840000       0.184159       0.549628       0.328178
      15.850000       0.183884       0.547810       0.332081
      15.860000       0.182925       0.543931       0.336153
      15.870000       0.181309       0.537877       0.340259
      15.880000       0.179153       0.529732       0.344307
      15.890000       0.176638       0.519775       0.348268
      15.900000       0.173971       0.508453       0.352178
      15.910000       0.171354       0.496322       0.356118
      15.920000       0.168954       0.483974       0.360192
      15.930000       0.166892       0.471967       0.364504
      15.940000       0.165240       0.460765       0.369137
      15.950000       0.164028       0.450718       0.374152
      15.960000       0.163256       0.442053       0.379579
      15.970000       0.162906       0.434902       0.385413
      15.980000       0.162952       0.429331       0.391604
      15.990000       0.163361       0.425364       0.398054
      16.000000       0.164093       0.422992       0.404604
      16.010000       0.165098       0.422162       0.411028
      16.020000       0.166309       0.422780       0.417029
      16.030000       0.167657       0.424715       0.422235
      16.040000       0.169075       0.427823       0.426217
      16.050000       0.170513       0.431979       0.428525
      16.060000       0.171947       0.437090       0.428747
      16.070000       0.173364       0.443094       0.426589
      16.080000       0.174755       0.449920       0.421947
      16.090000       0.176092       0.457454       0.414955
      16.100000       0.177323       0.465513       0.405980
      16.110000       0.178369       0.473846       0.395573
      16.120000       0.179140       0.482181       0.384375
      16.130000       0.179557       0.490280       0.373018
      16.140000       0.179571       0.498003       0.362045
      16.150000       0.179193       0.505360       0.351866
      16.160000       0.178499       0.512527       0.342748
      16.170000       0.177630       0.519834       0.334828
      16.180000       0.176772       0.527718       0.328138
      16.190000       0.176123       0.536653       0.322632
      16.200000       0.175853       0.547081       0.318210
      16.210000       0.176077       0.559351       0.314743
      16.220000       0.176839       0.573674       0.312093
      16.230000       0.178104       0.590105       0.310134
      16.240000       0.179773       0.608524       0.308763
      16.250000       0.181697       0.628656       0.307900
      16.260000       0.183707       0.650105       0.307483
      16.270000       0.185640       0.672424       0.307454
      16.280000       0.187370       0.695202       0.307752
      16.290000       0.188816       0.718134       0.308311
      16.300000       0.189948       0.741055       0.309063
      16.310000       0.190778       0.763921       0.309941
      16.320000       0.191344       0.786740       0.310883
      16.330000       0.191693       0.809474       0.311833
      16.340000       0.191872       0.831930       0.312741
      16.350000       0.191920       0.853678       0.313568
      16.360000       0.191871       0.874012       0.314284
      16.370000       0.191760       0.892005       0.314862
      16.380000       0.191633       0.906643       0.315278
      16.390000       0.191547       0.917024       0.315499
      16.400000       0.191558       0.922554       0.315491
      16.410000       0.191703       0.923074       0.315222
      16.420000       0.191978       0.918870       0.314678
      16.430000       0.192331       0.910596       0.313879
      16.440000       0.192667       0.899141       0.312888
      16.450000       0.192872       0.885496       0.311803
      16.460000       0.192846       0.870645       0.310740
      16.470000       0.192535       0.855487       0.309814
      16.480000       0.191949       0.840777       0.309108
      16.490000       0.191152       0.827089       0.308667
      16.500000       0.190252       0.814793       0.308492
      16.510000       0.189360       0.804063       0.308540
      16.520000       0.188570       0.794894       0.308737
      16.530000       0.187944       0.787157       0.308995
      16.540000       0.187505       0.780656       0.309230
      16.550000       0.187256       0.775209       0.309384
      16.560000       0.187194       0.770713       0.309436
      16.570000       0.187328       0.767168       0.309405
      16.580000       0.187681       0.764662       0.309344
      16.590000       0.188277       0.763301       0.309317
      16.600000       0.189132       0.763134       0.309390
      16.610000       0.190237       0.764087       0.309615
      16.620000       0.191560       0.765955       0.310022
      16.630000       0.193054       0.768437       0.310624
      16.640000       0.194673       0.771214       0.311422
      16.650000       0.196375       0.774029       0.312415
      16.660000       0.198125       0.776729       0.313605
      16.670000       0.199886       0.779260       0.315005
      16.680000       0.201613       0.781612       0.316635
      16.690000       0.203242       0.783742       0.318522
      16.700000       0.204688       0.785506       0.320690
      16.710000       0.205842       0.786654       0.323151
      16.720000       0.206569       0.786879       0.325888
      16.730000       0.206722       0.785908       0.328851
      16.740000       0.206163       0.783597       0.331946
      16.750000       0.204787       0.779980       0.335041
      16.760000       0.202556       0.775280       0.337972
      16.770000       0.199517       0.769879       0.340542
      16.780000       0.195804       0.764265       0.342532
      16.790000       0.191617       0.758952       0.343700
      16.800000       0.187192       0.754395       0.343794
      16.810000       0.182758       0.750904       0.342585
      16.820000       0.178508       0.748578       0.339900
      16.830000       0.174582       0.747300       0.335670
      16.840000       0.171071       0.746784       0.329965
      16.850000       0.168019       0.746673       0.323000
      16.860000       0.165443       0.746661       0.315106
      16.870000       0.163346       0.746576       0.306674
      16.880000       0.161725       0.746407       0.298093
      16.890000       0.160571       0.746266       0.289688
      16.900000       0.159870       0.746310       0.281692
      16.910000       0.159597       0.746665       0.274239
      16.920000       0.159708       0.747395       0.267372
      16.930000       0.160142       0.748496       0.261070
      16.940000       0.160818       0.749929       0.255274
      16.950000       0.161638       0.751651       0.249912
      16.960000       0.162495       0.753626       0.244925
      16.970000       0.163275       0.755833       0.240282
      16.980000       0.163870       0.758248       0.235985
      16.990000       0.164184       0.760828       0.232057
      17.000000       0.164151       0.763513       0.228533
      17.010000       0.163744       0.766255       0.225441
      17.020000       0.162983       0.769056       0.222789
      17.030000       0.161933       0.772011       0.220563
      17.040000       0.160689       0.775318       0.218735
      17.050000       0.159365       0.779255       0.217271
      17.060000       0.158068       0.784117       0.216146
      17.070000       0.156889       0.790128       0.215356
      17.080000       0.155887       0.797360       0.214916
      17.090000       0.155082       0.805673       0.214858
      17.100000       0.154460       0.814697       0.215212
      17.110000       0.153982       0.823858       0.215992
      17.120000       0.153605       0.832440       0.217183
      17.130000       0.153300       0.839682       0.218732
      17.140000       0.153062       0.844885       0.220551
      17.150000       0.152909       0.847525       0.222525
      17.160000       0.152867       0.847362       0.224529
      17.170000       0.152952       0.844512       0.226440
      17.180000       0.153163       0.839468       0.228155
      17.190000       0.153479       0.833038       0.229594
      17.200000       0.153870       0.826192       0.230708
      17.210000       0.154306       0.819870       0.231473
      17.220000       0.154770       0.814812       0.231892
      17.230000       0.155259       0.811441       0.231996
      17.240000       0.155779       0.809844       0.231843
      17.250000       0.156327       0.809813       0.231522
      17.260000       0.156877       0.810939       0.231146
      17.270000       0.157375       0.812714       0.230838
      17.280000       0.157737       0.814640       0.230720
      17.290000       0.157866       0.816314       0.230901
      17.300000       0.157671       0.817478       0.231464
      17.310000       0.157093       0.818027       0.232455
      17.320000       0.156126       0.817983       0.233880
      17.330000       0.154823       0.817447       0.235696
      17.340000       0.153293       0.816558       0.237814
      17.350000       0.151678       0.815478       0.240109
      17.360000       0.150128       0.814383       0.242446
      17.370000       0.148773       0.813465       0.244698
      17.380000       0.147705       0.812899       0.246776
      17.390000       0.146968       0.812806       0.248636
      17.400000       0.146561       0.813194       0.250285
      17.410000       0.146453       0.813940       0.251760
      17.420000       0.146595       0.814807       0.253121
      17.430000       0.146932       0.815511       0.254434
      17.440000       0.147416       0.815794       0.255766
      17.450000       0.147999       0.815478       0.257177
      17.460000       0.148631       0.814458       0.258718
      17.470000       0.149252       0.812665       0.260416
      17.480000       0.149801       0.810021       0.262264
      17.490000       0.150221       0.806420       0.264218
      17.500000       0.150475       0.801754       0.266192
      17.510000       0.150567       0.795977       0.268062
      17.520000       0.150534       0.789162       0.269672
      17.530000       0.150443       0.781530       0.270846
      17.540000       0.150368       0.773429       0.271405
      17.550000       0.150373       0.765266       0.271190
      17.560000       0.150493       0.757449       0.270097
      17.570000       0.150731       0.750341       0.268101
      17.580000       0.151059       0.744244       0.265283
      17.590000       0.151419       0.739410       0.261825
      17.600000       0.151736       0.736038       0.257984
      17.610000       0.151924       0.734251       0.254041
      17.620000       0.151897       0.734075       0.250253
      17.630000       0.151582       0.735414       0.246801
      17.640000       0.150924       0.738044       0.243780
      17.650000       0.149888       0.741641       0.241196
      17.660000       0.148463       0.745830       0.238991
      17.670000       0.146659       0.750252       0.237081
      17.680000       0.144509       0.754635       0.235382
      17.690000       0.142070       0.758833       0.233842
      17.700000       0.139421       0.762835       0.232446
      17.710000       0.136654       0.766723       0.231220
      17.720000       0.133873       0.770598       0.230224
      17.730000       0.131174       0.774507       0.229532
      17.740000       0.128642       0.778386       0.229222
      17.750000       0.126340       0.782044       0.229357
      17.760000       0.124307       0.785180       0.229970
      17.770000       0.122554       0.787432       0.231059
      17.780000       0.121074       0.788437       0.232588
      17.790000       0.119844       0.787892       0.234492
      17.800000       0.118831       0.785604       0.236694
      17.810000       0.118006       0.781529       0.239120
      17.820000       0.117346       0.775811       0.241710
      17.830000       0.116845       0.768799       0.244432
      17.840000       0.116514       0.761027       0.247281
      17.850000       0.116375       0.753148       0.250283
      17.860000       0.116456       0.745821       0.253489
      17.870000       0.116775       0.739584       0.256970
      17.880000       0.117339       0.734762       0.260796
      17.890000       0.118136       0.731418       0.265028
      17.900000       0.119141       0.729370       0.269702
      17.910000       0.120314       0.728252       0.274829
      17.920000       0.121615       0.727598       0.280393
      17.930000       0.123002       0.726934       0.286359
      17.940000       0.124440       0.725861       0.292676
      17.950000       0.125904       0.724093       0.299295
      17.960000       0.127375       0.721472       0.306180
      17.970000       0.128845       0.717941       0.313311
      17.980000       0.130308       0.713514       0.320675
      17.990000       0.131760       0.708238       0.328252
      18.000000       0.133192       0.702179       0.335990
      18.010000       0.134591       0.695411       0.343806
      18.020000       0.135938       0.688017       0.351585
      18.030000       0.137207       0.680088       0.359201
      18.040000       0.138372       0.671712       0.366524
      18.050000       0.139410       0.662965       0.373417
      18.060000       0.140308       0.653916       0.379736
      18.070000       0.141071       0.644649       0.385322
      18.080000       0.141715       0.635295       0.390008
      18.090000       0.142268       0.626054       0.393631
      18.100000       0.142764       0.617188       0.396036
      18.110000       0.143236       0.608987       0.397092
      18.120000       0.143714       0.601710       0.396699
      18.130000       0.144220       0.595522       0.394796
      18.140000       0.144756       0.590457       0.391371
      18.150000       0.145307       0.586407       0.386458
      18.160000       0.145835       0.583153       0.380139
      18.170000       0.146283       0.580416       0.372546
      18.180000       0.146580       0.577893       0.363871
      18.190000       0.146650       0.575297       0.354382
      18.200000       0.146426       0.572371       0.344412
      18.210000       0.145859       0.568904       0.334335
      18.220000       0.144933       0.564739       0.324524
      18.230000       0.143665       0.559782       0.315303
      18.240000       0.142099       0.553993       0.306914
      18.250000       0.140298       0.547384       0.299504
      18.260000       0.138331       0.540015       0.293129
      18.270000       0.136264       0.531996       0.287777
      18.280000       0.134160       0.523489       0.283382
      18.290000       0.132072       0.514700       0.279843
      18.300000       0.130047       0.505849       0.277042
      18.310000       0.128121       0.497145       0.274847
      18.320000       0.126321       0.488761       0.273120
      18.330000       0.124667       0.480817       0.271722
      18.340000       0.123168       0.473391       0.270516
      18.350000       0.121829       0.466520       0.269380
      18.360000       0.120648       0.460202       0.268213
      18.370000       0.119619       0.454394       0.266946
      18.380000       0.118731       0.449015       0.265535
      18.390000       0.117963       0.443948       0.263962
      18.400000       0.117294       0.439073       0.262218
      18.410000       0.116701       0.434294       0.260298
      18.420000       0.116171       0.429570       0.258202
      18.430000       0.115701       0.424919       0.255942
      18.440000       0.115296       0.420409       0.253553
      18.450000       0.114962       0.416130       0.251093
      18.460000       0.114701       0.412169       0.248637
      18.470000       0.114500       0.408595       0.246262
      18.480000       0.114332       0.405451       0.244024
      18.490000       0.114157       0.402763       0.241945
      18.500000       0.113930       0.400537       0.240002
      18.510000       0.113612       0.398766       0.238130
      18.520000       0.113179       0.397428       0.236235
      18.530000       0.112623       0.396486       0.234215
      18.540000       0.111953       0.395881       0.231994
      18.550000       0.111196       0.395528       0.229550
      18.560000       0.110388       0.395322       0.226923
      18.570000       0.109572       0.395139       0.224212
      18.580000       0.108789       0.394847       0.221546
      18.590000       0.108070       0.394312       0.219055
      18.600000       0.107430       0.393415       0.216836
      18.610000       0.106863       0.392078       0.214940
      18.620000       0.106345       0.390291       0.213376
      18.630000       0.105843       0.388120       0.212108
      18.640000       0.105321       0.385695       0.211075
      18.650000       0.104750       0.383172       0.210200
      18.660000       0.104109       0.380690       0.209398
      18.670000       0.103390       0.378338       0.208591
      18.680000       0.102595       0.376133       0.207723
      18.690000       0.101734       0.374014       0.206775
      18.700000       0.100820       0.371857       0.205769
      18.710000       0.099873       0.369498       0.204778
      18.720000       0.098916       0.366767       0.203916
      18.730000       0.097977       0.363519       0.203315
      18.740000       0.097085       0.359664       0.203112
      18.750000       0.096275       0.355179       0.203422
      18.760000       0.095582       0.350122       0.204325
      18.770000       0.095048       0.344624       0.205857
      18.780000       0.094710       0.338894       0.208005
      18.790000       0.094607       0.333198       0.210708
      18.800000       0.094769       0.327839       0.213853
      18.810000       0.095214       0.323112       0.217289
      18.820000       0.095944       0.319264       0.220833
      18.830000       0.096944       0.316450       0.224283
      18.840000       0.098180       0.314709       0.227436
      18.850000       0.099607       0.313961       0.230099
      18.860000       0.101165       0.314017       0.232099
      18.870000       0.102791       0.314612       0.233300
      18.880000       0.104413       0.315436       0.233617
      18.890000       0.105952       0.316178       0.233026
      18.900000       0.107328       0.316552       0.231573
      18.910000       0.108465       0.316327       0.229373
      18.920000       0.109300       0.315342       0.226587
      18.930000       0.109797       0.313523       0.223406
      18.940000       0.109958       0.310877       0.220017
      18.950000       0.109823       0.307480       0.216586
      18.960000       0.109454       0.303469       0.213253
      18.970000       0.108927       0.299016       0.210128
      18.980000       0.108302       0.294305       0.207297
      18.990000       0.107616       0.289511       0.204824
      19.000000       0.106873       0.284773       0.202750
      19.010000       0.106048       0.280182       0.201088
      19.020000       0.105094       0.275787       0.199827
      19.030000       0.103960       0.271599       0.198927
      19.040000       0.102606       0.267607       0.198329
      19.050000       0.101015       0.263787       0.197960
      19.060000       0.099201       0.260115       0.197734
      19.070000       0.097205       0.256568       0.197567
      19.080000       0.095089       0.253133       0.197376
      19.090000       0.092924       0.249811       0.197096
      19.100000       0.090778       0.246609       0.196677
      19.110000       0.088707       0.243533       0.196086
      19.120000       0.086750       0.240582       0.195301
      19.130000       0.084931       0.237742       0.194302
      19.140000       0.083258       0.234993       0.193063
      19.150000       0.081725       0.232318       0.191556
      19.160000       0.080327       0.229706       0.189757
      19.170000       0.079054       0.227150       0.187658
      19.180000       0.077897       0.224640       0.185286
      19.190000       0.076854       0.222155       0.182699
      19.200000       0.075923       0.219676       0.179986
      19.210000       0.075111       0.217199       0.177246
      19.220000       0.074430       0.214749       0.174576
      19.230000       0.073898       0.212392       0.172057
      19.240000       0.073536       0.210227       0.169743
      19.250000       0.073365       0.208380       0.167666
      19.260000       0.073400       0.206984       0.165830
      19.270000       0.073644       0.206159       0.164226
      19.280000       0.074087       0.205997       0.162837
      19.290000       0.074700       0.206547       0.161644
      19.300000       0.075439       0.207808       0.160632
      19.310000       0.076256       0.209728       0.159790
      19.320000       0.077099       0.212216       0.159108
      19.330000       0.077931       0.215142       0.158577
      19.340000       0.078726       0.218348       0.158189
      19.350000       0.079473       0.221659       0.157936
      19.360000       0.080171       0.224886       0.157818
      19.370000       0.080818       0.227837       0.157841
      19.380000       0.081410       0.230327       0.158015
      19.390000       0.081933       0.232186       0.158348
      19.400000       0.082362       0.233274       0.158845
      19.410000       0.082667       0.233496       0.159495
      19.420000       0.082821       0.232823       0.160276
      19.430000       0.082809       0.231300       0.161143
      19.440000       0.082636       0.229043       0.162028
      19.450000       0.082328       0.226228       0.162840
      19.460000       0.081924       0.223070       0.163468
      19.470000       0.081472       0.219794       0.163791
      19.480000       0.081020       0.216624       0.163701
      19.490000       0.080614       0.213757       0.163115
      19.500000       0.080297       0.211354       0.161997
      19.510000       0.080110       0.209521       0.160361
      19.520000       0.080087       0.208299       0.158268
      19.530000       0.080252       0.207660       0.155809
      19.540000       0.080611       0.207511       0.153090
      19.550000       0.081152       0.207707       0.150216
      19.560000       0.081846       0.208086       0.147286
      19.570000       0.082652       0.208502       0.144385
      19.580000       0.083523       0.208857       0.141584
      19.590000       0.084418       0.209128       0.138936
      19.600000       0.085303       0.209362       0.136474
      19.610000       0.086156       0.209653       0.134214
      19.620000       0.086970       0.210098       0.132156
      19.630000       0.087746       0.210755       0.130293
      19.640000       0.088489       0.211612       0.128615
      19.650000       0.089203       0.212572       0.127118
      19.660000       0.089877       0.213473       0.125810
      19.670000       0.090492       0.214112       0.124711
      19.680000       0.091008       0.214292       0.123847
      19.690000       0.091380       0.213864       0.123250
      19.700000       0.091560       0.212753       0.122945
      19.710000       0.091512       0.210972       0.122945
      19.720000       0.091215       0.208605       0.123244
      19.730000       0.090673       0.205791       0.123818
      19.740000       0.089915       0.202697       0.124621
      19.750000       0.088985       0.199498       0.125599
      19.760000       0.087941       0.196355       0.126689
      19.770000       0.086845       0.193399       0.127830
      19.780000       0.085758       0.190727       0.128966
      19.790000       0.084735       0.188397       0.130045
      19.800000       0.083822       0.186428       0.131014
      19.810000       0.083056       0.184815       0.131820
      19.820000       0.082462       0.183536       0.132404
      19.830000       0.082050       0.182564       0.132704
      19.840000       0.081819       0.181872       0.132668
      19.850000       0.081757       0.181435       0.132265
      19.860000       0.081844       0.181236       0.131495
      19.870000       0.082056       0.181263       0.130403
      19.880000       0.082373       0.181508       0.129076
      19.890000       0.082782       0.181969       0.127627
      19.900000       0.083283       0.182643       0.126183
      19.910000       0.083890       0.183528       0.124860
      19.920000       0.084629       0.184620       0.123760
      19.930000       0.085528       0.185900       0.122964
      19.940000       0.086610       0.187335       0.122529
      19.950000       0.087890       0.188873       0.122497
      19.960000       0.089373       0.190463       0.122895
      19.970000       0.091059       0.192072       0.123729
      19.980000       0.092947       0.193704       0.124988
      19.990000       0.095035       0.195399       0.126636
      20.000000       0.097322       0.197213       0.128611
