  # energy grid [eV]     epsr_x  epsr_y  epsr_z
       0.000000            NaN            NaN            NaN
       0.010000 -156925.177966 -216936.260835       2.814687
       0.020000  -39223.009475  -54230.319983       2.796008
       0.030000  -17426.386266  -24099.600254       2.766359
       0.040000   -9797.632486  -13553.862076       2.727780
       0.050000   -6266.655502   -8672.709760       2.682707
       0.060000   -4348.622872   -6021.242551       2.633537
       0.070000   -3192.125695   -4422.520240       2.582194
       0.080000   -2441.522238   -3384.923233       2.529853
       0.090000   -1926.913988   -2673.591977       2.476946
       0.100000   -1558.818394   -2164.828554       2.423423
       0.110000   -1286.468746   -1788.452665       2.369171
       0.120000   -1079.322978   -1502.240139       2.314406
       0.130000    -918.111939   -1279.548370       2.259895
       0.140000    -790.190919   -1102.890755       2.206918
       0.150000    -686.983126    -960.403467       2.157006
       0.160000    -602.504608    -843.807485       2.111560
       0.170000    -532.477736    -747.184127       2.071535
       0.180000    -473.779314    -666.212674       2.037285
       0.190000    -424.086242    -597.680526       2.008607
       0.200000    -381.641812    -539.159660       1.984912
       0.210000    -345.097849    -488.787786       1.965446
       0.220000    -313.405851    -445.117276       1.949470
       0.230000    -285.740513    -407.009006       1.936359
       0.240000    -261.445083    -373.556560       1.925620
       0.250000    -239.991715    -344.031307       1.916850
       0.260000    -220.952276    -317.842046       1.909691
       0.270000    -203.976534    -294.504960       1.903795
       0.280000    -188.775618    -273.620961       1.898828
       0.290000    -175.109323    -254.858418       1.894486
       0.300000    -162.776230    -237.939828       1.890527
       0.310000    -151.606039    -222.631465       1.886790
       0.320000    -141.453648    -208.735270       1.883217
       0.330000    -132.194725    -196.082492       1.879847
       0.340000    -123.722445    -184.528662       1.876793
       0.350000    -115.945062    -173.949603       1.874177
       0.360000    -108.783969    -164.238199       1.872074
       0.370000    -102.171996    -155.301733       1.870459
       0.380000     -96.051849    -147.059662       1.869199
       0.390000     -90.374711    -139.441752       1.868083
       0.400000     -85.099070    -132.386516       1.866875
       0.410000     -80.189814    -125.839910       1.865385
       0.420000     -75.617614    -119.754251       1.863524
       0.430000     -71.358556    -114.087308       1.861333
       0.440000     -67.394030    -108.801559       1.858991
       0.450000     -63.710783    -103.863558       1.856772
       0.460000     -60.301073     -99.243410       1.854984
       0.470000     -57.162774     -94.914325       1.853903
       0.480000     -54.299203     -90.852248       1.853716
       0.490000     -51.718386     -87.035535       1.854501
       0.500000     -49.431450     -83.444693       1.856231
       0.510000     -47.449880     -80.062146       1.858801
       0.520000     -45.781705     -76.872035       1.862065
       0.530000     -44.427125     -73.860039       1.865856
       0.540000     -43.374558     -71.013209       1.870010
       0.550000     -42.598145     -68.319825       1.874376
       0.560000     -42.057230     -65.769259       1.878816
       0.570000     -41.697746     -63.351864       1.883209
       0.580000     -41.455342     -61.058865       1.887447
       0.590000     -41.260575     -58.882248       1.891436
       0.600000     -41.046278     -56.814656       1.895099
       0.610000     -40.755943     -54.849274       1.898375
       0.620000     -40.350533     -52.979707       1.901221
       0.630000     -39.811322     -51.199891       1.903607
       0.640000     -39.138172     -49.504022       1.905517
       0.650000     -38.344643     -47.886544       1.906938
       0.660000     -37.452134     -46.342177       1.907869
       0.670000     -36.484788     -44.865977       1.908330
       0.680000     -35.465955     -43.453394       1.908375
       0.690000     -34.416209     -42.100323       1.908104
       0.700000     -33.352559     -40.803126       1.907652
       0.710000     -32.288411     -39.558624       1.907171
       0.720000     -31.233936     -38.364071       1.906785
       0.730000     -30.196581     -37.217100       1.906568
       0.740000     -29.181616     -36.115670       1.906521
       0.750000     -28.192614     -35.058021       1.906591
       0.760000     -27.231865     -34.042627       1.906683
       0.770000     -26.300688     -33.068157       1.906703
       0.780000     -25.399661     -32.133412       1.906573
       0.790000     -24.528777     -31.237243       1.906260
       0.800000     -23.687531     -30.378421       1.905776
       0.810000     -22.874978     -29.555490       1.905175
       0.820000     -22.089777     -28.766625       1.904545
       0.830000     -21.330281     -28.009558       1.903986
       0.840000     -20.594663     -27.281615       1.903595
       0.850000     -19.881077     -26.579889       1.903441
       0.860000     -19.187806     -25.901496       1.903547
       0.870000     -18.513354     -25.243851       1.903886
       0.880000     -17.856479     -24.604855       1.904387
       0.890000     -17.216159     -23.982974       1.904956
       0.900000     -16.591552     -23.377194       1.905494
       0.910000     -15.981943     -22.786907       1.905929
       0.920000     -15.386716     -22.211760       1.906222
       0.930000     -14.805348     -21.651534       1.906371
       0.940000     -14.237421     -21.106048       1.906396
       0.950000     -13.682648     -20.575106       1.906317
       0.960000     -13.140918     -20.058472       1.906137
       0.970000     -12.612353     -19.555863       1.905833
       0.980000     -12.097372     -19.066959       1.905370
       0.990000     -11.596768     -18.591414       1.904725
       1.000000     -11.111792     -18.128873       1.903904
       1.010000     -10.644234     -17.678982       1.902963
       1.020000     -10.196498     -17.241405       1.901997
       1.030000      -9.771674     -16.815836       1.901122
       1.040000      -9.373576     -16.402011       1.900442
       1.050000      -9.006764     -15.999713       1.900027
       1.060000      -8.676465     -15.608776       1.899898
       1.070000      -8.388334     -15.229076       1.900023
       1.080000      -8.147913     -14.860514       1.900333
       1.090000      -7.959724     -14.502982       1.900736
       1.100000      -7.826090     -14.156316       1.901140
       1.110000      -7.746007     -13.820246       1.901472
       1.120000      -7.714560     -13.494363       1.901702
       1.130000      -7.723246     -13.178113       1.901846
       1.140000      -7.761174     -12.870819       1.901962
       1.150000      -7.816733     -12.571741       1.902127
       1.160000      -7.879231     -12.280145       1.902408
       1.170000      -7.940181     -11.995378       1.902844
       1.180000      -7.994127     -11.716953       1.903427
       1.190000      -8.038856     -11.444606       1.904115
       1.200000      -8.074828     -11.178315       1.904840
       1.210000      -8.103930     -10.918287       1.905536
       1.220000      -8.128075     -10.664906       1.906149
       1.230000      -8.148345     -10.418676       1.906652
       1.240000      -8.165124     -10.180162       1.907050
       1.250000      -8.178998      -9.949928       1.907374
       1.260000      -8.191662      -9.728426       1.907678
       1.270000      -8.206104      -9.515833       1.908029
       1.280000      -8.225874      -9.311859       1.908500
       1.290000      -8.253882      -9.115622       1.909161
       1.300000      -8.291547      -8.925669       1.910064
       1.310000      -8.338847      -8.740216       1.911234
       1.320000      -8.395199      -8.557556       1.912659
       1.330000      -8.460503      -8.376470       1.914298
       1.340000      -8.535541      -8.196517       1.916078
       1.350000      -8.621435      -8.018098       1.917911
       1.360000      -8.718532      -7.842324       1.919700
       1.370000      -8.825487      -7.670765       1.921347
       1.380000      -8.939082      -7.505131       1.922764
       1.390000      -9.054742      -7.346933       1.923882
       1.400000      -9.167176      -7.197164       1.924661
       1.410000      -9.270655      -7.056030       1.925091
       1.420000      -9.358940      -6.922861       1.925198
       1.430000      -9.425348      -6.796250       1.925036
       1.440000      -9.463377      -6.674450       1.924684
       1.450000      -9.467838      -6.555869       1.924235
       1.460000      -9.435935      -6.439452       1.923796
       1.470000      -9.367766      -6.324771       1.923473
       1.480000      -9.266052      -6.211794       1.923360
       1.490000      -9.135346      -6.100481       1.923520
       1.500000      -8.981084      -5.990420       1.923977
       1.510000      -8.808775      -5.880711       1.924712
       1.520000      -8.623471      -5.770162       1.925672
       1.530000      -8.429498      -5.657727       1.926780
       1.540000      -8.230375      -5.542948       1.927946
       1.550000      -8.028858      -5.426243       1.929071
       1.560000      -7.827041      -5.308923       1.930048
       1.570000      -7.626469      -5.192970       1.930767
       1.580000      -7.428252      -5.080666       1.931119
       1.590000      -7.233160      -4.974123       1.931014
       1.600000      -7.041703      -4.874805       1.930398
       1.610000      -6.854200      -4.783102       1.929280
       1.620000      -6.670823      -4.698100       1.927747
       1.630000      -6.491643      -4.617681       1.925959
       1.640000      -6.316664      -4.539010       1.924127
       1.650000      -6.145849      -4.459282       1.922463
       1.660000      -5.979152      -4.376486       1.921137
       1.670000      -5.816529      -4.289909       1.920247
       1.680000      -5.657958      -4.200260       1.919811
       1.690000      -5.503449      -4.109458       1.919784
       1.700000      -5.353043      -4.020206       1.920085
       1.710000      -5.206815      -3.935491       1.920622
       1.720000      -5.064854      -3.858056       1.921315
       1.730000      -4.927242      -3.789920       1.922108
       1.740000      -4.794011      -3.732003       1.922970
       1.750000      -4.665104      -3.683945       1.923890
       1.760000      -4.540334      -3.644184       1.924875
       1.770000      -4.419377      -3.610263       1.925944
       1.780000      -4.301802      -3.579239       1.927131
       1.790000      -4.187143      -3.548089       1.928476
       1.800000      -4.074986      -3.514081       1.930017
       1.810000      -3.965070      -3.475123       1.931783
       1.820000      -3.857338      -3.430094       1.933783
       1.830000      -3.751966      -3.379052       1.936001
       1.840000      -3.649311      -3.323232       1.938396
       1.850000      -3.549825      -3.264791       1.940912
       1.860000      -3.453931      -3.206392       1.943477
       1.870000      -3.361908      -3.150747       1.946014
       1.880000      -3.273832      -3.100219       1.948437
       1.890000      -3.189587      -3.056566       1.950665
       1.900000      -3.108951      -3.020790       1.952622
       1.910000      -3.031711      -2.993073       1.954249
       1.920000      -2.957741      -2.972772       1.955515
       1.930000      -2.887008      -2.958544       1.956429
       1.940000      -2.819521      -2.948624       1.957051
       1.950000      -2.755246      -2.941243       1.957486
       1.960000      -2.694049      -2.934998       1.957872
       1.970000      -2.635699      -2.929006       1.958359
       1.980000      -2.579951      -2.922780       1.959074
       1.990000      -2.526684      -2.915938       1.960103
       2.000000      -2.476014      -2.907968       1.961477
       2.010000      -2.428306      -2.898179       1.963173
       2.020000      -2.384057      -2.885855       1.965124
       2.030000      -2.343719      -2.870477       1.967231
       2.040000      -2.307552      -2.851859       1.969378
       2.050000      -2.275591      -2.830179       1.971448
       2.060000      -2.247745      -2.805927       1.973327
       2.070000      -2.223942      -2.779866       1.974927
       2.080000      -2.204230      -2.752978       1.976185
       2.090000      -2.188780      -2.726337       1.977080
       2.100000      -2.177827      -2.700899       1.977629
       2.110000      -2.171635      -2.677234       1.977881
       2.120000      -2.170544      -2.655356       1.977897
       2.130000      -2.175073      -2.634727       1.977736
       2.140000      -2.185984      -2.614490       1.977440
       2.150000      -2.204232      -2.593780       1.977028
       2.160000      -2.230810      -2.571949       1.976500
       2.170000      -2.266530      -2.548567       1.975842
       2.180000      -2.311832      -2.523239       1.975027
       2.190000      -2.366584      -2.495405       1.974025
       2.200000      -2.429899      -2.464299       1.972807
       2.210000      -2.499964      -2.429127       1.971364
       2.220000      -2.573958      -2.389403       1.969721
       2.230000      -2.648135      -2.345233       1.967950
       2.240000      -2.718128      -2.297445       1.966163
       2.250000      -2.779480      -2.247501       1.964494
       2.260000      -2.828294      -2.197261       1.963070
       2.270000      -2.861814      -2.148678       1.961978
       2.280000      -2.878749      -2.103500       1.961251
       2.290000      -2.879262      -2.063016       1.960866
       2.300000      -2.864682      -2.027869       1.960758
       2.310000      -2.837087      -1.997920       1.960849
       2.320000      -2.798909      -1.972203       1.961078
       2.330000      -2.752617      -1.948991       1.961422
       2.340000      -2.700506      -1.926036       1.961901
       2.350000      -2.644568      -1.900972       1.962563
       2.360000      -2.586415      -1.871786       1.963460
       2.370000      -2.527254      -1.837193       1.964618
       2.380000      -2.467894      -1.796793       1.966015
       2.390000      -2.408793      -1.751005       1.967580
       2.400000      -2.350151      -1.700833       1.969201
       2.410000      -2.292024      -1.647572       1.970744
       2.420000      -2.234423      -1.592515       1.972072
       2.430000      -2.177375      -1.536717       1.973057
       2.440000      -2.120939      -1.480824       1.973586
       2.450000      -2.065184      -1.425003       1.973569
       2.460000      -2.010160      -1.368998       1.972946
       2.470000      -1.955885      -1.312278       1.971703
       2.480000      -1.902335      -1.254258       1.969897
       2.490000      -1.849452      -1.194485       1.967661
       2.500000      -1.797159      -1.132762       1.965197
       2.510000      -1.745372      -1.069184       1.962736
       2.520000      -1.694019      -1.004109       1.960491
       2.530000      -1.643070      -0.938120       1.958619
       2.540000      -1.592541      -0.871973       1.957198
       2.550000      -1.542507      -0.806559       1.956241
       2.560000      -1.493088      -0.742849       1.955717
       2.570000      -1.444436      -0.681835       1.955571
       2.580000      -1.396717      -0.624441       1.955741
       2.590000      -1.350094      -0.571394       1.956164
       2.600000      -1.304712      -0.523090       1.956781
       2.610000      -1.260683      -0.479466       1.957532
       2.620000      -1.218083      -0.439962       1.958352
       2.630000      -1.176946      -0.403611       1.959158
       2.640000      -1.137269      -0.369259       1.959847
       2.650000      -1.099003      -0.335846       1.960298
       2.660000      -1.062055      -0.302635       1.960387
       2.670000      -1.026271      -0.269302       1.960012
       2.680000      -0.991434      -0.235864       1.959121
       2.690000      -0.957261      -0.202522       1.957721
       2.700000      -0.923425      -0.169485       1.955876
       2.710000      -0.889585      -0.136864       1.953690
       2.720000      -0.855437      -0.104681       1.951285
       2.730000      -0.820765      -0.073000       1.948778
       2.740000      -0.785473      -0.042155       1.946278
       2.750000      -0.749594      -0.013000       1.943889
       2.760000      -0.713275       0.012889       1.941711
       2.770000      -0.676753       0.033159       1.939839
       2.780000      -0.640328       0.044768       1.938355
       2.790000      -0.604344       0.044225       1.937307
       2.800000      -0.569164       0.027947       1.936702
       2.810000      -0.535155      -0.007291       1.936510
       2.820000      -0.502659      -0.063855       1.936671
       2.830000      -0.471944      -0.142732       1.937112
       2.840000      -0.443161      -0.243084       1.937764
       2.850000      -0.416282      -0.361948       1.938570
       2.860000      -0.391084      -0.494201       1.939500
       2.870000      -0.367174      -0.632886       1.940551
       2.880000      -0.344083      -0.769950       1.941743
       2.890000      -0.321399      -0.897327       1.943112
       2.900000      -0.298896      -1.008141       1.944695
       2.910000      -0.276605      -1.097682       1.946519
       2.920000      -0.254815      -1.163859       1.948592
       2.930000      -0.234001      -1.207044       1.950895
       2.940000      -0.214714      -1.229463       1.953379
       2.950000      -0.197464      -1.234398       1.955954
       2.960000      -0.182628      -1.225442       1.958500
       2.970000      -0.170411      -1.205942       1.960870
       2.980000      -0.160868      -1.178704       1.962909
       2.990000      -0.153978      -1.145896       1.964470
       3.000000      -0.149715      -1.109118       1.965430
       3.010000      -0.148097      -1.069540       1.965705
       3.020000      -0.149169      -1.028034       1.965258
       3.030000      -0.152943      -0.985292       1.964105
       3.040000      -0.159313      -0.941906       1.962315
       3.050000      -0.167975      -0.898410       1.959999
       3.060000      -0.178362      -0.855299       1.957294
       3.070000      -0.189615      -0.812994       1.954331
       3.080000      -0.200627      -0.771790       1.951216
       3.090000      -0.210161      -0.731813       1.948015
       3.100000      -0.217033      -0.693023       1.944765
       3.110000      -0.220298      -0.655268       1.941494
       3.120000      -0.219394      -0.618377       1.938256
       3.130000      -0.214176      -0.582220       1.935144
       3.140000      -0.204863      -0.546709       1.932293
       3.150000      -0.191916      -0.511741       1.929863
       3.160000      -0.175902      -0.477118       1.928014
       3.170000      -0.157386      -0.442506       1.926876
       3.180000      -0.136853      -0.407463       1.926532
       3.190000      -0.114688      -0.371525       1.927006
       3.200000      -0.091183      -0.334314       1.928264
       3.210000      -0.066571      -0.295621       1.930218
       3.220000      -0.041059      -0.255445       1.932733
       3.230000      -0.014852      -0.213980       1.935646
       3.240000       0.011834      -0.171582       1.938779
       3.250000       0.038775      -0.128714       1.941957
       3.260000       0.065745      -0.085887       1.945022
       3.270000       0.092518      -0.043611       1.947852
       3.280000       0.118883      -0.002344       1.950361
       3.290000       0.144642       0.037548       1.952505
       3.300000       0.169623       0.075818       1.954273
       3.310000       0.193694       0.112349       1.955675
       3.320000       0.216777       0.147140       1.956731
       3.330000       0.238867       0.180276       1.957468
       3.340000       0.260039       0.211886       1.957932
       3.350000       0.280443       0.242097       1.958197
       3.360000       0.300288       0.271012       1.958368
       3.370000       0.319810       0.298708       1.958579
       3.380000       0.339253       0.325269       1.958975
       3.390000       0.358836       0.350827       1.959697
       3.400000       0.378746       0.375586       1.960855
       3.410000       0.399113       0.399811       1.962518
       3.420000       0.420005       0.423780       1.964699
       3.430000       0.441430       0.447718       1.967354
       3.440000       0.463342       0.471729       1.970381
       3.450000       0.485662       0.495765       1.973637
       3.460000       0.508291       0.519645       1.976943
       3.470000       0.531132       0.543128       1.980107
       3.480000       0.554099       0.566014       1.982935
       3.490000       0.577119       0.588236       1.985248
       3.500000       0.600133       0.609885       1.986904
       3.510000       0.623092       0.631178       1.987806
       3.520000       0.645949       0.652341       1.987920
       3.530000       0.668651       0.673475       1.987265
       3.540000       0.691136       0.694451       1.985907
       3.550000       0.713329       0.714865       1.983931
       3.560000       0.735147       0.734070       1.981423
       3.570000       0.756500       0.751261       1.978458
       3.580000       0.777297       0.765563       1.975109
       3.590000       0.797467       0.776125       1.971475
       3.600000       0.816972       0.782190       1.967705
       3.610000       0.835835       0.783187       1.964014
       3.620000       0.854158       0.778812       1.960664
       3.630000       0.872127       0.769067       1.957927
       3.640000       0.889987       0.754227       1.956038
       3.650000       0.908012       0.734724       1.955155
       3.660000       0.926447       0.711001       1.955342
       3.670000       0.945477       0.683398       1.956573
       3.680000       0.965204       0.652129       1.958752
       3.690000       0.985657       0.617356       1.961736
       3.700000       1.006807       0.579333       1.965365
       3.710000       1.028587       0.538583       1.969482
       3.720000       1.050909       0.496061       1.973943
       3.730000       1.073668       0.453224       1.978628
       3.740000       1.096745       0.411976       1.983439
       3.750000       1.120001       0.374457       1.988295
       3.760000       1.143284       0.342721       1.993129
       3.770000       1.166439       0.318374       1.997876
       3.780000       1.189322       0.302324       2.002472
       3.790000       1.211824       0.294701       2.006851
       3.800000       1.233891       0.294990       2.010941
       3.810000       1.255536       0.302276       2.014667
       3.820000       1.276827       0.315503       2.017967
       3.830000       1.297855       0.333654       2.020794
       3.840000       1.318682       0.355822       2.023134
       3.850000       1.339282       0.381194       2.025005
       3.860000       1.359519       0.408997       2.026453
       3.870000       1.379137       0.438474       2.027543
       3.880000       1.397807       0.468899       2.028341
       3.890000       1.415174       0.499630       2.028906
       3.900000       1.430933       0.530183       2.029286
       3.910000       1.444881       0.560277       2.029522
       3.920000       1.456958       0.589840       2.029655
       3.930000       1.467245       0.618960       2.029724
       3.940000       1.475936       0.647801       2.029763
       3.950000       1.483267       0.676498       2.029796
       3.960000       1.489421       0.705100       2.029833
       3.970000       1.494434       0.733531       2.029887
       3.980000       1.498108       0.761611       2.029976
       3.990000       1.499984       0.789095       2.030137
       4.000000       1.499382       0.815734       2.030412
       4.010000       1.495524       0.841329       2.030823
       4.020000       1.487746       0.865762       2.031354
       4.030000       1.475762       0.888983       2.031935
       4.040000       1.459920       0.910963       2.032451
       4.050000       1.441337       0.931635       2.032774
       4.060000       1.421832       0.950866       2.032798
       4.070000       1.403609       0.968468       2.032479
       4.080000       1.388806       0.984256       2.031850
       4.090000       1.379062       0.998133       2.031020
       4.100000       1.375265       1.010179       2.030144
       4.110000       1.377525       1.020715       2.029378
       4.120000       1.385330       1.030327       2.028839
       4.130000       1.397745       1.039797       2.028579
       4.140000       1.413619       1.049979       2.028577
       4.150000       1.431710       1.061624       2.028749
       4.160000       1.450789       1.075246       2.028969
       4.170000       1.469698       1.091051       2.029096
       4.180000       1.487430       1.108977       2.029006
       4.190000       1.503224       1.128793       2.028615
       4.200000       1.516674       1.150220       2.027906
       4.210000       1.527827       1.173021       2.026927
       4.220000       1.537202       1.197032       2.025781
       4.230000       1.545698       1.222135       2.024603
       4.240000       1.554371       1.248208       2.023531
       4.250000       1.564147       1.275073       2.022686
       4.260000       1.575559       1.302476       2.022165
       4.270000       1.588591       1.330102       2.022047
       4.280000       1.602657       1.357622       2.022405
       4.290000       1.616677       1.384746       2.023313
       4.300000       1.629206       1.411267       2.024846
       4.310000       1.638594       1.437057       2.027063
       4.320000       1.643171       1.462035       2.029991
       4.330000       1.641468       1.486095       2.033611
       4.340000       1.632491       1.509052       2.037848
       4.350000       1.616007       1.530608       2.042578
       4.360000       1.592755       1.550360       2.047629
       4.370000       1.564458       1.567840       2.052795
       4.380000       1.533568       1.582577       2.057844
       4.390000       1.502759       1.594167       2.062524
       4.400000       1.474360       1.602379       2.066570
       4.410000       1.449921       1.607271       2.069716
       4.420000       1.430056       1.609286       2.071709
       4.430000       1.414589       1.609279       2.072327
       4.440000       1.402879       1.608422       2.071412
       4.450000       1.394223       1.608006       2.068900
       4.460000       1.388193       1.609200       2.064852
       4.470000       1.384816       1.612865       2.059464
       4.480000       1.384566       1.619453       2.053050
       4.490000       1.388171       1.629020       2.046015
       4.500000       1.396339       1.641287       2.038798
       4.510000       1.409527       1.655739       2.031824
       4.520000       1.427812       1.671737       2.025454
       4.530000       1.450901       1.688623       2.019948
       4.540000       1.478218       1.705815       2.015457
       4.550000       1.509009       1.722861       2.012030
       4.560000       1.542442       1.739450       2.009641
       4.570000       1.577667       1.755373       2.008223
       4.580000       1.613849       1.770477       2.007677
       4.590000       1.650184       1.784627       2.007888
       4.600000       1.685901       1.797694       2.008716
       4.610000       1.720273       1.809567       2.009994
       4.620000       1.752644       1.820174       2.011540
       4.630000       1.782474       1.829482       2.013165
       4.640000       1.809397       1.837514       2.014698
       4.650000       1.833285       1.844355       2.015993
       4.660000       1.854256       1.850162       2.016932
       4.670000       1.872611       1.855157       2.017418
       4.680000       1.888666       1.859554       2.017367
       4.690000       1.902539       1.863430       2.016711
       4.700000       1.913968       1.866556       2.015408
       4.710000       1.922245       1.868250       2.013465
       4.720000       1.926317       1.867346       2.010950
       4.730000       1.925045       1.862342       2.007989
       4.740000       1.917572       1.851720       2.004758
       4.750000       1.903705       1.834383       2.001451
       4.760000       1.884199       1.810072       1.998255
       4.770000       1.860797       1.779617       1.995330
       4.780000       1.835951       1.744886       1.992796
       4.790000       1.812275       1.708409       1.990735
       4.800000       1.791942       1.672799       1.989201
       4.810000       1.776243       1.640149       1.988228
       4.820000       1.765471       1.611636       1.987843
       4.830000       1.759128       1.587449       1.988060
       4.840000       1.756308       1.567055       1.988886
       4.850000       1.756121       1.549664       1.990321
       4.860000       1.757993       1.534729       1.992354
       4.870000       1.761758       1.522253       1.994960
       4.880000       1.767540       1.512821       1.998090
       4.890000       1.775482       1.507337       2.001650
       4.900000       1.785471       1.506602       2.005498
       4.910000       1.796983       1.510915       2.009437
       4.920000       1.809112       1.519812       2.013233
       4.930000       1.820751       1.532034       2.016636
       4.940000       1.830858       1.545672       2.019407
       4.950000       1.838712       1.558456       2.021350
       4.960000       1.844056       1.568107       2.022332
       4.970000       1.847097       1.572702       2.022308
       4.980000       1.848341       1.570983       2.021319
       4.990000       1.848332       1.562541       2.019488
       5.000000       1.847384       1.547802       2.016994
       5.010000       1.845380       1.527792       2.014051
       5.020000       1.841712       1.503759       2.010876
       5.030000       1.835368       1.476822       2.007679
       5.040000       1.825162       1.447800       2.004646
       5.050000       1.810076       1.417266       2.001948
       5.060000       1.789628       1.385738       1.999731
       5.070000       1.764157       1.353882       1.998119
       5.080000       1.734915       1.322619       1.997197
       5.090000       1.703914       1.293151       1.997000
       5.100000       1.673563       1.266921       1.997508
       5.110000       1.646191       1.245539       1.998651
       5.120000       1.623626       1.230631       2.000322
       5.130000       1.606933       1.223604       2.002397
       5.140000       1.596379       1.225360       2.004746
       5.150000       1.591592       1.236072       2.007252
       5.160000       1.591786       1.255106       2.009819
       5.170000       1.595973       1.281109       2.012386
       5.180000       1.603078       1.312220       2.014932
       5.190000       1.611990       1.346327       2.017478
       5.200000       1.621563       1.381309       2.020071
       5.210000       1.630603       1.415219       2.022769
       5.220000       1.637836       1.446396       2.025616
       5.230000       1.641883       1.473485       2.028625
       5.240000       1.641295       1.495386       2.031771
       5.250000       1.634700       1.511157       2.035006
       5.260000       1.621093       1.519954       2.038270
       5.270000       1.600179       1.521065       2.041511
       5.280000       1.572668       1.514080       2.044697
       5.290000       1.540368       1.499137       2.047814
       5.300000       1.506017       1.477125       2.050853
       5.310000       1.472868       1.449703       2.053795
       5.320000       1.444123       1.419097       2.056604
       5.330000       1.422389       1.387735       2.059228
       5.340000       1.409283       1.357854       2.061609
       5.350000       1.405283       1.331198       2.063706
       5.360000       1.409808       1.308841       2.065502
       5.370000       1.421473       1.291136       2.067017
       5.380000       1.438397       1.277781       2.068301
       5.390000       1.458510       1.267994       2.069425
       5.400000       1.479803       1.260758       2.070463
       5.410000       1.500529       1.255062       2.071481
       5.420000       1.519378       1.250086       2.072529
       5.430000       1.535629       1.245279       2.073638
       5.440000       1.549243       1.240357       2.074832
       5.450000       1.560836       1.235215       2.076131
       5.460000       1.571463       1.229794       2.077555
       5.470000       1.582258       1.223903       2.079131
       5.480000       1.594007       1.217054       2.080884
       5.490000       1.606829       1.208365       2.082831
       5.500000       1.620065       1.196620       2.084972
       5.510000       1.632409       1.180492       2.087280
       5.520000       1.642221       1.158904       2.089700
       5.530000       1.647935       1.131407       2.092155
       5.540000       1.648438       1.098476       2.094555
       5.550000       1.643334       1.061577       2.096816
       5.560000       1.632999       1.022945       2.098876
       5.570000       1.618421       0.985135       2.100716
       5.580000       1.600876       0.950470       2.102364
       5.590000       1.581535       0.920568       2.103896
       5.600000       1.561145       0.896099       2.105414
       5.610000       1.539897       0.876818       2.107020
       5.620000       1.517514       0.861810       2.108791
       5.630000       1.493557       0.849836       2.110765
       5.640000       1.467794       0.839641       2.112936
       5.650000       1.440473       0.830142       2.115274
       5.660000       1.412358       0.820503       2.117737
       5.670000       1.384495       0.810144       2.120298
       5.680000       1.357850       0.798770       2.122955
       5.690000       1.332982       0.786422       2.125730
       5.700000       1.309882       0.773501       2.128662
       5.710000       1.288002       0.760694       2.131786
       5.720000       1.266405       0.748775       2.135123
       5.730000       1.243961       0.738338       2.138664
       5.740000       1.219567       0.729608       2.142375
       5.750000       1.192371       0.722416       2.146195
       5.760000       1.161994       0.716378       2.150044
       5.770000       1.128671       0.711181       2.153838
       5.780000       1.093246       0.706818       2.157500
       5.790000       1.057007       0.703645       2.160978
       5.800000       1.021385       0.702227       2.164258
       5.810000       0.987641       0.703065       2.167364
       5.820000       0.956644       0.706334       2.170359
       5.830000       0.928804       0.711776       2.173320
       5.840000       0.904161       0.718752       2.176326
       5.850000       0.882555       0.726444       2.179434
       5.860000       0.863793       0.734091       2.182673
       5.870000       0.847770       0.741221       2.186045
       5.880000       0.834542       0.747799       2.189529
       5.890000       0.824360       0.754263       2.193084
       5.900000       0.817643       0.761442       2.196647
       5.910000       0.814905       0.770368       2.200138
       5.920000       0.816635       0.782049       2.203467
       5.930000       0.823175       0.797276       2.206549
       5.940000       0.834634       0.816506       2.209319
       5.950000       0.850850       0.839827       2.211745
       5.960000       0.871394       0.866981       2.213832
       5.970000       0.895599       0.897419       2.215616
       5.980000       0.922602       0.930360       2.217153
       5.990000       0.951381       0.964845       2.218503
       6.000000       0.980788       0.999792       2.219722
       6.010000       1.009576       1.034051       2.220856
       6.020000       1.036433       1.066482       2.221940
       6.030000       1.060059       1.096068       2.223001
       6.040000       1.079266       1.122036       2.224069
       6.050000       1.093136       1.143970       2.225174
       6.060000       1.101182       1.161871       2.226359
       6.070000       1.103501       1.176116       2.227671
       6.080000       1.100838       1.187356       2.229159
       6.090000       1.094532       1.196349       2.230862
       6.100000       1.086281       1.203813       2.232809
       6.110000       1.077804       1.210285       2.235016
       6.120000       1.070484       1.216046       2.237493
       6.130000       1.065141       1.221107       2.240253
       6.140000       1.061990       1.225282       2.243313
       6.150000       1.060786       1.228328       2.246694
       6.160000       1.061050       1.230089       2.250410
       6.170000       1.062278       1.230557       2.254461
       6.180000       1.064104       1.229844       2.258826
       6.190000       1.066379       1.228088       2.263463
       6.200000       1.069202       1.225362       2.268318
       6.210000       1.072874       1.221629       2.273329
       6.220000       1.077803       1.216749       2.278432
       6.230000       1.084370       1.210490       2.283555
       6.240000       1.092798       1.202543       2.288605
       6.250000       1.103084       1.192571       2.293469
       6.260000       1.115029       1.180313       2.298011
       6.270000       1.128359       1.165777       2.302088
       6.280000       1.142910       1.149446       2.305574
       6.290000       1.158768       1.132383       2.308380
       6.300000       1.176296       1.116159       2.310469
       6.310000       1.196009       1.102552       2.311853
       6.320000       1.218339       1.093111       2.312585
       6.330000       1.243388       1.088737       2.312740
       6.340000       1.270769       1.089411       2.312403
       6.350000       1.299555       1.094149       2.311669
       6.360000       1.328348       1.101163       2.310637
       6.370000       1.355404       1.108179       2.309411
       6.380000       1.378803       1.112809       2.308086
       6.390000       1.396619       1.112947       2.306747
       6.400000       1.407100       1.107112       2.305459
       6.410000       1.408819       1.094656       2.304269
       6.420000       1.400797       1.075802       2.303218
       6.430000       1.382573       1.051475       2.302338
       6.440000       1.354231       1.022991       2.301654
       6.450000       1.316399       0.991769       2.301192
       6.460000       1.270233       0.959153       2.300972
       6.470000       1.217362       0.926401       2.301019
       6.480000       1.159813       0.894777       2.301369
       6.490000       1.099893       0.865615       2.302078
       6.500000       1.040052       0.840299       2.303222
       6.510000       0.982731       0.820117       2.304890
       6.520000       0.930201       0.806080       2.307164
       6.530000       0.884415       0.798770       2.310103
       6.540000       0.846886       0.798291       2.313728
       6.550000       0.818611       0.804311       2.318009
       6.560000       0.800047       0.816181       2.322879
       6.570000       0.791125       0.833065       2.328240
       6.580000       0.791319       0.854044       2.333985
       6.590000       0.799732       0.878182       2.340005
       6.600000       0.815212       0.904538       2.346206
       6.610000       0.836470       0.932166       2.352507
       6.620000       0.862191       0.960121       2.358846
       6.630000       0.891120       0.987506       2.365176
       6.640000       0.922128       1.013544       2.371457
       6.650000       0.954231       1.037673       2.377649
       6.660000       0.986592       1.059596       2.383714
       6.670000       1.018503       1.079285       2.389605
       6.680000       1.049377       1.096907       2.395280
       6.690000       1.078751       1.112717       2.400693
       6.700000       1.106299       1.126967       2.405803
       6.710000       1.131849       1.139888       2.410562
       6.720000       1.155401       1.151759       2.414916
       6.730000       1.177125       1.162996       2.418798
       6.740000       1.197317       1.174194       2.422134
       6.750000       1.216326       1.186053       2.424849
       6.760000       1.234439       1.199221       2.426884
       6.770000       1.251802       1.214126       2.428209
       6.780000       1.268372       1.230875       2.428835
       6.790000       1.283946       1.249275       2.428821
       6.800000       1.298222       1.268951       2.428261
       6.810000       1.310913       1.289497       2.427282
       6.820000       1.321862       1.310602       2.426023
       6.830000       1.331140       1.332100       2.424627
       6.840000       1.339080       1.353929       2.423226
       6.850000       1.346208       1.376002       2.421939
       6.860000       1.353077       1.398057       2.420867
       6.870000       1.360059       1.419510       2.420098
       6.880000       1.367175       1.439400       2.419707
       6.890000       1.374046       1.456422       2.419759
       6.900000       1.379969       1.469082       2.420305
       6.910000       1.384099       1.475910       2.421374
       6.920000       1.385655       1.475707       2.422970
       6.930000       1.384084       1.467772       2.425084
       6.940000       1.379141       1.452025       2.427699
       6.950000       1.370873       1.429019       2.430816
       6.960000       1.359561       1.399804       2.434457
       6.970000       1.345659       1.365715       2.438658
       6.980000       1.329778       1.328165       2.443453
       6.990000       1.312690       1.288516       2.448857
       7.000000       1.295311       1.248007       2.454850
       7.010000       1.278624       1.207724       2.461384
       7.020000       1.263542       1.168565       2.468394
       7.030000       1.250782       1.131235       2.475800
       7.040000       1.240794       1.096309       2.483517
       7.050000       1.233755       1.064316       2.491452
       7.060000       1.229594       1.035801       2.499508
       7.070000       1.228039       1.011279       2.507582
       7.080000       1.228667       0.991126       2.515566
       7.090000       1.230986       0.975467       2.523357
       7.100000       1.234556       0.964161       2.530865
       7.110000       1.239116       0.956885       2.538032
       7.120000       1.244676       0.953274       2.544853
       7.130000       1.251508       0.953004       2.551376
       7.140000       1.260026       0.955780       2.557701
       7.150000       1.270574       0.961240       2.563946
       7.160000       1.283227       0.968870       2.570225
       7.170000       1.297683       0.978002       2.576611
       7.180000       1.313290       0.987920       2.583125
       7.190000       1.329203       0.998027       2.589736
       7.200000       1.344588       1.007993       2.596382
       7.210000       1.358818       1.017818       2.602993
       7.220000       1.371589       1.027782       2.609522
       7.230000       1.382937       1.038314       2.615970
       7.240000       1.393148       1.049817       2.622390
       7.250000       1.402638       1.062530       2.628896
       7.260000       1.411826       1.076481       2.635636
       7.270000       1.421081       1.091546       2.642771
       7.280000       1.430717       1.107574       2.650435
       7.290000       1.441045       1.124520       2.658708
       7.300000       1.452397       1.142517       2.667587
       7.310000       1.465099       1.161826       2.676988
       7.320000       1.479383       1.182684       2.686762
       7.330000       1.495287       1.205130       2.696729
       7.340000       1.512591       1.228863       2.706718
       7.350000       1.530815       1.253210       2.716595
       7.360000       1.549272       1.277198       2.726276
       7.370000       1.567131       1.299703       2.735715
       7.380000       1.583503       1.319637       2.744896
       7.390000       1.597527       1.336139       2.753808
       7.400000       1.608484       1.348731       2.762435
       7.410000       1.615913       1.357400       2.770757
       7.420000       1.619697       1.362580       2.778761
       7.430000       1.620094       1.365024       2.786451
       7.440000       1.617702       1.365627       2.793863
       7.450000       1.613348       1.365218       2.801072
       7.460000       1.607928       1.364402       2.808194
       7.470000       1.602240       1.363454       2.815379
       7.480000       1.596879       1.362333       2.822808
       7.490000       1.592231       1.360787       2.830680
       7.500000       1.588565       1.358540       2.839199
       7.510000       1.586140       1.355481       2.848552
       7.520000       1.585269       1.351777       2.858891
       7.530000       1.586263       1.347840       2.870322
       7.540000       1.589308       1.344170       2.882896
       7.550000       1.594338       1.341109       2.896608
       7.560000       1.600994       1.338636       2.911392
       7.570000       1.608682       1.336281       2.927132
       7.580000       1.616715       1.333204       2.943669
       7.590000       1.624470       1.328394       2.960822
       7.600000       1.631524       1.320948       2.978406
       7.610000       1.637755       1.310345       2.996250
       7.620000       1.643386       1.296653       3.014201
       7.630000       1.648984       1.280584       3.032125
       7.640000       1.655364       1.263390       3.049904
       7.650000       1.663417       1.246588       3.067433
       7.660000       1.673891       1.231629       3.084611
       7.670000       1.687191       1.219617       3.101347
       7.680000       1.703279       1.211158       3.117546
       7.690000       1.721670       1.206337       3.133091
       7.700000       1.741505       1.204764       3.147815
       7.710000       1.761644       1.205629       3.161465
       7.720000       1.780757       1.207768       3.173687
       7.730000       1.797408       1.209762       3.184030
       7.740000       1.810130       1.210099       3.192002
       7.750000       1.817522       1.207408       3.197148
       7.760000       1.818369       1.200720       3.199161
       7.770000       1.811803       1.189728       3.197962
       7.780000       1.797477       1.174930       3.193738
       7.790000       1.775688       1.157606       3.186907
       7.800000       1.747389       1.139581       3.178024
       7.810000       1.714077       1.122855       3.167658
       7.820000       1.677549       1.109186       3.156286
       7.830000       1.639602       1.099768       3.144225
       7.840000       1.601754       1.095068       3.131608
       7.850000       1.565054       1.094845       3.118414
       7.860000       1.530020       1.098309       3.104524
       7.870000       1.496666       1.104376       3.089790
       7.880000       1.464596       1.111946       3.074109
       7.890000       1.433126       1.120126       3.057473
       7.900000       1.401446       1.128354       3.039994
       7.910000       1.368784       1.136397       3.021907
       7.920000       1.334569       1.144246       3.003555
       7.930000       1.298564       1.151979       2.985360
       7.940000       1.260958       1.159683       2.967766
       7.950000       1.222399       1.167468       2.951182
       7.960000       1.183937       1.175524       2.935916
       7.970000       1.146873       1.184169       2.922152
       7.980000       1.112548       1.193821       2.909961
       7.990000       1.082150       1.204887       2.899347
       8.000000       1.056565       1.217615       2.890312
       8.010000       1.036300       1.231952       2.882896
       8.020000       1.021442       1.247464       2.877190
       8.030000       1.011662       1.263345       2.873321
       8.040000       1.006254       1.278528       2.871417
       8.050000       1.004201       1.291851       2.871574
       8.060000       1.004254       1.302233       2.873824
       8.070000       1.004985       1.308790       2.878110
       8.080000       1.004844       1.310853       2.884276
       8.090000       1.002194       1.307918       2.892082
       8.100000       0.995351       1.299545       2.901242
       8.110000       0.982640       1.285287       2.911451
       8.120000       0.962478       1.264672       2.922402
       8.130000       0.933517       1.237254       2.933783
       8.140000       0.894814       1.202698       2.945261
       8.150000       0.846004       1.160890       2.956479
       8.160000       0.787383       1.112028       2.967073
       8.170000       0.719891       1.056675       2.976688
       8.180000       0.645009       0.995775       2.985002
       8.190000       0.564630       0.930626       2.991753
       8.200000       0.480963       0.862815       2.996753
       8.210000       0.396435       0.794136       2.999924
       8.220000       0.313569       0.726462       3.001322
       8.230000       0.234771       0.661592       3.001157
       8.240000       0.162067       0.601068       2.999780
       8.250000       0.096840       0.546024       2.997655
       8.260000       0.039704       0.497075       2.995308
       8.270000      -0.009455       0.454296       2.993279
       8.280000      -0.051241       0.417295       2.992070
       8.290000      -0.086445       0.385370       2.992103
       8.300000      -0.115773       0.357729       2.993664
       8.310000      -0.139717       0.333682       2.996871
       8.320000      -0.158558       0.312763       3.001654
       8.330000      -0.172454       0.294736       3.007780
       8.340000      -0.181546       0.279512       3.014920
       8.350000      -0.186044       0.267039       3.022731
       8.360000      -0.186272       0.257213       3.030932
       8.370000      -0.182677       0.249863       3.039335
       8.380000      -0.175811       0.244785       3.047831
       8.390000      -0.166298       0.241808       3.056350
       8.400000      -0.154802       0.240816       3.064831
       8.410000      -0.142027       0.241704       3.073219
       8.420000      -0.128724       0.244293       3.081479
       8.430000      -0.115693       0.248254       3.089616
       8.440000      -0.103734       0.253114       3.097651
       8.450000      -0.093564       0.258359       3.105586
       8.460000      -0.085689       0.263578       3.113362
       8.470000      -0.080308       0.268618       3.120836
       8.480000      -0.077269       0.273657       3.127792
       8.490000      -0.076110       0.279177       3.133962
       8.500000      -0.076172       0.285817       3.139056
       8.510000      -0.076734       0.294170       3.142767
       8.520000      -0.077135       0.304596       3.144772
       8.530000      -0.076857       0.317112       3.144752
       8.540000      -0.075577       0.331392       3.142451
       8.550000      -0.073188       0.346862       3.137771
       8.560000      -0.069794       0.362813       3.130862
       8.570000      -0.065688       0.378512       3.122151
       8.580000      -0.061304       0.393254       3.112284
       8.590000      -0.057160       0.406376       3.101989
       8.600000      -0.053785       0.417255       3.091909
       8.610000      -0.051624       0.425343       3.082484
       8.620000      -0.050923       0.430260       3.073924
       8.630000      -0.051617       0.431933       3.066250
       8.640000      -0.053276       0.430711       3.059391
       8.650000      -0.055156       0.427379       3.053284
       8.660000      -0.056357       0.423032       3.047939
       8.670000      -0.056036       0.418852       3.043464
       8.680000      -0.053597       0.415873       3.040056
       8.690000      -0.048790       0.414813       3.037949
       8.700000      -0.041709       0.416022       3.037357
       8.710000      -0.032705       0.419525       3.038421
       8.720000      -0.022243       0.425138       3.041199
       8.730000      -0.010760       0.432594       3.045693
       8.740000       0.001428       0.441644       3.051895
       8.750000       0.014162       0.452102       3.059827
       8.760000       0.027385       0.463833       3.069525
       8.770000       0.041062       0.476701       3.080982
       8.780000       0.055084       0.490509       3.094072
       8.790000       0.069219       0.504957       3.108477
       8.800000       0.083123       0.519630       3.123676
       8.810000       0.096385       0.534044       3.138997
       8.820000       0.108609       0.547702       3.153738
       8.830000       0.119472       0.560173       3.167331
       8.840000       0.128763       0.571125       3.179511
       8.850000       0.136382       0.580332       3.190444
       8.860000       0.142310       0.587657       3.200779
       8.870000       0.146570       0.593043       3.211565
       8.880000       0.149204       0.596529       3.224061
       8.890000       0.150265       0.598267       3.239472
       8.900000       0.149847       0.598521       3.258692
       8.910000       0.148121       0.597645       3.282139
       8.920000       0.145364       0.596042       3.309717
       8.930000       0.141959       0.594140       3.340878
       8.940000       0.138348       0.592362       3.374784
       8.950000       0.134954       0.591096       3.410485
       8.960000       0.132104       0.590659       3.447107
       8.970000       0.129991       0.591251       3.483987
       8.980000       0.128689       0.592948       3.520752
       8.990000       0.128229       0.595745       3.557324
       9.000000       0.128671       0.599615       3.593857
       9.010000       0.130147       0.604571       3.630610
       9.020000       0.132832       0.610664       3.667793
       9.030000       0.136893       0.617939       3.705409
       9.040000       0.142432       0.626386       3.743119
       9.050000       0.149473       0.635927       3.780131
       9.060000       0.157970       0.646450       3.815114
       9.070000       0.167836       0.657873       3.846118
       9.080000       0.178957       0.670194       3.870497
       9.090000       0.191189       0.683487       3.884861
       9.100000       0.204344       0.697855       3.885134
       9.110000       0.218181       0.713355       3.866783
       9.120000       0.232396       0.729938       3.825286
       9.130000       0.246641       0.747414       3.756814
       9.140000       0.260543       0.765464       3.659010
       9.150000       0.273740       0.783690       3.531673
       9.160000       0.285911       0.801684       3.377106
       9.170000       0.296804       0.819117       3.200020
       9.180000       0.306278       0.835824       3.006976
       9.190000       0.314330       0.851855       2.805555
       9.200000       0.321115       0.867490       2.603444
       9.210000       0.326935       0.883192       2.407626
       9.220000       0.332191       0.899509       2.223755
       9.230000       0.337310       0.916965       2.055767
       9.240000       0.342672       0.935963       1.905737
       9.250000       0.348568       0.956733       1.773995
       9.260000       0.355181       0.979331       1.659449
       9.270000       0.362610       1.003656       1.560020
       9.280000       0.370874       1.029492       1.473076
       9.290000       0.379930       1.056527       1.395861
       9.300000       0.389656       1.084383       1.325910
       9.310000       0.399829       1.112649       1.261410
       9.320000       0.410094       1.140920       1.201410
       9.330000       0.419957       1.168840       1.145761
       9.340000       0.428816       1.196139       1.094810
       9.350000       0.436034       1.222664       1.048948
       9.360000       0.441053       1.248378       1.008233
       9.370000       0.443487       1.273344       0.972219
       9.380000       0.443200       1.297687       0.940041
       9.390000       0.440320       1.321557       0.910713
       9.400000       0.435211       1.345105       0.883510
       9.410000       0.428400       1.368484       0.858282
       9.420000       0.420491       1.391873       0.835580
       9.430000       0.412082       1.415485       0.816512
       9.440000       0.403681       1.439547       0.802391
       9.450000       0.395647       1.464240       0.794303
       9.460000       0.388163       1.489623       0.792749
       9.470000       0.381259       1.515578       0.797467
       9.480000       0.374888       1.541824       0.807457
       9.490000       0.369047       1.567978       0.821200
       9.500000       0.363877       1.593643       0.836996
       9.510000       0.359689       1.618465       0.853344
       9.520000       0.356902       1.642125       0.869265
       9.530000       0.355900       1.664291       0.884489
       9.540000       0.356894       1.684534       0.899419
       9.550000       0.359838       1.702289       0.914891
       9.560000       0.364449       1.716850       0.931809
       9.570000       0.370291       1.727432       0.950782
       9.580000       0.376897       1.733246       0.971893
       9.590000       0.383867       1.733565       0.994629
       9.600000       0.390938       1.727747       1.017979
       9.610000       0.398008       1.715195       1.040623
       9.620000       0.405123       1.695307       1.061136
       9.630000       0.412461       1.667473       1.078176
       9.640000       0.420285       1.631161       1.090617
       9.650000       0.428885       1.586104       1.097655
       9.660000       0.438505       1.532505       1.098912
       9.670000       0.449275       1.471185       1.094532
       9.680000       0.461185       1.403590       1.085230
       9.690000       0.474078       1.331632       1.072248
       9.700000       0.487695       1.257414       1.057189
       9.710000       0.501730       1.182913       1.041755
       9.720000       0.515885       1.109765       1.027463
       9.730000       0.529932       1.039175       1.015400
       9.740000       0.543751       0.971926       1.006110
       9.750000       0.557343       0.908399       0.999611
       9.760000       0.570800       0.848525       0.995531
       9.770000       0.584244       0.791699       0.993322
       9.780000       0.597753       0.736774       0.992492
       9.790000       0.611307       0.682222       0.992791
       9.800000       0.624773       0.626484       0.994318
       9.810000       0.637936       0.568436       0.997516
       9.820000       0.650552       0.507820       1.003060
       9.830000       0.662411       0.445487       1.011701
       9.840000       0.673382       0.383337       1.024097
       9.850000       0.683437       0.323970       1.040678
       9.860000       0.692651       0.270158       1.061568
       9.870000       0.701165       0.224292       1.086549
       9.880000       0.709139       0.187950       1.115083
       9.890000       0.716697       0.161663       1.146376
       9.900000       0.723886       0.144875       1.179492
       9.910000       0.730660       0.136078       1.213492
       9.920000       0.736889       0.133052       1.247573
       9.930000       0.742376       0.133148       1.281167
       9.940000       0.746885       0.133590       1.313957
       9.950000       0.750161       0.131777       1.345821
       9.960000       0.751966       0.125573       1.376706
       9.970000       0.752132       0.113574       1.406507
       9.980000       0.750620       0.095290       1.434973
       9.990000       0.747572       0.071175       1.461683
      10.000000       0.743311       0.042466       1.486096
      10.010000       0.738302       0.010873       1.507657
      10.020000       0.733059      -0.021802       1.525932
      10.030000       0.728053      -0.053995       1.540730
      10.040000       0.723645      -0.084587       1.552165
      10.050000       0.720063      -0.112945       1.560634
      10.060000       0.717416      -0.138787       1.566681
      10.070000       0.715718      -0.161932       1.570803
      10.080000       0.714923      -0.182008       1.573242
      10.090000       0.714947      -0.198255       1.573866
      10.100000       0.715707      -0.209532       1.572166
      10.110000       0.717153      -0.214530       1.567381
      10.120000       0.719288      -0.212119       1.558693
      10.130000       0.722164      -0.201662       1.545422
      10.140000       0.725846      -0.183177       1.527177
      10.150000       0.730374      -0.157315       1.503923
      10.160000       0.735724      -0.125217       1.475969
      10.170000       0.741799      -0.088317       1.443891
      10.180000       0.748433      -0.048166       1.408417
      10.190000       0.755417      -0.006306       1.370346
      10.200000       0.762533       0.035797       1.330497
      10.210000       0.769581       0.076788       1.289709
      10.220000       0.776412       0.115443       1.248856
      10.230000       0.782949       0.150698       1.208828
      10.240000       0.789191       0.181707       1.170486
      10.250000       0.795205       0.207909       1.134600
      10.260000       0.801102       0.229095       1.101814
      10.270000       0.807000       0.245421       1.072618
      10.280000       0.812993       0.257353       1.047330
      10.290000       0.819136       0.265532       1.026026
      10.300000       0.825435       0.270583       1.008454
      10.310000       0.831857       0.272946       0.993950
      10.320000       0.838349       0.272765       0.981441
      10.330000       0.844866       0.269898       0.969526
      10.340000       0.851409       0.264023       0.956647
      10.350000       0.858059       0.254823       0.941315
      10.360000       0.864970       0.242160       0.922359
      10.370000       0.872334       0.226157       0.899158
      10.380000       0.880300       0.207161       0.871779
      10.390000       0.888905       0.185607       0.840981
      10.400000       0.898043       0.161883       0.808068
      10.410000       0.907486       0.136284       0.774627
      10.420000       0.916951       0.109105       0.742241
      10.430000       0.926191       0.080799       0.712264
      10.440000       0.935067       0.052107       0.685710
      10.450000       0.943563       0.024029       0.663238
      10.460000       0.951746      -0.002353       0.645196
      10.470000       0.959678      -0.026138       0.631654
      10.480000       0.967322      -0.046803       0.622419
      10.490000       0.974490      -0.064257       0.617033
      10.500000       0.980853      -0.078732       0.614791
      10.510000       0.986009      -0.090588       0.614779
      10.520000       0.989595      -0.100106       0.615956
      10.530000       0.991395      -0.107389       0.617256
      10.540000       0.991411      -0.112374       0.617699
      10.550000       0.989871      -0.114966       0.616488
      10.560000       0.987164      -0.115198       0.613077
      10.570000       0.983734      -0.113325       0.607217
      10.580000       0.979951      -0.109832       0.598974
      10.590000       0.976024      -0.105335       0.588726
      10.600000       0.971952      -0.100470       0.577120
      10.610000       0.967529      -0.095795       0.564998
      10.620000       0.962396      -0.091731       0.553281
      10.630000       0.956126      -0.088525       0.542845
      10.640000       0.948341      -0.086205       0.534415
      10.650000       0.938831      -0.084539       0.528516
      10.660000       0.927657      -0.083031       0.525470
      10.670000       0.915193      -0.080991       0.525437
      10.680000       0.902088      -0.077682       0.528450
      10.690000       0.889136      -0.072481       0.534458
      10.700000       0.877103      -0.065000       0.543347
      10.710000       0.866577      -0.055101       0.554960
      10.720000       0.857910      -0.042840       0.569102
      10.730000       0.851255      -0.028373       0.585524
      10.740000       0.846670      -0.011888       0.603901
      10.750000       0.844197       0.006402       0.623830
      10.760000       0.843891       0.026243       0.644872
      10.770000       0.845791       0.047290       0.666629
      10.780000       0.849851       0.069087       0.688812
      10.790000       0.855907       0.091063       0.711270
      10.800000       0.863662       0.112559       0.733953
      10.810000       0.872723       0.132873       0.756851
      10.820000       0.882653       0.151330       0.779936
      10.830000       0.893027       0.167355       0.803154
      10.840000       0.903480       0.180557       0.826447
      10.850000       0.913724       0.190779       0.849794
      10.860000       0.923542       0.198126       0.873248
      10.870000       0.932757       0.202947       0.896927
      10.880000       0.941186       0.205766       0.920983
      10.890000       0.948604       0.207185       0.945554
      10.900000       0.954733       0.207774       0.970710
      10.910000       0.959251       0.207973       0.996413
      10.920000       0.961814       0.208044       1.022487
      10.930000       0.962105       0.208075       1.048609
      10.940000       0.959883       0.208022       1.074316
      10.950000       0.955060       0.207775       1.099042
      10.960000       0.947766       0.207195       1.122146
      10.970000       0.938383       0.206123       1.142947
      10.980000       0.927509       0.204340       1.160758
      10.990000       0.915870       0.201536       1.174923
      11.000000       0.904221       0.197322       1.184866
      11.010000       0.893266       0.191300       1.190136
      11.020000       0.883606       0.183172       1.190460
      11.030000       0.875708       0.172843       1.185774
      11.040000       0.869860       0.160464       1.176251
      11.050000       0.866128       0.146398       1.162266
      11.060000       0.864349       0.131121       1.144297
      11.070000       0.864176       0.115090       1.122743
      11.080000       0.865173       0.098635       1.097718
      11.090000       0.866923       0.081906       1.068878
      11.100000       0.869094       0.064932       1.035357
      11.110000       0.871465       0.047760       0.995859
      11.120000       0.873922       0.030637       0.948876
      11.130000       0.876454       0.014126       0.892994
      11.140000       0.879163      -0.000906       0.827199
      11.150000       0.882269      -0.013432       0.751126
      11.160000       0.886076      -0.022500       0.665228
      11.170000       0.890907      -0.027432       0.570807
      11.180000       0.897012      -0.027948       0.469916
      11.190000       0.904510      -0.024172       0.365117
      11.200000       0.913374      -0.016576       0.259149
      11.210000       0.923455      -0.005899       0.154585
      11.220000       0.934515       0.006937       0.053583
      11.230000       0.946240       0.020900      -0.042225
      11.240000       0.958244       0.034943      -0.131703
      11.250000       0.970085       0.048096      -0.214099
      11.260000       0.981307       0.059572      -0.288900
      11.270000       0.991506       0.068853      -0.355704
      11.280000       1.000397       0.075738      -0.414150
      11.290000       1.007846       0.080338      -0.463915
      11.300000       1.013860       0.083019      -0.504755
      11.310000       1.018546       0.084331      -0.536583
      11.320000       1.022055       0.084943      -0.559529
      11.330000       1.024522       0.085594      -0.573978
      11.340000       1.026020       0.087052      -0.580589
      11.350000       1.026528       0.090046      -0.580294
      11.360000       1.025909       0.095185      -0.574255
      11.370000       1.023926       0.102875      -0.563796
      11.380000       1.020259       0.113277      -0.550286
      11.390000       1.014550       0.126306      -0.535021
      11.400000       1.006462       0.141689      -0.519116
      11.410000       0.995767       0.159034      -0.503421
      11.420000       0.982441       0.177913      -0.488492
      11.430000       0.966758       0.197925      -0.474588
      11.440000       0.949324       0.218739      -0.461717
      11.450000       0.931046       0.240106      -0.449706
      11.460000       0.913022       0.261848      -0.438281
      11.470000       0.896367       0.283834      -0.427147
      11.480000       0.882036       0.305957      -0.416049
      11.490000       0.870677       0.328115      -0.404821
      11.500000       0.862590       0.350214      -0.393412
      11.510000       0.857757       0.372174      -0.381908
      11.520000       0.855955       0.393952      -0.370499
      11.530000       0.856887       0.415545      -0.359415
      11.540000       0.860283       0.436992      -0.348823
      11.550000       0.865965       0.458346      -0.338738
      11.560000       0.873856       0.479641      -0.328988
      11.570000       0.883930       0.500864      -0.319269
      11.580000       0.896153       0.521938      -0.309262
      11.590000       0.910396       0.542736      -0.298777
      11.600000       0.926378       0.563104      -0.287841
      11.610000       0.943634       0.582901      -0.276695
      11.620000       0.961532       0.602017      -0.265695
      11.630000       0.979323       0.620367      -0.255184
      11.640000       0.996221       0.637854      -0.245383
      11.650000       1.011493       0.654314      -0.236361
      11.660000       1.024533       0.669473      -0.228079
      11.670000       1.034939       0.682920      -0.220487
      11.680000       1.042558       0.694120      -0.213633
      11.690000       1.047518       0.702447      -0.207735
      11.700000       1.050222       0.707234      -0.203191
      11.710000       1.051304       0.707833      -0.200527
      11.720000       1.051533       0.703678      -0.200275
      11.730000       1.051686       0.694339      -0.202836
      11.740000       1.052419       0.679557      -0.208345
      11.750000       1.054183       0.659262      -0.216610
      11.760000       1.057213       0.633582      -0.227125
      11.770000       1.061563       0.602880      -0.239173
      11.780000       1.067170       0.567789      -0.251980
      11.790000       1.073916       0.529245      -0.264867
      11.800000       1.081657       0.488457      -0.277374
      11.810000       1.090219       0.446799      -0.289304
      11.820000       1.099376       0.405659      -0.300699
      11.830000       1.108811       0.366292      -0.311773
      11.840000       1.118088       0.329706      -0.322809
      11.850000       1.126644       0.296585      -0.334087
      11.860000       1.133804       0.267258      -0.345821
      11.870000       1.138825       0.241703      -0.358133
      11.880000       1.140965       0.219604      -0.371047
      11.890000       1.139553       0.200448      -0.384482
      11.900000       1.134049       0.183640      -0.398264
      11.910000       1.124078       0.168605      -0.412148
      11.920000       1.109428       0.154840      -0.425871
      11.930000       1.090045       0.141901      -0.439210
      11.940000       1.066021       0.129374      -0.452018
      11.950000       1.037583       0.116852      -0.464212
      11.960000       1.005079       0.103971      -0.475709
      11.970000       0.968940       0.090483      -0.486353
      11.980000       0.929664       0.076346      -0.495887
      11.990000       0.887801       0.061772      -0.503969
      12.000000       0.843956       0.047199      -0.510243
      12.010000       0.798779       0.033196      -0.514411
      12.020000       0.752913       0.020321      -0.516284
      12.030000       0.706914       0.008990      -0.515790
      12.040000       0.661162      -0.000609      -0.512957
      12.050000       0.615814      -0.008529      -0.507899
      12.060000       0.570829      -0.015005      -0.500805
      12.070000       0.526059      -0.020366      -0.491938
      12.080000       0.481373      -0.024956      -0.481629
      12.090000       0.436783      -0.029084      -0.470276
      12.100000       0.392544      -0.032990      -0.458324
      12.110000       0.349234      -0.036824      -0.446243
      12.120000       0.307785      -0.040622      -0.434489
      12.130000       0.269467      -0.044284      -0.423468
      12.140000       0.235744      -0.047601      -0.413486
      12.150000       0.208050      -0.050314      -0.404733
      12.160000       0.187505      -0.052205      -0.397269
      12.170000       0.174698      -0.053175      -0.391041
      12.180000       0.169596      -0.053269      -0.385907
      12.190000       0.171618      -0.052647      -0.381664
      12.200000       0.179819      -0.051513      -0.378073
      12.210000       0.193105      -0.050038      -0.374879
      12.220000       0.210413      -0.048306      -0.371837
      12.230000       0.230818      -0.046308      -0.368738
      12.240000       0.253564      -0.043965      -0.365432
      12.250000       0.278045      -0.041161      -0.361845
      12.260000       0.303777      -0.037779      -0.357969
      12.270000       0.330359      -0.033718      -0.353847
      12.280000       0.357442      -0.028900      -0.349539
      12.290000       0.384683      -0.023280      -0.345102
      12.300000       0.411690      -0.016847      -0.340569
      12.310000       0.437970      -0.009630      -0.335948
      12.320000       0.462897      -0.001709      -0.331220
      12.330000       0.485708       0.006781      -0.326344
      12.340000       0.505535       0.015630      -0.321264
      12.350000       0.521459       0.024567      -0.315938
      12.360000       0.532584       0.033281      -0.310353
      12.370000       0.538124       0.041483      -0.304544
      12.380000       0.537483       0.048975      -0.298579
      12.390000       0.530318       0.055703      -0.292518
      12.400000       0.516562       0.061772      -0.286374
      12.410000       0.496430       0.067417      -0.280076
      12.420000       0.470415       0.072924      -0.273480
      12.430000       0.439320       0.078539      -0.266406
      12.440000       0.404304       0.084403      -0.258705
      12.450000       0.366906       0.090526      -0.250316
      12.460000       0.329004       0.096811      -0.241292
      12.470000       0.292651       0.103112      -0.231797
      12.480000       0.259824       0.109289      -0.222052
      12.490000       0.232135       0.115248      -0.212288
      12.500000       0.210609       0.120949      -0.202700
      12.510000       0.195580       0.126379      -0.193424
      12.520000       0.186742       0.131518      -0.184535
      12.530000       0.183289       0.136309      -0.176052
      12.540000       0.184098       0.140655      -0.167944
      12.550000       0.187912       0.144445      -0.160129
      12.560000       0.193494       0.147583      -0.152475
      12.570000       0.199769       0.150025      -0.144819
      12.580000       0.205939       0.151801      -0.137004
      12.590000       0.211565       0.153024      -0.128912
      12.600000       0.216576       0.153894      -0.120491
      12.610000       0.221211       0.154675      -0.111746
      12.620000       0.225906       0.155665      -0.102711
      12.630000       0.231176       0.157140      -0.093409
      12.640000       0.237525       0.159305      -0.083825
      12.650000       0.245386       0.162255      -0.073902
      12.660000       0.255084       0.165963      -0.063557
      12.670000       0.266807       0.170300      -0.052711
      12.680000       0.280584       0.175083      -0.041322
      12.690000       0.296290       0.180124      -0.029407
      12.700000       0.313676       0.185278      -0.017052
      12.710000       0.332421       0.190461      -0.004399
      12.720000       0.352174       0.195639       0.008369
      12.730000       0.372599       0.200803       0.021042
      12.740000       0.393385       0.205932       0.033399
      12.750000       0.414262       0.210983       0.045211
      12.760000       0.434982       0.215891       0.056257
      12.770000       0.455315       0.220589       0.066343
      12.780000       0.475027       0.225035       0.075332
      12.790000       0.493873       0.229219       0.083162
      12.800000       0.511603       0.233159       0.089848
      12.810000       0.527979       0.236892       0.095461
      12.820000       0.542799       0.240456       0.100092
      12.830000       0.555909       0.243886       0.103816
      12.840000       0.567192       0.247224       0.106676
      12.850000       0.576522       0.250528       0.108694
      12.860000       0.583706       0.253881       0.109906
      12.870000       0.588428       0.257380       0.110400
      12.880000       0.590227       0.261124       0.110353
      12.890000       0.588511       0.265184       0.110048
      12.900000       0.582638       0.269586       0.109858
      12.910000       0.572029       0.274308       0.110193
      12.920000       0.556309       0.279292       0.111435
      12.930000       0.535456       0.284469       0.113848
      12.940000       0.509926       0.289777       0.117531
      12.950000       0.480719       0.295167       0.122392
      12.960000       0.449366       0.300611       0.128176
      12.970000       0.417802       0.306105       0.134512
      12.980000       0.388125       0.311670       0.140984
      12.990000       0.362291       0.317359       0.147199
      13.000000       0.341829       0.323244       0.152839
      13.010000       0.327643       0.329401       0.157694
      13.020000       0.319963       0.335881       0.161671
      13.030000       0.318428       0.342697       0.164783
      13.040000       0.322248       0.349822       0.167116
      13.050000       0.330392       0.357201       0.168783
      13.060000       0.341767       0.364774       0.169878
      13.070000       0.355338       0.372483       0.170448
      13.080000       0.370216       0.380282       0.170488
      13.090000       0.385691       0.388123       0.169971
      13.100000       0.401231       0.395956       0.168891
      13.110000       0.416452       0.403721       0.167306
      13.120000       0.431079       0.411357       0.165353
      13.130000       0.444910       0.418821       0.163241
      13.140000       0.457792       0.426097       0.161228
      13.150000       0.469614       0.433213       0.159588
      13.160000       0.480326       0.440239       0.158573
      13.170000       0.489967       0.447283       0.158389
      13.180000       0.498703       0.454470       0.159157
      13.190000       0.506840       0.461920       0.160901
      13.200000       0.514806       0.469716       0.163539
      13.210000       0.523077       0.477876       0.166900
      13.220000       0.532072       0.486330       0.170748
      13.230000       0.542052       0.494921       0.174823
      13.240000       0.553051       0.503409       0.178879
      13.250000       0.564863       0.511493       0.182714
      13.260000       0.577085       0.518830       0.186189
      13.270000       0.589174       0.525062       0.189221
      13.280000       0.600515       0.529851       0.191774
      13.290000       0.610461       0.532902       0.193838
      13.300000       0.618373       0.533994       0.195439
      13.310000       0.623650       0.532994       0.196646
      13.320000       0.625802       0.529871       0.197594
      13.330000       0.624545       0.524701       0.198486
      13.340000       0.619897       0.517670       0.199582
      13.350000       0.612251       0.509068       0.201158
      13.360000       0.602347       0.499264       0.203469
      13.370000       0.591156       0.488654       0.206705
      13.380000       0.579680       0.477592       0.210967
      13.390000       0.568750       0.466333       0.216255
      13.400000       0.558885       0.454995       0.222485
      13.410000       0.550253       0.443576       0.229513
      13.420000       0.542724       0.432004       0.237172
      13.430000       0.535992       0.420213       0.245309
      13.440000       0.529697       0.408201       0.253800
      13.450000       0.523512       0.396068       0.262555
      13.460000       0.517181       0.384009       0.271501
      13.470000       0.510506       0.372278       0.280572
      13.480000       0.503316       0.361140       0.289692
      13.490000       0.495436       0.350827       0.298774
      13.500000       0.486671       0.341514       0.307715
      13.510000       0.476805       0.333307       0.316385
      13.520000       0.465618       0.326255       0.324634
      13.530000       0.452902       0.320367       0.332285
      13.540000       0.438510       0.315642       0.339150
      13.550000       0.422424       0.312084       0.345038
      13.560000       0.404839       0.309721       0.349783
      13.570000       0.386234       0.308599       0.353260
      13.580000       0.367370       0.308764       0.355415
      13.590000       0.349205       0.310237       0.356294
      13.600000       0.332721       0.312985       0.356059
      13.610000       0.318727       0.316910       0.354999
      13.620000       0.307683       0.321841       0.353499
      13.630000       0.299629       0.327547       0.351986
      13.640000       0.294214       0.333747       0.350845
      13.650000       0.290813       0.340130       0.350351
      13.660000       0.288687       0.346370       0.350633
      13.670000       0.287132       0.352153       0.351678
      13.680000       0.285599       0.357197       0.353379
      13.690000       0.283751       0.361278       0.355593
      13.700000       0.281468       0.364256       0.358191
      13.710000       0.278789       0.366077       0.361087
      13.720000       0.275837       0.366777       0.364238
      13.730000       0.272743       0.366461       0.367615
      13.740000       0.269611       0.365286       0.371175
      13.750000       0.266516       0.363447       0.374827
      13.760000       0.263542       0.361166       0.378433
      13.770000       0.260810       0.358687       0.381818
      13.780000       0.258503       0.356260       0.384798
      13.790000       0.256855       0.354119       0.387206
      13.800000       0.256135       0.352464       0.388907
      13.810000       0.256620       0.351444       0.389815
      13.820000       0.258561       0.351150       0.389896
      13.830000       0.262144       0.351613       0.389173
      13.840000       0.267445       0.352802       0.387726
      13.850000       0.274410       0.354635       0.385691
      13.860000       0.282844       0.356988       0.383258
      13.870000       0.292441       0.359706       0.380665
      13.880000       0.302819       0.362621       0.378195
      13.890000       0.313568       0.365577       0.376160
      13.900000       0.324304       0.368468       0.374869
      13.910000       0.334711       0.371270       0.374587
      13.920000       0.344585       0.374069       0.375502
      13.930000       0.353843       0.377044       0.377697
      13.940000       0.362521       0.380433       0.381156
      13.950000       0.370738       0.384455       0.385777
      13.960000       0.378655       0.389245       0.391402
      13.970000       0.386426       0.394798       0.397835
      13.980000       0.394182       0.400952       0.404860
      13.990000       0.402011       0.407407       0.412258
      14.000000       0.409953       0.413762       0.419814
      14.010000       0.417988       0.419564       0.427337
      14.020000       0.426033       0.424368       0.434669
      14.030000       0.433937       0.427794       0.441703
      14.040000       0.441498       0.429579       0.448382
      14.050000       0.448504       0.429621       0.454695
      14.060000       0.454775       0.427994       0.460659
      14.070000       0.460222       0.424937       0.466297
      14.080000       0.464873       0.420807       0.471623
      14.090000       0.468865       0.416024       0.476633
      14.100000       0.472411       0.410995       0.481314
      14.110000       0.475740       0.406052       0.485666
      14.120000       0.479041       0.401412       0.489722
      14.130000       0.482429       0.397163       0.493561
      14.140000       0.485912       0.393290       0.497302
      14.150000       0.489384       0.389709       0.501083
      14.160000       0.492609       0.386316       0.505032
      14.170000       0.495228       0.383013       0.509246
      14.180000       0.496781       0.379733       0.513776
      14.190000       0.496746       0.376444       0.518635
      14.200000       0.494596       0.373152       0.523808
      14.210000       0.489850       0.369898       0.529259
      14.220000       0.482116       0.366757       0.534941
      14.230000       0.471124       0.363835       0.540789
      14.240000       0.456755       0.361274       0.546725
      14.250000       0.439089       0.359242       0.552655
      14.260000       0.418454       0.357924       0.558475
      14.270000       0.395475       0.357501       0.564079
      14.280000       0.371072       0.358128       0.569375
      14.290000       0.346370       0.359914       0.574300
      14.300000       0.322535       0.362914       0.578824
      14.310000       0.300571       0.367107       0.582962
      14.320000       0.281144       0.372399       0.586765
      14.330000       0.264515       0.378617       0.590303
      14.340000       0.250575       0.385530       0.593654
      14.350000       0.238977       0.392871       0.596870
      14.360000       0.229315       0.400370       0.599960
      14.370000       0.221287       0.407780       0.602885
      14.380000       0.214801       0.414901       0.605557
      14.390000       0.209977       0.421587       0.607857
      14.400000       0.207073       0.427742       0.609651
      14.410000       0.206348       0.433313       0.610818
      14.420000       0.207948       0.438271       0.611252
      14.430000       0.211831       0.442604       0.610877
      14.440000       0.217765       0.446317       0.609655
      14.450000       0.225365       0.449432       0.607597
      14.460000       0.234160       0.451999       0.604773
      14.470000       0.243660       0.454098       0.601317
      14.480000       0.253416       0.455843       0.597423
      14.490000       0.263058       0.457382       0.593323
      14.500000       0.272327       0.458887       0.589258
      14.510000       0.281080       0.460540       0.585450
      14.520000       0.289286       0.462508       0.582062
      14.530000       0.297007       0.464914       0.579173
      14.540000       0.304383       0.467823       0.576766
      14.550000       0.311597       0.471232       0.574746
      14.560000       0.318858       0.475080       0.572965
      14.570000       0.326363       0.479257       0.571272
      14.580000       0.334265       0.483621       0.569542
      14.590000       0.342651       0.488005       0.567695
      14.600000       0.351519       0.492235       0.565691
      14.610000       0.360793       0.496144       0.563508
      14.620000       0.370342       0.499589       0.561111
      14.630000       0.380006       0.502472       0.558424
      14.640000       0.389627       0.504747       0.555319
      14.650000       0.399050       0.506425       0.551628
      14.660000       0.408127       0.507567       0.547170
      14.670000       0.416702       0.508262       0.541802
      14.680000       0.424609       0.508622       0.535452
      14.690000       0.431670       0.508761       0.528138
      14.700000       0.437706       0.508799       0.519961
      14.710000       0.442559       0.508854       0.511082
      14.720000       0.446117       0.509043       0.501705
      14.730000       0.448333       0.509477       0.492059
      14.740000       0.449229       0.510254       0.482390
      14.750000       0.448889       0.511453       0.472952
      14.760000       0.447438       0.513143       0.463978
      14.770000       0.445030       0.515382       0.455665
      14.780000       0.441834       0.518219       0.448153
      14.790000       0.438043       0.521689       0.441526
      14.800000       0.433869       0.525807       0.435833
      14.810000       0.429546       0.530556       0.431096
      14.820000       0.425313       0.535885       0.427328
      14.830000       0.421387       0.541712       0.424542
      14.840000       0.417937       0.547929       0.422755
      14.850000       0.415077       0.554405       0.421976
      14.860000       0.412872       0.560999       0.422202
      14.870000       0.411363       0.567560       0.423397
      14.880000       0.410595       0.573935       0.425483
      14.890000       0.410628       0.579976       0.428340
      14.900000       0.411519       0.585546       0.431817
      14.910000       0.413284       0.590529       0.435750
      14.920000       0.415849       0.594846       0.439995
      14.930000       0.419021       0.598464       0.444441
      14.940000       0.422496       0.601409       0.449027
      14.950000       0.425899       0.603765       0.453736
      14.960000       0.428844       0.605674       0.458584
      14.970000       0.430994       0.607317       0.463613
      14.980000       0.432113       0.608896       0.468872
      14.990000       0.432089       0.610608       0.474419
      15.000000       0.430951       0.612612       0.480305
      15.010000       0.428866       0.615001       0.486567
      15.020000       0.426124       0.617778       0.493216
      15.030000       0.423112       0.620856       0.500224
      15.040000       0.420279       0.624076       0.507527
      15.050000       0.418080       0.627234       0.515027
      15.060000       0.416916       0.630117       0.522609
      15.070000       0.417073       0.632534       0.530160
      15.080000       0.418675       0.634331       0.537592
      15.090000       0.421653       0.635402       0.544856
      15.100000       0.425750       0.635687       0.551946
      15.110000       0.430557       0.635161       0.558899
      15.120000       0.435565       0.633832       0.565779
      15.130000       0.440227       0.631726       0.572663
      15.140000       0.444024       0.628899       0.579609
      15.150000       0.446530       0.625435       0.586642
      15.160000       0.447448       0.621456       0.593740
      15.170000       0.446646       0.617127       0.600834
      15.180000       0.444153       0.612640       0.607823
      15.190000       0.440137       0.608202       0.614595
      15.200000       0.434875       0.604002       0.621046
      15.210000       0.428709       0.600194       0.627089
      15.220000       0.422012       0.596870       0.632666
      15.230000       0.415161       0.594053       0.637743
      15.240000       0.408508       0.591688       0.642295
      15.250000       0.402356       0.589653       0.646289
      15.260000       0.396926       0.587784       0.649668
      15.270000       0.392338       0.585916       0.652345
      15.280000       0.388601       0.583924       0.654215
      15.290000       0.385626       0.581756       0.655187
      15.300000       0.383242       0.579445       0.655221
      15.310000       0.381246       0.577087       0.654370
      15.320000       0.379445       0.574804       0.652807
      15.330000       0.377712       0.572699       0.650822
      15.340000       0.376027       0.570817       0.648775
      15.350000       0.374477       0.569135       0.647028
      15.360000       0.373240       0.567576       0.645870
      15.370000       0.372522       0.566049       0.645462
      15.380000       0.372511       0.564497       0.645823
      15.390000       0.373323       0.562934       0.646851
      15.400000       0.374988       0.561440       0.648372
      15.410000       0.377457       0.560126       0.650187
      15.420000       0.380634       0.559083       0.652113
      15.430000       0.384412       0.558333       0.654007
      15.440000       0.388708       0.557809       0.655764
      15.450000       0.393464       0.557368       0.657310
      15.460000       0.398634       0.556836       0.658593
      15.470000       0.404162       0.556065       0.659591
      15.480000       0.409960       0.554985       0.660314
      15.490000       0.415907       0.553629       0.660823
      15.500000       0.421864       0.552128       0.661233
      15.510000       0.427704       0.550671       0.661707
      15.520000       0.433334       0.549467       0.662431
      15.530000       0.438708       0.548693       0.663580
      15.540000       0.443824       0.548459       0.665279
      15.550000       0.448695       0.548775       0.667576
      15.560000       0.453317       0.549546       0.670424
      15.570000       0.457631       0.550590       0.673687
      15.580000       0.461514       0.551687       0.677152
      15.590000       0.464794       0.552635       0.680559
      15.600000       0.467295       0.553307       0.683626
      15.610000       0.468887       0.553678       0.686072
      15.620000       0.469532       0.553825       0.687626
      15.630000       0.469290       0.553900       0.688013
      15.640000       0.468310       0.554067       0.686946
      15.650000       0.466776       0.554441       0.684113
      15.660000       0.464848       0.555033       0.679197
      15.670000       0.462622       0.555722       0.671910
      15.680000       0.460105       0.556269       0.662047
      15.690000       0.457245       0.556355       0.649530
      15.700000       0.453983       0.555655       0.634443
      15.710000       0.450316       0.553911       0.617047
      15.720000       0.446349       0.550991       0.597769
      15.730000       0.442306       0.546914       0.577177
      15.740000       0.438504       0.541845       0.555921
      15.750000       0.435294       0.536054       0.534664
      15.760000       0.432990       0.529859       0.514000
      15.770000       0.431822       0.523562       0.494395
      15.780000       0.431913       0.517397       0.476150
      15.790000       0.433289       0.511491       0.459402
      15.800000       0.435900       0.505852       0.444147
      15.810000       0.439638       0.500389       0.430276
      15.820000       0.444353       0.494946       0.417609
      15.830000       0.449855       0.489349       0.405935
      15.840000       0.455938       0.483457       0.395057
      15.850000       0.462389       0.477184       0.384835
      15.860000       0.469008       0.470507       0.375216
      15.870000       0.475620       0.463439       0.366249
      15.880000       0.482074       0.455999       0.358053
      15.890000       0.488231       0.448179       0.350769
      15.900000       0.493960       0.439948       0.344496
      15.910000       0.499145       0.431279       0.339260
      15.920000       0.503701       0.422200       0.334997
      15.930000       0.507608       0.412832       0.331587
      15.940000       0.510925       0.403414       0.328886
      15.950000       0.513791       0.394280       0.326765
      15.960000       0.516390       0.385807       0.325133
      15.970000       0.518903       0.378349       0.323948
      15.980000       0.521467       0.372173       0.323208
      15.990000       0.524147       0.367410       0.322939
      16.000000       0.526936       0.364048       0.323166
      16.010000       0.529773       0.361938       0.323900
      16.020000       0.532552       0.360829       0.325115
      16.030000       0.535139       0.360417       0.326745
      16.040000       0.537381       0.360395       0.328689
      16.050000       0.539121       0.360498       0.330823
      16.060000       0.540213       0.360539       0.333004
      16.070000       0.540543       0.360421       0.335088
      16.080000       0.540051       0.360140       0.336926
      16.090000       0.538733       0.359766       0.338379
      16.100000       0.536648       0.359417       0.339330
      16.110000       0.533903       0.359221       0.339707
      16.120000       0.530634       0.359287       0.339501
      16.130000       0.526992       0.359681       0.338766
      16.140000       0.523126       0.360420       0.337611
      16.150000       0.519185       0.361482       0.336169
      16.160000       0.515315       0.362817       0.334561
      16.170000       0.511655       0.364350       0.332878
      16.180000       0.508324       0.365981       0.331172
      16.190000       0.505395       0.367584       0.329460
      16.200000       0.502871       0.369002       0.327744
      16.210000       0.500669       0.370063       0.326036
      16.220000       0.498619       0.370594       0.324379
      16.230000       0.496483       0.370450       0.322867
      16.240000       0.494001       0.369554       0.321642
      16.250000       0.490945       0.367917       0.320872
      16.260000       0.487178       0.365666       0.320721
      16.270000       0.482691       0.363034       0.321308
      16.280000       0.477616       0.360330       0.322686
      16.290000       0.472190       0.357895       0.324832
      16.300000       0.466694       0.356032       0.327661
      16.310000       0.461388       0.354953       0.331050
      16.320000       0.456455       0.354744       0.334860
      16.330000       0.451983       0.355363       0.338955
      16.340000       0.448000       0.356671       0.343218
      16.350000       0.444518       0.358471       0.347552
      16.360000       0.441588       0.360556       0.351883
      16.370000       0.439318       0.362735       0.356160
      16.380000       0.437849       0.364851       0.360360
      16.390000       0.437298       0.366783       0.364490
      16.400000       0.437704       0.368443       0.368581
      16.410000       0.438996       0.369766       0.372693
      16.420000       0.441001       0.370708       0.376897
      16.430000       0.443475       0.371237       0.381265
      16.440000       0.446163       0.371340       0.385860
      16.450000       0.448840       0.371025       0.390725
      16.460000       0.451352       0.370315       0.395876
      16.470000       0.453633       0.369248       0.401302
      16.480000       0.455702       0.367872       0.406965
      16.490000       0.457648       0.366240       0.412807
      16.500000       0.459606       0.364409       0.418753
      16.510000       0.461715       0.362439       0.424728
      16.520000       0.464090       0.360387       0.430661
      16.530000       0.466795       0.358301       0.436500
      16.540000       0.469841       0.356220       0.442207
      16.550000       0.473191       0.354172       0.447762
      16.560000       0.476780       0.352180       0.453150
      16.570000       0.480533       0.350263       0.458357
      16.580000       0.484390       0.348446       0.463367
      16.590000       0.488318       0.346760       0.468159
      16.600000       0.492302       0.345242       0.472718
      16.610000       0.496339       0.343926       0.477033
      16.620000       0.500415       0.342837       0.481103
      16.630000       0.504499       0.341981       0.484929
      16.640000       0.508538       0.341342       0.488514
      16.650000       0.512460       0.340885       0.491855
      16.660000       0.516174       0.340558       0.494935
      16.670000       0.519562       0.340304       0.497729
      16.680000       0.522485       0.340069       0.500203
      16.690000       0.524786       0.339808       0.502319
      16.700000       0.526315       0.339489       0.504052
      16.710000       0.526954       0.339095       0.505387
      16.720000       0.526645       0.338613       0.506337
      16.730000       0.525405       0.338037       0.506945
      16.740000       0.523327       0.337357       0.507293
      16.750000       0.520575       0.336558       0.507492
      16.760000       0.517358       0.335626       0.507681
      16.770000       0.513911       0.334547       0.508000
      16.780000       0.510471       0.333311       0.508572
      16.790000       0.507259       0.331910       0.509481
      16.800000       0.504477       0.330335       0.510755
      16.810000       0.502306       0.328592       0.512368
      16.820000       0.500903       0.326702       0.514250
      16.830000       0.500405       0.324720       0.516307
      16.840000       0.500908       0.322727       0.518437
      16.850000       0.502449       0.320814       0.520555
      16.860000       0.504994       0.319068       0.522601
      16.870000       0.508426       0.317554       0.524549
      16.880000       0.512555       0.316303       0.526399
      16.890000       0.517144       0.315319       0.528168
      16.900000       0.521936       0.314584       0.529875
      16.910000       0.526683       0.314060       0.531529
      16.920000       0.531162       0.313702       0.533125
      16.930000       0.535190       0.313453       0.534650
      16.940000       0.538621       0.313259       0.536088
      16.950000       0.541340       0.313077       0.537428
      16.960000       0.543256       0.312882       0.538671
      16.970000       0.544293       0.312677       0.539822
      16.980000       0.544405       0.312484       0.540893
      16.990000       0.543598       0.312337       0.541891
      17.000000       0.541949       0.312270       0.542819
      17.010000       0.539619       0.312308       0.543668
      17.020000       0.536821       0.312466       0.544420
      17.030000       0.533778       0.312738       0.545049
      17.040000       0.530658       0.313110       0.545526
      17.050000       0.527545       0.313561       0.545829
      17.060000       0.524427       0.314086       0.545944
      17.070000       0.521231       0.314698       0.545878
      17.080000       0.517866       0.315435       0.545661
      17.090000       0.514284       0.316349       0.545348
      17.100000       0.510512       0.317489       0.545016
      17.110000       0.506673       0.318889       0.544757
      17.120000       0.502968       0.320562       0.544659
      17.130000       0.499636       0.322506       0.544796
      17.140000       0.496904       0.324709       0.545218
      17.150000       0.494936       0.327161       0.545948
      17.160000       0.493817       0.329851       0.546988
      17.170000       0.493543       0.332771       0.548326
      17.180000       0.494045       0.335911       0.549942
      17.190000       0.495200       0.339254       0.551813
      17.200000       0.496857       0.342771       0.553906
      17.210000       0.498860       0.346422       0.556185
      17.220000       0.501065       0.350156       0.558610
      17.230000       0.503363       0.353914       0.561141
      17.240000       0.505691       0.357635       0.563742
      17.250000       0.508021       0.361261       0.566381
      17.260000       0.510340       0.364735       0.569034
      17.270000       0.512616       0.368008       0.571688
      17.280000       0.514774       0.371043       0.574331
      17.290000       0.516680       0.373818       0.576960
      17.300000       0.518155       0.376327       0.579574
      17.310000       0.518994       0.378583       0.582173
      17.320000       0.518993       0.380611       0.584764
      17.330000       0.517973       0.382443       0.587357
      17.340000       0.515801       0.384113       0.589965
      17.350000       0.512408       0.385650       0.592599
      17.360000       0.507817       0.387079       0.595261
      17.370000       0.502163       0.388421       0.597941
      17.380000       0.495707       0.389696       0.600610
      17.390000       0.488834       0.390928       0.603228
      17.400000       0.482010       0.392143       0.605743
      17.410000       0.475718       0.393371       0.608104
      17.420000       0.470380       0.394639       0.610266
      17.430000       0.466292       0.395969       0.612195
      17.440000       0.463594       0.397374       0.613866
      17.450000       0.462282       0.398864       0.615272
      17.460000       0.462243       0.400451       0.616417
      17.470000       0.463308       0.402155       0.617323
      17.480000       0.465287       0.404003       0.618026
      17.490000       0.468003       0.406028       0.618576
      17.500000       0.471290       0.408252       0.619026
      17.510000       0.474996       0.410674       0.619429
      17.520000       0.478965       0.413274       0.619828
      17.530000       0.483046       0.416007       0.620255
      17.540000       0.487093       0.418825       0.620725
      17.550000       0.490978       0.421680       0.621243
      17.560000       0.494604       0.424534       0.621805
      17.570000       0.497903       0.427359       0.622404
      17.580000       0.500831       0.430126       0.623033
      17.590000       0.503356       0.432803       0.623686
      17.600000       0.505438       0.435351       0.624359
      17.610000       0.507023       0.437725       0.625051
      17.620000       0.508046       0.439883       0.625760
      17.630000       0.508442       0.441790       0.626493
      17.640000       0.508171       0.443429       0.627260
      17.650000       0.507239       0.444802       0.628081
      17.660000       0.505716       0.445935       0.628989
      17.670000       0.503736       0.446873       0.630023
      17.680000       0.501478       0.447673       0.631227
      17.690000       0.499133       0.448393       0.632636
      17.700000       0.496866       0.449079       0.634271
      17.710000       0.494796       0.449760       0.636133
      17.720000       0.492984       0.450450       0.638198
      17.730000       0.491448       0.451156       0.640427
      17.740000       0.490167       0.451882       0.642768
      17.750000       0.489094       0.452640       0.645168
      17.760000       0.488152       0.453441       0.647575
      17.770000       0.487238       0.454297       0.649943
      17.780000       0.486231       0.455213       0.652238
      17.790000       0.485006       0.456182       0.654433
      17.800000       0.483457       0.457189       0.656511
      17.810000       0.481521       0.458213       0.658463
      17.820000       0.479196       0.459232       0.660286
      17.830000       0.476561       0.460226       0.661979
      17.840000       0.473763       0.461182       0.663546
      17.850000       0.471001       0.462095       0.664998
      17.860000       0.468482       0.462971       0.666356
      17.870000       0.466382       0.463822       0.667648
      17.880000       0.464812       0.464668       0.668908
      17.890000       0.463803       0.465533       0.670167
      17.900000       0.463306       0.466441       0.671451
      17.910000       0.463201       0.467409       0.672772
      17.920000       0.463317       0.468446       0.674132
      17.930000       0.463455       0.469551       0.675526
      17.940000       0.463420       0.470712       0.676945
      17.950000       0.463055       0.471915       0.678382
      17.960000       0.462266       0.473145       0.679830
      17.970000       0.461046       0.474388       0.681280
      17.980000       0.459481       0.475632       0.682721
      17.990000       0.457737       0.476868       0.684141
      18.000000       0.456036       0.478092       0.685524
      18.010000       0.454621       0.479308       0.686851
      18.020000       0.453711       0.480525       0.688106
      18.030000       0.453467       0.481756       0.689268
      18.040000       0.453963       0.483012       0.690323
      18.050000       0.455179       0.484298       0.691261
      18.060000       0.457010       0.485603       0.692083
      18.070000       0.459289       0.486907       0.692805
      18.080000       0.461819       0.488185       0.693459
      18.090000       0.464402       0.489417       0.694096
      18.100000       0.466870       0.490594       0.694774
      18.110000       0.469096       0.491720       0.695555
      18.120000       0.471002       0.492806       0.696493
      18.130000       0.472561       0.493863       0.697624
      18.140000       0.473793       0.494893       0.698963
      18.150000       0.474761       0.495888       0.700501
      18.160000       0.475562       0.496834       0.702211
      18.170000       0.476316       0.497711       0.704056
      18.180000       0.477139       0.498499       0.705992
      18.190000       0.478127       0.499176       0.707982
      18.200000       0.479345       0.499726       0.709996
      18.210000       0.480823       0.500134       0.712016
      18.220000       0.482573       0.500400       0.714034
      18.230000       0.484591       0.500536       0.716051
      18.240000       0.486864       0.500574       0.718073
      18.250000       0.489374       0.500564       0.720107
      18.260000       0.492092       0.500564       0.722160
      18.270000       0.494974       0.500642       0.724234
      18.280000       0.497958       0.500865       0.726327
      18.290000       0.500951       0.501296       0.728431
      18.300000       0.503835       0.501982       0.730528
      18.310000       0.506460       0.502954       0.732597
      18.320000       0.508654       0.504217       0.734610
      18.330000       0.510246       0.505751       0.736546
      18.340000       0.511076       0.507512       0.738389
      18.350000       0.511021       0.509444       0.740139
      18.360000       0.510004       0.511485       0.741810
      18.370000       0.508001       0.513576       0.743428
      18.380000       0.505059       0.515666       0.745026
      18.390000       0.501297       0.517709       0.746634
      18.400000       0.496915       0.519671       0.748272
      18.410000       0.492181       0.521518       0.749947
      18.420000       0.487393       0.523215       0.751652
      18.430000       0.482834       0.524725       0.753373
      18.440000       0.478720       0.526010       0.755089
      18.450000       0.475171       0.527031       0.756781
      18.460000       0.472209       0.527757       0.758439
      18.470000       0.469783       0.528173       0.760061
      18.480000       0.467807       0.528280       0.761655
      18.490000       0.466189       0.528100       0.763240
      18.500000       0.464851       0.527681       0.764840
      18.510000       0.463722       0.527089       0.766480
      18.520000       0.462729       0.526406       0.768184
      18.530000       0.461784       0.525718       0.769966
      18.540000       0.460787       0.525106       0.771830
      18.550000       0.459634       0.524642       0.773769
      18.560000       0.458240       0.524377       0.775769
      18.570000       0.456561       0.524344       0.777809
      18.580000       0.454612       0.524554       0.779869
      18.590000       0.452472       0.524995       0.781928
      18.600000       0.450276       0.525637       0.783970
      18.610000       0.448196       0.526434       0.785984
      18.620000       0.446404       0.527328       0.787966
      18.630000       0.445048       0.528259       0.789916
      18.640000       0.444225       0.529163       0.791838
      18.650000       0.443978       0.529987       0.793735
      18.660000       0.444304       0.530697       0.795606
      18.670000       0.445172       0.531284       0.797453
      18.680000       0.446545       0.531772       0.799282
      18.690000       0.448393       0.532213       0.801106
      18.700000       0.450696       0.532672       0.802947
      18.710000       0.453436       0.533219       0.804831
      18.720000       0.456591       0.533907       0.806782
      18.730000       0.460122       0.534771       0.808820
      18.740000       0.463977       0.535821       0.810959
      18.750000       0.468081       0.537047       0.813202
      18.760000       0.472345       0.538423       0.815547
      18.770000       0.476668       0.539912       0.817982
      18.780000       0.480941       0.541470       0.820489
      18.790000       0.485059       0.543045       0.823041
      18.800000       0.488931       0.544585       0.825607
      18.810000       0.492491       0.546043       0.828152
      18.820000       0.495710       0.547383       0.830645
      18.830000       0.498597       0.548584       0.833058
      18.840000       0.501200       0.549647       0.835372
      18.850000       0.503596       0.550587       0.837574
      18.860000       0.505872       0.551428       0.839659
      18.870000       0.508117       0.552203       0.841630
      18.880000       0.510401       0.552938       0.843495
      18.890000       0.512774       0.553661       0.845271
      18.900000       0.515262       0.554388       0.846984
      18.910000       0.517868       0.555130       0.848663
      18.920000       0.520570       0.555879       0.850343
      18.930000       0.523329       0.556613       0.852059
      18.940000       0.526088       0.557289       0.853837
      18.950000       0.528780       0.557851       0.855694
      18.960000       0.531342       0.558238       0.857633
      18.970000       0.533722       0.558396       0.859650
      18.980000       0.535896       0.558291       0.861733
      18.990000       0.537871       0.557924       0.863872
      19.000000       0.539691       0.557331       0.866056
      19.010000       0.541420       0.556580       0.868275
      19.020000       0.543131       0.555764       0.870513
      19.030000       0.544885       0.554978       0.872750
      19.040000       0.546718       0.554310       0.874961
      19.050000       0.548631       0.553829       0.877121
      19.060000       0.550591       0.553575       0.879212
      19.070000       0.552535       0.553560       0.881224
      19.080000       0.554386       0.553763       0.883155
      19.090000       0.556069       0.554137       0.885002
      19.100000       0.557532       0.554610       0.886761
      19.110000       0.558755       0.555099       0.888420
      19.120000       0.559758       0.555520       0.889962
      19.130000       0.560589       0.555802       0.891369
      19.140000       0.561311       0.555905       0.892624
      19.150000       0.561986       0.555817       0.893715
      19.160000       0.562669       0.555558       0.894642
      19.170000       0.563402       0.555168       0.895409
      19.180000       0.564212       0.554695       0.896019
      19.190000       0.565107       0.554184       0.896464
      19.200000       0.566068       0.553674       0.896725
      19.210000       0.567046       0.553193       0.896766
      19.220000       0.567965       0.552766       0.896538
      19.230000       0.568728       0.552418       0.895997
      19.240000       0.569227       0.552167       0.895105
      19.250000       0.569361       0.552033       0.893856
      19.260000       0.569047       0.552027       0.892284
      19.270000       0.568229       0.552155       0.890475
      19.280000       0.566874       0.552417       0.888563
      19.290000       0.564973       0.552811       0.886714
      19.300000       0.562532       0.553329       0.885095
      19.310000       0.559574       0.553960       0.883847
      19.320000       0.556146       0.554691       0.883060
      19.330000       0.552331       0.555506       0.882766
      19.340000       0.548250       0.556387       0.882940
      19.350000       0.544055       0.557320       0.883507
      19.360000       0.539907       0.558296       0.884364
      19.370000       0.535958       0.559313       0.885393
      19.380000       0.532339       0.560375       0.886487
      19.390000       0.529154       0.561483       0.887559
      19.400000       0.526493       0.562635       0.888551
      19.410000       0.524433       0.563820       0.889443
      19.420000       0.523040       0.565020       0.890247
      19.430000       0.522360       0.566214       0.891010
      19.440000       0.522414       0.567383       0.891801
      19.450000       0.523189       0.568510       0.892694
      19.460000       0.524640       0.569585       0.893744
      19.470000       0.526698       0.570606       0.894969
      19.480000       0.529273       0.571573       0.896335
      19.490000       0.532268       0.572490       0.897759
      19.500000       0.535579       0.573364       0.899124
      19.510000       0.539101       0.574201       0.900294
      19.520000       0.542735       0.575005       0.901130
      19.530000       0.546388       0.575777       0.901509
      19.540000       0.549976       0.576514       0.901337
      19.550000       0.553423       0.577211       0.900570
      19.560000       0.556668       0.577862       0.899211
      19.570000       0.559668       0.578464       0.897306
      19.580000       0.562398       0.579016       0.894927
      19.590000       0.564862       0.579526       0.892150
      19.600000       0.567086       0.580007       0.889048
      19.610000       0.569116       0.580481       0.885689
      19.620000       0.571009       0.580968       0.882151
      19.630000       0.572819       0.581487       0.878524
      19.640000       0.574594       0.582053       0.874911
      19.650000       0.576363       0.582672       0.871426
      19.660000       0.578137       0.583344       0.868175
      19.670000       0.579903       0.584061       0.865257
      19.680000       0.581636       0.584810       0.862762
      19.690000       0.583299       0.585574       0.860767
      19.700000       0.584856       0.586335       0.859332
      19.710000       0.586279       0.587075       0.858487
      19.720000       0.587559       0.587784       0.858212
      19.730000       0.588702       0.588458       0.858430
      19.740000       0.589726       0.589105       0.859002
      19.750000       0.590649       0.589740       0.859747
      19.760000       0.591479       0.590380       0.860470
      19.770000       0.592203       0.591041       0.860994
      19.780000       0.592791       0.591738       0.861194
      19.790000       0.593200       0.592481       0.861015
      19.800000       0.593380       0.593284       0.860473
      19.810000       0.593291       0.594160       0.859640
      19.820000       0.592908       0.595122       0.858614
      19.830000       0.592233       0.596177       0.857494
      19.840000       0.591299       0.597325       0.856359
      19.850000       0.590172       0.598560       0.855272
      19.860000       0.588943       0.599865       0.854290
      19.870000       0.587718       0.601223       0.853472
      19.880000       0.586609       0.602619       0.852884
      19.890000       0.585720       0.604037       0.852583
      19.900000       0.585139       0.605471       0.852601
      19.910000       0.584928       0.606915       0.852927
      19.920000       0.585112       0.608366       0.853491
      19.930000       0.585680       0.609822       0.854171
      19.940000       0.586596       0.611279       0.854801
      19.950000       0.587807       0.612733       0.855194
      19.960000       0.589255       0.614182       0.855169
      19.970000       0.590890       0.615626       0.854587
      19.980000       0.592663       0.617066       0.853378
      19.990000       0.594532       0.618505       0.851557
      20.000000       0.596451       0.619942       0.849227
