  # energy grid [eV]     epsi_x  epsi_y  epsi_z
       0.000000            NaN            NaN            NaN
       0.010000       0.004493       0.000934       0.000266
       0.020000       0.008992       0.001869       0.000533
       0.030000       0.013501       0.002804       0.000801
       0.040000       0.018025       0.003741       0.001072
       0.050000       0.022571       0.004680       0.001347
       0.060000       0.027144       0.005621       0.001627
       0.070000       0.031748       0.006566       0.001912
       0.080000       0.036390       0.007514       0.002204
       0.090000       0.041075       0.008466       0.002505
       0.100000       0.045809       0.009422       0.002814
       0.110000       0.050599       0.010384       0.003135
       0.120000       0.055449       0.011351       0.003467
       0.130000       0.060368       0.012324       0.003814
       0.140000       0.065360       0.013304       0.004178
       0.150000       0.070434       0.014292       0.004559
       0.160000       0.075596       0.015287       0.004961
       0.170000       0.080853       0.016291       0.005386
       0.180000       0.086214       0.017305       0.005838
       0.190000       0.091686       0.018328       0.006319
       0.200000       0.097279       0.019361       0.006833
       0.210000       0.103000       0.020406       0.007384
       0.220000       0.108860       0.021463       0.007976
       0.230000       0.114868       0.022533       0.008611
       0.240000       0.121035       0.023616       0.009294
       0.250000       0.127372       0.024713       0.010026
       0.260000       0.133890       0.025826       0.010806
       0.270000       0.140603       0.026954       0.011633
       0.280000       0.147524       0.028100       0.012499
       0.290000       0.154666       0.029264       0.013395
       0.300000       0.162046       0.030446       0.014307
       0.310000       0.169679       0.031649       0.015218
       0.320000       0.177582       0.032873       0.016116
       0.330000       0.185776       0.034120       0.016993
       0.340000       0.194278       0.035390       0.017851
       0.350000       0.203112       0.036685       0.018705
       0.360000       0.212300       0.038006       0.019580
       0.370000       0.221867       0.039356       0.020508
       0.380000       0.231841       0.040735       0.021523
       0.390000       0.242250       0.042145       0.022659
       0.400000       0.253128       0.043589       0.023946
       0.410000       0.264508       0.045067       0.025407
       0.420000       0.276428       0.046582       0.027064
       0.430000       0.288928       0.048137       0.028932
       0.440000       0.302055       0.049733       0.031017
       0.450000       0.315856       0.051374       0.033323
       0.460000       0.330385       0.053061       0.035846
       0.470000       0.345701       0.054799       0.038573
       0.480000       0.361868       0.056589       0.041488
       0.490000       0.378958       0.058436       0.044569
       0.500000       0.397049       0.060344       0.047784
       0.510000       0.416227       0.062316       0.051089
       0.520000       0.436589       0.064356       0.054421
       0.530000       0.458241       0.066471       0.057699
       0.540000       0.481302       0.068664       0.060824
       0.550000       0.505903       0.070943       0.063697
       0.560000       0.532191       0.073313       0.066225
       0.570000       0.560332       0.075781       0.068336
       0.580000       0.590511       0.078355       0.069983
       0.590000       0.622935       0.081045       0.071140
       0.600000       0.657838       0.083859       0.071802
       0.610000       0.695485       0.086808       0.071983
       0.620000       0.736175       0.089904       0.071729
       0.630000       0.780247       0.093161       0.071109
       0.640000       0.828087       0.096594       0.070216
       0.650000       0.880134       0.100218       0.069149
       0.660000       0.936888       0.104055       0.068006
       0.670000       0.998921       0.108124       0.066864
       0.680000       1.066887       0.112451       0.065776
       0.690000       1.141533       0.117062       0.064764
       0.700000       1.223713       0.121990       0.063825
       0.710000       1.314402       0.127271       0.062935
       0.720000       1.414711       0.132944       0.062066
       0.730000       1.525897       0.139056       0.061198
       0.740000       1.649374       0.145660       0.060325
       0.750000       1.786719       0.152814       0.059450
       0.760000       1.939661       0.160586       0.058580
       0.770000       2.110063       0.169046       0.057716
       0.780000       2.299871       0.178276       0.056850
       0.790000       2.511045       0.188359       0.055974
       0.800000       2.745421       0.199378       0.055084
       0.810000       3.004530       0.211413       0.054194
       0.820000       3.289292       0.224524       0.053331
       0.830000       3.599605       0.238745       0.052531
       0.840000       3.933789       0.254056       0.051823
       0.850000       4.287967       0.270369       0.051219
       0.860000       4.655545       0.287499       0.050707
       0.870000       5.027059       0.305152       0.050254
       0.880000       5.390681       0.322932       0.049815
       0.890000       5.733497       0.340363       0.049351
       0.900000       6.043375       0.356949       0.048843
       0.910000       6.310891       0.372245       0.048304
       0.920000       6.530646       0.385929       0.047773
       0.930000       6.701535       0.397853       0.047308
       0.940000       6.825964       0.408050       0.046971
       0.950000       6.908390       0.416710       0.046812
       0.960000       6.953852       0.424129       0.046862
       0.970000       6.967000       0.430660       0.047125
       0.980000       6.951778       0.436685       0.047581
       0.990000       6.911434       0.442598       0.048185
       1.000000       6.848430       0.448794       0.048876
       1.010000       6.764161       0.455651       0.049584
       1.020000       6.658773       0.463516       0.050246
       1.030000       6.531419       0.472709       0.050808
       1.040000       6.380875       0.483529       0.051241
       1.050000       6.206110       0.496271       0.051541
       1.060000       6.006480       0.511235       0.051724
       1.070000       5.781687       0.528711       0.051826
       1.080000       5.531953       0.548970       0.051882
       1.090000       5.258657       0.572234       0.051920
       1.100000       4.965163       0.598657       0.051943
       1.110000       4.657209       0.628273       0.051930
       1.120000       4.342469       0.660945       0.051838
       1.130000       4.029400       0.696300       0.051620
       1.140000       3.725906       0.733695       0.051233
       1.150000       3.438335       0.772235       0.050658
       1.160000       3.171020       0.810882       0.049907
       1.170000       2.926313       0.848658       0.049026
       1.180000       2.704906       0.884882       0.048085
       1.190000       2.506254       0.919357       0.047165
       1.200000       2.328981       0.952381       0.046345
       1.210000       2.171204       0.984578       0.045689
       1.220000       2.030805       1.016572       0.045236
       1.230000       1.905636       1.048671       0.044998
       1.240000       1.793689       1.080659       0.044958
       1.250000       1.693215       1.111808       0.045075
       1.260000       1.602784       1.141120       0.045285
       1.270000       1.521267       1.167714       0.045513
       1.280000       1.447755       1.191227       0.045683
       1.290000       1.381468       1.212031       0.045741
       1.300000       1.321678       1.231167       0.045663
       1.310000       1.267688       1.250020       0.045462
       1.320000       1.218859       1.269883       0.045188
       1.330000       1.174669       1.291590       0.044913
       1.340000       1.134763       1.315351       0.044718
       1.350000       1.098970       1.340832       0.044674
       1.360000       1.067282       1.367434       0.044839
       1.370000       1.039791       1.394650       0.045248
       1.380000       1.016639       1.422336       0.045911
       1.390000       0.997979       1.450746       0.046812
       1.400000       0.983949       1.480321       0.047908
       1.410000       0.974681       1.511318       0.049124
       1.420000       0.970305       1.543477       0.050363
       1.430000       0.970960       1.575893       0.051510
       1.440000       0.976808       1.607194       0.052453
       1.450000       0.988030       1.635966       0.053101
       1.460000       1.004820       1.661259       0.053409
       1.470000       1.027368       1.682941       0.053384
       1.480000       1.055829       1.701728       0.053082
       1.490000       1.090272       1.718867       0.052586
       1.500000       1.130631       1.735667       0.051989
       1.510000       1.176638       1.753070       0.051373
       1.520000       1.227780       1.771395       0.050803
       1.530000       1.283273       1.790276       0.050325
       1.540000       1.342103       1.808722       0.049974
       1.550000       1.403106       1.825273       0.049771
       1.560000       1.465109       1.838260       0.049722
       1.570000       1.527085       1.846170       0.049817
       1.580000       1.588266       1.848059       0.050025
       1.590000       1.648181       1.843866       0.050292
       1.600000       1.706608       1.834531       0.050554
       1.610000       1.763457       1.821835       0.050743
       1.620000       1.818656       1.808027       0.050801
       1.630000       1.872046       1.795358       0.050699
       1.640000       1.923360       1.785638       0.050437
       1.650000       1.972270       1.779969       0.050045
       1.660000       2.018514       1.778692       0.049576
       1.670000       2.062019       1.781550       0.049091
       1.680000       2.102935       1.787986       0.048651
       1.690000       2.141551       1.797442       0.048301
       1.700000       2.178126       1.809532       0.048069
       1.710000       2.212710       1.824006       0.047964
       1.720000       2.244992       1.840574       0.047977
       1.730000       2.274195       1.858703       0.048096
       1.740000       2.299015       1.877556       0.048304
       1.750000       2.317636       1.896106       0.048590
       1.760000       2.327802       1.913372       0.048943
       1.770000       2.326971       1.928637       0.049354
       1.780000       2.312540       1.941548       0.049803
       1.790000       2.282198       1.952106       0.050272
       1.800000       2.234369       1.960632       0.050738
       1.810000       2.168687       1.967773       0.051191
       1.820000       2.086320       1.974521       0.051635
       1.830000       1.989990       1.982136       0.052085
       1.840000       1.883617       1.991948       0.052571
       1.850000       1.771683       2.005080       0.053119
       1.860000       1.658539       2.022200       0.053751
       1.870000       1.547873       2.043389       0.054472
       1.880000       1.442437       2.068108       0.055273
       1.890000       1.344032       2.095220       0.056131
       1.900000       1.253639       2.123029       0.057013
       1.910000       1.171600       2.149354       0.057887
       1.920000       1.097808       2.171742       0.058719
       1.930000       1.031853       2.187856       0.059482
       1.940000       0.973154       2.195976       0.060146
       1.950000       0.921049       2.195411       0.060688
       1.960000       0.874865       2.186614       0.061095
       1.970000       0.833945       2.170924       0.061369
       1.980000       0.797651       2.150062       0.061529
       1.990000       0.765353       2.125609       0.061605
       2.000000       0.736413       2.098678       0.061633
       2.010000       0.710195       2.069857       0.061647
       2.020000       0.686103       2.039375       0.061667
       2.030000       0.663643       2.007343       0.061704
       2.040000       0.642465       1.973924       0.061761
       2.050000       0.622383       1.939360       0.061841
       2.060000       0.603343       1.903881       0.061943
       2.070000       0.585366       1.867645       0.062070
       2.080000       0.568499       1.830791       0.062222
       2.090000       0.552791       1.793612       0.062398
       2.100000       0.538299       1.756737       0.062603
       2.110000       0.525106       1.721174       0.062851
       2.120000       0.513330       1.688166       0.063170
       2.130000       0.503120       1.658904       0.063596
       2.140000       0.494629       1.634240       0.064168
       2.150000       0.487987       1.614520       0.064914
       2.160000       0.483274       1.599605       0.065838
       2.170000       0.480502       1.589057       0.066916
       2.180000       0.479604       1.582406       0.068100
       2.190000       0.480423       1.579354       0.069326
       2.200000       0.482711       1.579842       0.070525
       2.210000       0.486145       1.583974       0.071642
       2.220000       0.490358       1.591884       0.072641
       2.230000       0.495008       1.603654       0.073516
       2.240000       0.499850       1.619320       0.074281
       2.250000       0.504805       1.638917       0.074973
       2.260000       0.509982       1.662472       0.075641
       2.270000       0.515644       1.689899       0.076341
       2.280000       0.522125       1.720808       0.077127
       2.290000       0.529739       1.754295       0.078042
       2.300000       0.538704       1.788801       0.079112
       2.310000       0.549107       1.822045       0.080342
       2.320000       0.560912       1.851092       0.081720
       2.330000       0.573994       1.872605       0.083225
       2.340000       0.588199       1.883321       0.084831
       2.350000       0.603386       1.880695       0.086516
       2.360000       0.619424       1.863495       0.088260
       2.370000       0.636155       1.832114       0.090048
       2.380000       0.653334       1.788432       0.091873
       2.390000       0.670584       1.735342       0.093734
       2.400000       0.687407       1.676141       0.095641
       2.410000       0.703244       1.614008       0.097603
       2.420000       0.717538       1.551668       0.099616
       2.430000       0.729772       1.491198       0.101654
       2.440000       0.739458       1.433962       0.103658
       2.450000       0.746109       1.380647       0.105545
       2.460000       0.749216       1.331400       0.107220
       2.470000       0.748268       1.286046       0.108596
       2.480000       0.742815       1.244308       0.109610
       2.490000       0.732574       1.205950       0.110237
       2.500000       0.717536       1.170816       0.110491
       2.510000       0.698056       1.138757       0.110419
       2.520000       0.674859       1.109538       0.110082
       2.530000       0.648959       1.082798       0.109550
       2.540000       0.621516       1.058084       0.108886
       2.550000       0.593668       1.034967       0.108154
       2.560000       0.566410       1.013177       0.107420
       2.570000       0.540506       0.992694       0.106750
       2.580000       0.516470       0.973761       0.106210
       2.590000       0.494571       0.956807       0.105847
       2.600000       0.474870       0.942309       0.105681
       2.610000       0.457271       0.930649       0.105697
       2.620000       0.441576       0.921996       0.105853
       2.630000       0.427550       0.916258       0.106092
       2.640000       0.414970       0.913099       0.106360
       2.650000       0.403665       0.912025       0.106623
       2.660000       0.393534       0.912500       0.106873
       2.670000       0.384541       0.914082       0.107122
       2.680000       0.376700       0.916520       0.107396
       2.690000       0.370049       0.919783       0.107717
       2.700000       0.364627       0.924008       0.108099
       2.710000       0.360456       0.929364       0.108547
       2.720000       0.357526       0.935910       0.109069
       2.730000       0.355781       0.943487       0.109684
       2.740000       0.355118       0.951700       0.110424
       2.750000       0.355384       0.959990       0.111335
       2.760000       0.356379       0.967758       0.112463
       2.770000       0.357876       0.974502       0.113836
       2.780000       0.359649       0.979902       0.115453
       2.790000       0.361511       0.983867       0.117276
       2.800000       0.363351       0.986554       0.119233
       2.810000       0.365157       0.988380       0.121230
       2.820000       0.367012       0.990009       0.123167
       2.830000       0.369071       0.992312       0.124946
       2.840000       0.371527       0.996290       0.126480
       2.850000       0.374585       1.002979       0.127690
       2.860000       0.378443       1.013364       0.128511
       2.870000       0.383292       1.028309       0.128898
       2.880000       0.389309       1.048490       0.128837
       2.890000       0.396660       1.074333       0.128359
       2.900000       0.405493       1.105947       0.127530
       2.910000       0.415939       1.143077       0.126450
       2.920000       0.428109       1.185073       0.125224
       2.930000       0.442090       1.230903       0.123943
       2.940000       0.457945       1.279202       0.122676
       2.950000       0.475716       1.328361       0.121468
       2.960000       0.495431       1.376631       0.120349
       2.970000       0.517116       1.422228       0.119345
       2.980000       0.540816       1.463422       0.118486
       2.990000       0.566609       1.498613       0.117802
       3.000000       0.594613       1.526411       0.117319
       3.010000       0.624970       1.545724       0.117050
       3.020000       0.657814       1.555881       0.116989
       3.030000       0.693220       1.556772       0.117106
       3.040000       0.731150       1.548981       0.117349
       3.050000       0.771415       1.533815       0.117653
       3.060000       0.813645       1.513197       0.117951
       3.070000       0.857315       1.489416       0.118189
       3.080000       0.901798       1.464801       0.118337
       3.090000       0.946449       1.441430       0.118388
       3.100000       0.990680       1.420922       0.118343
       3.110000       1.033977       1.404353       0.118199
       3.120000       1.075883       1.392287       0.117931
       3.130000       1.115986       1.384877       0.117502
       3.140000       1.153964       1.382010       0.116875
       3.150000       1.189692       1.383424       0.116034
       3.160000       1.223342       1.388793       0.114999
       3.170000       1.255383       1.397767       0.113826
       3.180000       1.286450       1.410006       0.112594
       3.190000       1.317116       1.425187       0.111384
       3.200000       1.347683       1.443033       0.110250
       3.210000       1.378061       1.463338       0.109212
       3.220000       1.407786       1.485981       0.108250
       3.230000       1.436109       1.510923       0.107322
       3.240000       1.462077       1.538133       0.106379
       3.250000       1.484561       1.567451       0.105394
       3.260000       1.502219       1.598430       0.104371
       3.270000       1.513545       1.630256       0.103360
       3.280000       1.517065       1.661788       0.102440
       3.290000       1.511718       1.691752       0.101711
       3.300000       1.497269       1.719024       0.101276
       3.310000       1.474580       1.742890       0.101227
       3.320000       1.445587       1.763182       0.101639
       3.330000       1.412986       1.780250       0.102559
       3.340000       1.379754       1.794745       0.104004
       3.350000       1.348662       1.807333       0.105956
       3.360000       1.321904       1.818412       0.108360
       3.370000       1.300887       1.827991       0.111125
       3.380000       1.286170       1.835782       0.114125
       3.390000       1.277490       1.841477       0.117204
       3.400000       1.273870       1.845107       0.120189
       3.410000       1.273782       1.847293       0.122899
       3.420000       1.275396       1.849248       0.125163
       3.430000       1.276915       1.852524       0.126847
       3.440000       1.276936       1.858612       0.127870
       3.450000       1.274755       1.868560       0.128214
       3.460000       1.270464       1.882772       0.127921
       3.470000       1.264807       1.900999       0.127069
       3.480000       1.258870       1.922522       0.125746
       3.490000       1.253733       1.946439       0.124036
       3.500000       1.250247       1.971959       0.122013
       3.510000       1.248986       1.998602       0.119754
       3.520000       1.250359       2.026234       0.117348
       3.530000       1.254771       2.054901       0.114906
       3.540000       1.262740       2.084524       0.112547
       3.550000       1.274890       2.114591       0.110387
       3.560000       1.291821       2.143994       0.108516
       3.570000       1.313934       2.171117       0.106994
       3.580000       1.341248       2.194180       0.105842
       3.590000       1.373288       2.211721       0.105046
       3.600000       1.409057       2.223025       0.104565
       3.610000       1.447101       2.228315       0.104337
       3.620000       1.485671       2.228616       0.104296
       3.630000       1.522948       2.225406       0.104384
       3.640000       1.557311       2.220243       0.104558
       3.650000       1.587604       2.214550       0.104799
       3.660000       1.613338       2.209594       0.105112
       3.670000       1.634811       2.206585       0.105515
       3.680000       1.653090       2.206754       0.106037
       3.690000       1.669846       2.211322       0.106707
       3.700000       1.687075       2.221375       0.107550
       3.710000       1.706740       2.237708       0.108593
       3.720000       1.730441       2.260693       0.109862
       3.730000       1.759177       2.290238       0.111381
       3.740000       1.793249       2.325792       0.113169
       3.750000       1.832305       2.366398       0.115234
       3.760000       1.875480       2.410770       0.117571
       3.770000       1.921626       2.457385       0.120162
       3.780000       1.969574       2.504610       0.122976
       3.790000       2.018411       2.550885       0.125976
       3.800000       2.067683       2.594913       0.129114
       3.810000       2.117416       2.635817       0.132334
       3.820000       2.167909       2.673187       0.135565
       3.830000       2.219324       2.706972       0.138717
       3.840000       2.271251       2.737242       0.141683
       3.850000       2.322431       2.763857       0.144351
       3.860000       2.370797       2.786203       0.146622
       3.870000       2.413842       2.803088       0.148432
       3.880000       2.449194       2.812908       0.149772
       3.890000       2.475215       2.814012       0.150681
       3.900000       2.491394       2.805167       0.151240
       3.910000       2.498426       2.785939       0.151555
       3.920000       2.497932       2.756870       0.151738
       3.930000       2.491947       2.719385       0.151895
       3.940000       2.482360       2.675471       0.152125
       3.950000       2.470522       2.627262       0.152508
       3.960000       2.457129       2.576688       0.153103
       3.970000       2.442361       2.525312       0.153932
       3.980000       2.426147       2.474380       0.154977
       3.990000       2.408427       2.424983       0.156191
       4.000000       2.389291       2.378200       0.157507
       4.010000       2.368978       2.335150       0.158866
       4.020000       2.347783       2.296935       0.160223
       4.030000       2.325980       2.264578       0.161560
       4.040000       2.303833       2.238974       0.162872
       4.050000       2.281705       2.220862       0.164158
       4.060000       2.260192       2.210769       0.165413
       4.070000       2.240187       2.208903       0.166625
       4.080000       2.222866       2.215024       0.167779
       4.090000       2.209582       2.228378       0.168857
       4.100000       2.201722       2.247749       0.169840
       4.110000       2.200521       2.271627       0.170708
       4.120000       2.206870       2.298457       0.171448
       4.130000       2.221138       2.326854       0.172057
       4.140000       2.243044       2.355747       0.172561
       4.150000       2.271597       2.384392       0.173016
       4.160000       2.305143       2.412299       0.173511
       4.170000       2.341519       2.439103       0.174153
       4.180000       2.378337       2.464408       0.175050
       4.190000       2.413301       2.487677       0.176290
       4.200000       2.444520       2.508195       0.177924
       4.210000       2.470690       2.525152       0.179957
       4.220000       2.491098       2.537814       0.182340
       4.230000       2.505443       2.545681       0.184979
       4.240000       2.513557       2.548595       0.187745
       4.250000       2.515173       2.546762       0.190495
       4.260000       2.509859       2.540698       0.193106
       4.270000       2.497131       2.531109       0.195496
       4.280000       2.476660       2.518711       0.197648
       4.290000       2.448467       2.504062       0.199598
       4.300000       2.413032       2.487474       0.201422
       4.310000       2.371315       2.469106       0.203203
       4.320000       2.324732       2.449198       0.205006
       4.330000       2.275082       2.428369       0.206853
       4.340000       2.224414       2.407797       0.208726
       4.350000       2.174823       2.389160       0.210569
       4.360000       2.128216       2.374351       0.212302
       4.370000       2.086090       2.365043       0.213842
       4.380000       2.049375       2.362301       0.215112
       4.390000       2.018372       2.366340       0.216055
       4.400000       1.992788       2.376512       0.216635
       4.410000       1.971864       2.391484       0.216842
       4.420000       1.954541       2.409561       0.216690
       4.430000       1.939641       2.429059       0.216213
       4.440000       1.926024       2.448617       0.215461
       4.450000       1.912723       2.467370       0.214490
       4.460000       1.899071       2.484953       0.213363
       4.470000       1.884803       2.501351       0.212144
       4.480000       1.870133       2.516662       0.210898
       4.490000       1.855730       2.530824       0.209693
       4.500000       1.842609       2.543374       0.208586
       4.510000       1.831944       2.553337       0.207607
       4.520000       1.824878       2.559300       0.206753
       4.530000       1.822386       2.559698       0.205975
       4.540000       1.825206       2.553225       0.205192
       4.550000       1.833836       2.539184       0.204299
       4.560000       1.848569       2.517660       0.203200
       4.570000       1.869533       2.489464       0.201828
       4.580000       1.896683       2.455935       0.200165
       4.590000       1.929734       2.418721       0.198243
       4.600000       1.968035       2.379598       0.196133
       4.610000       2.010438       2.340356       0.193921
       4.620000       2.055247       2.302709       0.191688
       4.630000       2.100280       2.268225       0.189503
       4.640000       2.143085       2.238270       0.187412
       4.650000       2.181252       2.213956       0.185448
       4.660000       2.212769       2.196123       0.183636
       4.670000       2.236311       2.185337       0.182002
       4.680000       2.251372       2.181906       0.180575
       4.690000       2.258224       2.185886       0.179395
       4.700000       2.257720       2.197033       0.178501
       4.710000       2.251004       2.214687       0.177931
       4.720000       2.239213       2.237622       0.177703
       4.730000       2.223242       2.263930       0.177805
       4.740000       2.203653       2.291066       0.178184
       4.750000       2.180735       2.316100       0.178743
       4.760000       2.154711       2.336163       0.179350
       4.770000       2.126001       2.348965       0.179851
       4.780000       2.095435       2.353178       0.180099
       4.790000       2.064284       2.348537       0.179969
       4.800000       2.034102       2.335641       0.179386
       4.810000       2.006428       2.315590       0.178324
       4.820000       1.982502       2.289680       0.176814
       4.830000       1.963069       2.259242       0.174926
       4.840000       1.948331       2.225649       0.172756
       4.850000       1.938000       2.190340       0.170405
       4.860000       1.931406       2.154796       0.167970
       4.870000       1.927628       2.120433       0.165528
       4.880000       1.925612       2.088463       0.163138
       4.890000       1.924296       2.059791       0.160847
       4.900000       1.922697       2.034965       0.158689
       4.910000       1.919988       2.014181       0.156698
       4.920000       1.915538       1.997328       0.154914
       4.930000       1.908962       1.984079       0.153379
       4.940000       1.900167       1.974004       0.152140
       4.950000       1.889391       1.966673       0.151245
       4.960000       1.877211       1.961723       0.150733
       4.970000       1.864484       1.958856       0.150640
       4.980000       1.852240       1.957800       0.150990
       4.990000       1.841570       1.958252       0.151798
       5.000000       1.833546       1.959861       0.153071
       5.010000       1.829201       1.962242       0.154805
       5.020000       1.829529       1.965022       0.156982
       5.030000       1.835458       1.967895       0.159567
       5.040000       1.847781       1.970685       0.162503
       5.050000       1.867035       1.973383       0.165697
       5.060000       1.893385       1.976168       0.169029
       5.070000       1.926543       1.979400       0.172346
       5.080000       1.965764       1.983590       0.175486
       5.090000       2.009926       1.989348       0.178302
       5.100000       2.057681       1.997296       0.180682
       5.110000       2.107642       2.007970       0.182565
       5.120000       2.158536       2.021723       0.183933
       5.130000       2.209267       2.038648       0.184802
       5.140000       2.258864       2.058511       0.185194
       5.150000       2.306352       2.080690       0.185135
       5.160000       2.350608       2.104166       0.184637
       5.170000       2.390302       2.127586       0.183712
       5.180000       2.423982       2.149463       0.182369
       5.190000       2.450305       2.168453       0.180627
       5.200000       2.468336       2.183643       0.178520
       5.210000       2.477760       2.194688       0.176105
       5.220000       2.478915       2.201774       0.173459
       5.230000       2.472603       2.205424       0.170681
       5.240000       2.459811       2.206282       0.167884
       5.250000       2.441501       2.204978       0.165185
       5.260000       2.418574       2.202089       0.162693
       5.270000       2.392000       2.198166       0.160496
       5.280000       2.363002       2.193779       0.158656
       5.290000       2.333157       2.189535       0.157204
       5.300000       2.304373       2.186064       0.156150
       5.310000       2.278727       2.183994       0.155490
       5.320000       2.258234       2.183893       0.155222
       5.330000       2.244610       2.186200       0.155349
       5.340000       2.239084       2.191135       0.155884
       5.350000       2.242300       2.198589       0.156845
       5.360000       2.254327       2.208055       0.158250
       5.370000       2.274774       2.218626       0.160109
       5.380000       2.302983       2.229133       0.162424
       5.390000       2.338204       2.238395       0.165185
       5.400000       2.379715       2.245534       0.168370
       5.410000       2.426797       2.250224       0.171951
       5.420000       2.478618       2.252806       0.175882
       5.430000       2.534074       2.254184       0.180101
       5.440000       2.591704       2.255566       0.184520
       5.450000       2.649744       2.258118       0.189020
       5.460000       2.706336       2.262686       0.193452
       5.470000       2.759815       2.269669       0.197647
       5.480000       2.808957       2.279062       0.201435
       5.490000       2.853061       2.290569       0.204668
       5.500000       2.891812       2.303703       0.207236
       5.510000       2.925016       2.317812       0.209077
       5.520000       2.952370       2.332084       0.210176
       5.530000       2.973440       2.345628       0.210565
       5.540000       2.987886       2.357677       0.210310
       5.550000       2.995850       2.367815       0.209507
       5.560000       2.998305       2.376123       0.208275
       5.570000       2.997195       2.383125       0.206741
       5.580000       2.995266       2.389569       0.205032
       5.590000       2.995669       2.396177       0.203260
       5.600000       3.001449       2.403508       0.201515
       5.610000       3.015119       2.411998       0.199862
       5.620000       3.038391       2.422123       0.198338
       5.630000       3.072102       2.434542       0.196959
       5.640000       3.116274       2.450095       0.195729
       5.650000       3.170220       2.469631       0.194642
       5.660000       3.232631       2.493728       0.193693
       5.670000       3.301621       2.522433       0.192880
       5.680000       3.374754       2.555097       0.192218
       5.690000       3.449133       2.590365       0.191741
       5.700000       3.521583       2.626317       0.191509
       5.710000       3.588950       2.660765       0.191594
       5.720000       3.648458       2.691626       0.192076
       5.730000       3.698025       2.717321       0.193021
       5.740000       3.736418       2.737068       0.194476
       5.750000       3.763205       2.751006       0.196456
       5.760000       3.778536       2.760097       0.198945
       5.770000       3.782857       2.765822       0.201895
       5.780000       3.776723       2.769755       0.205235
       5.790000       3.760808       2.773167       0.208877
       5.800000       3.736102       2.776843       0.212729
       5.810000       3.704169       2.781179       0.216696
       5.820000       3.667283       2.786498       0.220690
       5.830000       3.628326       2.793422       0.224626
       5.840000       3.590470       2.803086       0.228430
       5.850000       3.556794       2.817113       0.232036
       5.860000       3.529989       2.837390       0.235396
       5.870000       3.512216       2.865739       0.238474
       5.880000       3.505093       2.903618       0.241255
       5.890000       3.509707       2.951893       0.243737
       5.900000       3.526618       3.010696       0.245936
       5.910000       3.555811       3.079380       0.247884
       5.920000       3.596639       3.156589       0.249632
       5.930000       3.647773       3.240473       0.251239
       5.940000       3.707192       3.328977       0.252766
       5.950000       3.772252       3.420120       0.254261
       5.960000       3.839840       3.512102       0.255741
       5.970000       3.906590       3.603210       0.257190
       5.980000       3.969090       3.691576       0.258563
       5.990000       4.024044       3.774946       0.259812
       6.000000       4.068363       3.850611       0.260908
       6.010000       4.099260       3.915581       0.261867
       6.020000       4.114413       3.966964       0.262754
       6.030000       4.112214       4.002444       0.263673
       6.040000       4.092020       4.020669       0.264743
       6.050000       4.054281       4.021421       0.266075
       6.060000       4.000496       4.005546       0.267746
       6.070000       3.933013       3.974739       0.269784
       6.080000       3.854794       3.931302       0.272162
       6.090000       3.769191       3.877969       0.274805
       6.100000       3.679739       3.817776       0.277595
       6.110000       3.589919       3.753918       0.280393
       6.120000       3.502852       3.689495       0.283050
       6.130000       3.420990       3.627170       0.285434
       6.140000       3.345885       3.568808       0.287453
       6.150000       3.278156       3.515247       0.289064
       6.160000       3.217671       3.466288       0.290280
       6.170000       3.163859       3.420907       0.291159
       6.180000       3.116038       3.377611       0.291778
       6.190000       3.073610       3.334801       0.292213
       6.200000       3.036059       3.291033       0.292523
       6.210000       3.002768       3.245098       0.292740
       6.220000       2.972776       3.195954       0.292878
       6.230000       2.944609       3.142598       0.292949
       6.240000       2.916343       3.084054       0.292976
       6.250000       2.885900       3.019549       0.293003
       6.260000       2.851527       2.948851       0.293084
       6.270000       2.812244       2.872589       0.293274
       6.280000       2.768117       2.792346       0.293609
       6.290000       2.720218       2.710450       0.294095
       6.300000       2.670325       2.629557       0.294711
       6.310000       2.620465       2.552193       0.295415
       6.320000       2.572471       2.480432       0.296153
       6.330000       2.527699       2.415760       0.296872
       6.340000       2.486944       2.359089       0.297528
       6.350000       2.450520       2.310859       0.298099
       6.360000       2.418404       2.271137       0.298590
       6.370000       2.390343       2.239713       0.299043
       6.380000       2.365898       2.216140       0.299541
       6.390000       2.344437       2.199724       0.300191
       6.400000       2.325098       2.189480       0.301099
       6.410000       2.306766       2.184082       0.302343
       6.420000       2.288070       2.181894       0.303944
       6.430000       2.267457       2.181111       0.305857
       6.440000       2.243367       2.180013       0.307975
       6.450000       2.214534       2.177248       0.310145
       6.460000       2.180306       2.172067       0.312199
       6.470000       2.140853       2.164381       0.313984
       6.480000       2.097123       2.154639       0.315389
       6.490000       2.050574       2.143548       0.316361
       6.500000       2.002770       2.131756       0.316907
       6.510000       1.955049       2.119630       0.317093
       6.520000       1.908378       2.107207       0.317031
       6.530000       1.863411       2.094335       0.316860
       6.540000       1.820680       2.080930       0.316710
       6.550000       1.780768       2.067192       0.316683
       6.560000       1.744394       2.053694       0.316834
       6.570000       1.712350       2.041286       0.317168
       6.580000       1.685362       2.030872       0.317657
       6.590000       1.663927       2.023167       0.318263
       6.600000       1.648170       2.018489       0.318947
       6.610000       1.637783       2.016641       0.319690
       6.620000       1.632039       2.016887       0.320479
       6.630000       1.629911       2.018031       0.321309
       6.640000       1.630262       2.018616       0.322170
       6.650000       1.632064       2.017210       0.323042
       6.660000       1.634561       2.012715       0.323907
       6.670000       1.637315       2.004594       0.324760
       6.680000       1.640141       1.992936       0.325620
       6.690000       1.642950       1.978349       0.326535
       6.700000       1.645606       1.961756       0.327578
       6.710000       1.647858       1.944182       0.328833
       6.720000       1.649388       1.926626       0.330383
       6.730000       1.649941       1.910006       0.332294
       6.740000       1.649455       1.895148       0.334605
       6.750000       1.648092       1.882748       0.337331
       6.760000       1.646151       1.873322       0.340464
       6.770000       1.643892       1.867147       0.343991
       6.780000       1.641347       1.864255       0.347908
       6.790000       1.638215       1.864482       0.352222
       6.800000       1.633864       1.867567       0.356952
       6.810000       1.627471       1.873287       0.362120
       6.820000       1.618223       1.881570       0.367744
       6.830000       1.605537       1.892558       0.373840
       6.840000       1.589191       1.906566       0.380430
       6.850000       1.569343       1.923923       0.387555
       6.860000       1.546409       1.944732       0.395274
       6.870000       1.520868       1.968637       0.403664
       6.880000       1.493085       1.994728       0.412807
       6.890000       1.463243       2.021642       0.422772
       6.900000       1.431418       2.047850       0.433607
       6.910000       1.397724       2.072015       0.445333
       6.920000       1.362448       2.093276       0.457950
       6.930000       1.326088       2.111325       0.471451
       6.940000       1.289306       2.126275       0.485836
       6.950000       1.252832       2.138400       0.501126
       6.960000       1.217389       2.147909       0.517358
       6.970000       1.183666       2.154874       0.534583
       6.980000       1.152334       2.159335       0.552846
       6.990000       1.124055       2.161501       0.572172
       7.000000       1.099481       2.161895       0.592553
       7.010000       1.079199       2.161350       0.613945
       7.020000       1.063659       2.160845       0.636260
       7.030000       1.053093       2.161290       0.659372
       7.040000       1.047449       2.163374       0.683112
       7.050000       1.046351       2.167538       0.707279
       7.060000       1.049104       2.174033       0.731650
       7.070000       1.054741       2.182978       0.755994
       7.080000       1.062126       2.194381       0.780089
       7.090000       1.070112       2.208110       0.803741
       7.100000       1.077703       2.223864       0.826791
       7.110000       1.084193       2.241158       0.849111
       7.120000       1.089222       2.259345       0.870580
       7.130000       1.092748       2.277646       0.891051
       7.140000       1.094945       2.295188       0.910322
       7.150000       1.096086       2.311046       0.928143
       7.160000       1.096451       2.324304       0.944255
       7.170000       1.096265       2.334154       0.958462
       7.180000       1.095685       2.340029       0.970714
       7.190000       1.094798       2.341719       0.981169
       7.200000       1.093620       2.339393       0.990198
       7.210000       1.092094       2.333488       0.998327
       7.220000       1.090089       2.324509       1.006128
       7.230000       1.087420       2.312854       1.014099
       7.240000       1.083897       2.298786       1.022565
       7.250000       1.079399       2.282525       1.031648
       7.260000       1.073944       2.264404       1.041292
       7.270000       1.067726       2.244915       1.051335
       7.280000       1.061100       2.224634       1.061592
       7.290000       1.054502       2.204043       1.071920
       7.300000       1.048338       2.183368       1.082240
       7.310000       1.042867       2.162535       1.092527
       7.320000       1.038131       2.141249       1.102780
       7.330000       1.033927       2.119167       1.112969
       7.340000       1.029845       2.096066       1.122973
       7.350000       1.025332       2.071949       1.132522
       7.360000       1.019783       2.047056       1.141181
       7.370000       1.012645       2.021799       1.148374
       7.380000       1.003511       1.996666       1.153488
       7.390000       0.992207       1.972129       1.155983
       7.400000       0.978820       1.948601       1.155501
       7.410000       0.963664       1.926441       1.151906
       7.420000       0.947190       1.905998       1.145272
       7.430000       0.929869       1.887638       1.135830
       7.440000       0.912098       1.871721       1.123901
       7.450000       0.894160       1.858515       1.109853
       7.460000       0.876230       1.848055       1.094064
       7.470000       0.858436       1.840016       1.076914
       7.480000       0.840927       1.833670       1.058770
       7.490000       0.823929       1.827965       1.039985
       7.500000       0.807747       1.821699       1.020893
       7.510000       0.792726       1.813736       1.001822
       7.520000       0.779186       1.803170       0.983106
       7.530000       0.767350       1.789426       0.965104
       7.540000       0.757303       1.772297       0.948203
       7.550000       0.748988       1.751932       0.932809
       7.560000       0.742235       1.728783       0.919321
       7.570000       0.736815       1.703498       0.908114
       7.580000       0.732506       1.676762       0.899522
       7.590000       0.729150       1.649154       0.893855
       7.600000       0.726687       1.621053       0.891401
       7.610000       0.725162       1.592639       0.892452
       7.620000       0.724710       1.563962       0.897294
       7.630000       0.725538       1.535050       0.906206
       7.640000       0.727901       1.506001       0.919434
       7.650000       0.732068       1.477034       0.937165
       7.660000       0.738268       1.448488       0.959497
       7.670000       0.746626       1.420775       0.986407
       7.680000       0.757091       1.394329       1.017712
       7.690000       0.769392       1.369538       1.053031
       7.700000       0.783023       1.346687       1.091741
       7.710000       0.797277       1.325905       1.132945
       7.720000       0.811346       1.307138       1.175487
       7.730000       0.824443       1.290146       1.218029
       7.740000       0.835934       1.274565       1.259215
       7.750000       0.845422       1.259999       1.297850
       7.760000       0.852766       1.246134       1.333062
       7.770000       0.858041       1.232831       1.364361
       7.780000       0.861488       1.220178       1.391611
       7.790000       0.863472       1.208483       1.414931
       7.800000       0.864468       1.198231       1.434599
       7.810000       0.865031       1.190011       1.451004
       7.820000       0.865759       1.184425       1.464621
       7.830000       0.867243       1.181991       1.476009
       7.840000       0.870009       1.183053       1.485768
       7.850000       0.874492       1.187703       1.494459
       7.860000       0.881014       1.195733       1.502494
       7.870000       0.889792       1.206616       1.510044
       7.880000       0.900951       1.219522       1.516992
       7.890000       0.914547       1.233379       1.522959
       7.900000       0.930593       1.246975       1.527414
       7.910000       0.949076       1.259104       1.529828
       7.920000       0.969977       1.268722       1.529846
       7.930000       0.993292       1.275073       1.527423
       7.940000       1.019062       1.277772       1.522877
       7.950000       1.047390       1.276836       1.516832
       7.960000       1.078451       1.272655       1.510080
       7.970000       1.112462       1.265920       1.503400
       7.980000       1.149626       1.257493       1.497396
       7.990000       1.190083       1.248279       1.492411
       8.000000       1.233894       1.239126       1.488537
       8.010000       1.281066       1.230778       1.485706
       8.020000       1.331611       1.223877       1.483825
       8.030000       1.385616       1.218981       1.482889
       8.040000       1.443270       1.216579       1.483049
       8.050000       1.504829       1.217083       1.484607
       8.060000       1.570495       1.220796       1.487969
       8.070000       1.640237       1.227875       1.493581
       8.080000       1.713591       1.238312       1.501881
       8.090000       1.789508       1.251967       1.513276
       8.100000       1.866316       1.268620       1.528141
       8.110000       1.941868       1.288030       1.546842
       8.120000       2.013859       1.309946       1.569756
       8.130000       2.080271       1.334040       1.597290
       8.140000       2.139779       1.359790       1.629887
       8.150000       2.191941       1.386359       1.668021
       8.160000       2.237056       1.412567       1.712187
       8.170000       2.275706       1.437006       1.762884
       8.180000       2.308183       1.458298       1.820594
       8.190000       2.334014       1.475402       1.885750
       8.200000       2.351802       1.487829       1.958701
       8.210000       2.359425       1.495696       2.039678
       8.220000       2.354536       1.499575       2.128792
       8.230000       2.335224       1.500271       2.226053
       8.240000       2.300650       1.498610       2.331404
       8.250000       2.251472       1.495363       2.444706
       8.260000       2.189930       1.491274       2.565665
       8.270000       2.119572       1.487150       2.693704
       8.280000       2.044704       1.483927       2.827839
       8.290000       1.969750       1.482652       2.966604
       8.300000       1.898680       1.484404       3.108056
       8.310000       1.834626       1.490158       3.249852
       8.320000       1.779708       1.500628       3.389358
       8.330000       1.735044       1.516127       3.523790
       8.340000       1.700875       1.536470       3.650373
       8.350000       1.676758       1.560949       3.766498
       8.360000       1.661773       1.588419       3.869876
       8.370000       1.654729       1.617441       3.958652
       8.380000       1.654321       1.646460       4.031495
       8.390000       1.659252       1.673945       4.087654
       8.400000       1.668312       1.698479       4.126986
       8.410000       1.680437       1.718819       4.149933
       8.420000       1.694741       1.733964       4.157434
       8.430000       1.710491       1.743254       4.150781
       8.440000       1.727016       1.746469       4.131445
       8.450000       1.743558       1.743873       4.100918
       8.460000       1.759118       1.736150       4.060610
       8.470000       1.772409       1.724234       4.011837
       8.480000       1.781945       1.709094       3.955865
       8.490000       1.786288       1.691567       3.894016
       8.500000       1.784360       1.672312       3.827763
       8.510000       1.775734       1.651848       3.758767
       8.520000       1.760780       1.630644       3.688826
       8.530000       1.740593       1.609165       3.619704
       8.540000       1.716721       1.587872       3.552901
       8.550000       1.690750       1.567197       3.489406
       8.560000       1.663929       1.547533       3.429558
       8.570000       1.636937       1.529289       3.373059
       8.580000       1.609889       1.512981       3.319190
       8.590000       1.582521       1.499292       3.267139
       8.600000       1.554488       1.489062       3.216337
       8.610000       1.525616       1.483180       3.166645
       8.620000       1.496024       1.482417       3.118351
       8.630000       1.466089       1.487259       3.071997
       8.640000       1.436296       1.497808       3.028122
       8.650000       1.407080       1.513758       2.987059
       8.660000       1.378737       1.534464       2.948859
       8.670000       1.351444       1.559053       2.913340
       8.680000       1.325364       1.586579       2.880201
       8.690000       1.300782       1.616182       2.849128
       8.700000       1.278205       1.647246       2.819842
       8.710000       1.258361       1.679498       2.792119
       8.720000       1.242103       1.713011       2.765773
       8.730000       1.230252       1.748075       2.740651
       8.740000       1.223434       1.785005       2.716612
       8.750000       1.221973       1.823959       2.693528
       8.760000       1.225832       1.864832       2.671306
       8.770000       1.234624       1.907242       2.649916
       8.780000       1.247657       1.950558       2.629400
       8.790000       1.264024       1.993940       2.609827
       8.800000       1.282713       2.036358       2.591197
       8.810000       1.302737       2.076614       2.573321
       8.820000       1.323273       2.113399       2.555744
       8.830000       1.343769       2.145406       2.537751
       8.840000       1.363993       2.171496       2.518493
       8.850000       1.383983       2.190818       2.497188
       8.860000       1.403914       2.202846       2.473321
       8.870000       1.423896       2.207319       2.446760
       8.880000       1.443790       2.204148       2.417733
       8.890000       1.463084       2.193369       2.386686
       8.900000       1.480869       2.175164       2.354113
       8.910000       1.495922       2.149956       2.320432
       8.920000       1.506910       2.118508       2.285960
       8.930000       1.512683       2.081965       2.250974
       8.940000       1.512588       2.041788       2.215831
       8.950000       1.506708       1.999580       2.181069
       8.960000       1.495937       1.956881       2.147459
       8.970000       1.481874       1.915010       2.115990
       8.980000       1.466562       1.875008       2.087771
       8.990000       1.452174       1.837664       2.063892
       9.000000       1.440745       1.803580       2.045270
       9.010000       1.433985       1.773191       2.032525
       9.020000       1.433163       1.746747       2.025932
       9.030000       1.439040       1.724263       2.025455
       9.040000       1.451815       1.705495       2.030863
       9.050000       1.471081       1.689971       2.041857
       9.060000       1.495836       1.677099       2.058172
       9.070000       1.524564       1.666299       2.079602
       9.080000       1.555420       1.657138       2.105958
       9.090000       1.586507       1.649386       2.136987
       9.100000       1.616165       1.642983       2.172307
       9.110000       1.643195       1.637920       2.211390
       9.120000       1.666924       1.634092       2.253589
       9.130000       1.687121       1.631189       2.298189
       9.140000       1.703833       1.628705       2.344479
       9.150000       1.717246       1.626053       2.391803
       9.160000       1.727610       1.622768       2.439615
       9.170000       1.735215       1.618699       2.487499
       9.180000       1.740357       1.614126       2.535170
       9.190000       1.743286       1.609755       2.582430
       9.200000       1.744136       1.606602       2.629094
       9.210000       1.742896       1.605809       2.674915
       9.220000       1.739434       1.608434       2.719517
       9.230000       1.733567       1.615250       2.762377
       9.240000       1.725159       1.626613       2.802864
       9.250000       1.714214       1.642421       2.840332
       9.260000       1.700930       1.662176       2.874235
       9.270000       1.685718       1.685136       2.904242
       9.280000       1.669176       1.710480       2.930299
       9.290000       1.652020       1.737425       2.952647
       9.300000       1.635001       1.765240       2.971793
       9.310000       1.618791       1.793149       2.988438
       9.320000       1.603900       1.820200       3.003385
       9.330000       1.590613       1.845188       3.017389
       9.340000       1.578996       1.866731       3.030989
       9.350000       1.568929       1.883507       3.044356
       9.360000       1.560185       1.894585       3.057221
       9.370000       1.552505       1.899705       3.068956
       9.380000       1.545685       1.899350       3.078779
       9.390000       1.539627       1.894585       3.086031
       9.400000       1.534360       1.886716       3.090380
       9.410000       1.530017       1.876929       3.091858
       9.420000       1.526785       1.866033       3.090745
       9.430000       1.524833       1.854361       3.087374
       9.440000       1.524253       1.841811       3.081997
       9.450000       1.525038       1.828013       3.074757
       9.460000       1.527103       1.812546       3.065763
       9.470000       1.530335       1.795173       3.055158
       9.480000       1.534632       1.775982       3.043128
       9.490000       1.539886       1.755415       3.029823
       9.500000       1.545935       1.734172       3.015258
       9.510000       1.552506       1.713051       2.999261
       9.520000       1.559195       1.692793       2.981517
       9.530000       1.565487       1.673961       2.961696
       9.540000       1.570818       1.656882       2.939626
       9.550000       1.574666       1.641627       2.915407
       9.560000       1.576654       1.628039       2.889450
       9.570000       1.576633       1.615778       2.862398
       9.580000       1.574701       1.604386       2.835010
       9.590000       1.571144       1.593376       2.808036
       9.600000       1.566317       1.582316       2.782133
       9.610000       1.560519       1.570930       2.757811
       9.620000       1.553956       1.559164       2.735383
       9.630000       1.546808       1.547220       2.714929
       9.640000       1.539363       1.535522       2.696279
       9.650000       1.532109       1.524601       2.679057
       9.660000       1.525701       1.514947       2.662766
       9.670000       1.520786       1.506843       2.646903
       9.680000       1.517768       1.500245       2.631060
       9.690000       1.516611       1.494750       2.614982
       9.700000       1.516782       1.489649       2.598577
       9.710000       1.517354       1.484058       2.581873
       9.720000       1.517229       1.477098       2.564959
       9.730000       1.515426       1.468075       2.547912
       9.740000       1.511314       1.456604       2.530759
       9.750000       1.504746       1.442661       2.513455
       9.760000       1.496053       1.426543       2.495892
       9.770000       1.485945       1.408779       2.477903
       9.780000       1.475350       1.390028       2.459258
       9.790000       1.465242       1.371006       2.439662
       9.800000       1.456454       1.352447       2.418777
       9.810000       1.449497       1.335072       2.396289
       9.820000       1.444426       1.319559       2.371997
       9.830000       1.440806       1.306517       2.345890
       9.840000       1.437813       1.296461       2.318178
       9.850000       1.434462       1.289804       2.289265
       9.860000       1.429888       1.286840       2.259702
       9.870000       1.423605       1.287713       2.230136
       9.880000       1.415629       1.292361       2.201276
       9.890000       1.406432       1.300467       2.173873
       9.900000       1.396749       1.311429       2.148695
       9.910000       1.387326       1.324364       2.126483
       9.920000       1.378719       1.338166       2.107895
       9.930000       1.371188       1.351598       2.093455
       9.940000       1.364719       1.363397       2.083513
       9.950000       1.359116       1.372396       2.078240
       9.960000       1.354098       1.377639       2.077629
       9.970000       1.349359       1.378476       2.081505
       9.980000       1.344566       1.374623       2.089512
       9.990000       1.339330       1.366151       2.101105
      10.000000       1.333195       1.353403       2.115558
      10.010000       1.325683       1.336877       2.131982
      10.020000       1.316379       1.317117       2.149401
      10.030000       1.305043       1.294659       2.166854
      10.040000       1.291679       1.270016       2.183542
      10.050000       1.276558       1.243660       2.198973
      10.060000       1.260172       1.216010       2.213062
      10.070000       1.243144       1.187408       2.226139
      10.080000       1.226120       1.158124       2.238866
      10.090000       1.209662       1.128372       2.252082
      10.100000       1.194179       1.098342       2.266664
      10.110000       1.179910       1.068234       2.283426
      10.120000       1.166957       1.038272       2.303104
      10.130000       1.155340       1.008737       2.326366
      10.140000       1.145042       0.979976       2.353823
      10.150000       1.136029       0.952398       2.386005
      10.160000       1.128237       0.926440       2.423301
      10.170000       1.121560       0.902498       2.465891
      10.180000       1.115841       0.880868       2.513673
      10.190000       1.110890       0.861694       2.566217
      10.200000       1.106516       0.844946       2.622739
      10.210000       1.102565       0.830428       2.682129
      10.220000       1.098933       0.817820       2.743033
      10.230000       1.095530       0.806743       2.803999
      10.240000       1.092219       0.796826       2.863644
      10.250000       1.088755       0.787753       2.920787
      10.260000       1.084769       0.779275       2.974510
      10.270000       1.079833       0.771188       3.024109
      10.280000       1.073572       0.763311       3.068952
      10.290000       1.065802       0.755488       3.108293
      10.300000       1.056645       0.747619       3.141144
      10.310000       1.046574       0.739706       3.166269
      10.320000       1.036385       0.731875       3.182310
      10.330000       1.027084       0.724369       3.187993
      10.340000       1.019730       0.717497       3.182325
      10.350000       1.015265       0.711579       3.164703
      10.360000       1.014370       0.706910       3.134935
      10.370000       1.017397       0.703748       3.093204
      10.380000       1.024353       0.702319       3.040040
      10.390000       1.034949       0.702829       2.976307
      10.400000       1.048664       0.705468       2.903219
      10.410000       1.064795       0.710401       2.822329
      10.420000       1.082494       0.717750       2.735486
      10.430000       1.100766       0.727565       2.644727
      10.440000       1.118469       0.739796       2.552135
      10.450000       1.134358       0.754279       2.459683
      10.460000       1.147194       0.770732       2.369089
      10.470000       1.155927       0.788785       2.281738
      10.480000       1.159894       0.808025       2.198648
      10.490000       1.158959       0.828025       2.120515
      10.500000       1.153526       0.848370       2.047775
      10.510000       1.144447       0.868637       1.980682
      10.520000       1.132840       0.888377       1.919349
      10.530000       1.119892       0.907092       1.863767
      10.540000       1.106688       0.924254       1.813794
      10.550000       1.094083       0.939354       1.769155
      10.560000       1.082646       0.951972       1.729465
      10.570000       1.072636       0.961843       1.694288
      10.580000       1.064026       0.968886       1.663202
      10.590000       1.056568       0.973195       1.635868
      10.600000       1.049870       0.975003       1.612083
      10.610000       1.043483       0.974651       1.591791
      10.620000       1.036973       0.972551       1.575062
      10.630000       1.029962       0.969139       1.562022
      10.640000       1.022153       0.964832       1.552765
      10.650000       1.013342       0.959962       1.547272
      10.660000       1.003453       0.954726       1.545339
      10.670000       0.992574       0.949149       1.546543
      10.680000       0.980981       0.943078       1.550237
      10.690000       0.969115       0.936209       1.555591
      10.700000       0.957500       0.928141       1.561673
      10.710000       0.946619       0.918463       1.567561
      10.720000       0.936793       0.906853       1.572453
      10.730000       0.928102       0.893173       1.575756
      10.740000       0.920374       0.877536       1.577103
      10.750000       0.913236       0.860313       1.576333
      10.760000       0.906219       0.842080       1.573425
      10.770000       0.898875       0.823519       1.568446
      10.780000       0.890871       0.805302       1.561523
      10.790000       0.882048       0.788000       1.552834
      10.800000       0.872427       0.772032       1.542592
      10.810000       0.862191       0.757653       1.531012
      10.820000       0.851629       0.744969       1.518267
      10.830000       0.841091       0.733968       1.504466
      10.840000       0.830936       0.724543       1.489671
      10.850000       0.821492       0.716513       1.473946
      10.860000       0.813028       0.709639       1.457403
      10.870000       0.805728       0.703649       1.440216
      10.880000       0.799664       0.698264       1.422589
      10.890000       0.794771       0.693232       1.404699
      10.900000       0.790830       0.688359       1.386634
      10.910000       0.787478       0.683533       1.368377
      10.920000       0.784242       0.678748       1.349818
      10.930000       0.780617       0.674112       1.330808
      10.940000       0.776160       0.669842       1.311211
      10.950000       0.770575       0.666228       1.290940
      10.960000       0.763783       0.663589       1.269975
      10.970000       0.755927       0.662218       1.248362
      10.980000       0.747342       0.662332       1.226215
      10.990000       0.738483       0.664037       1.203709
      11.000000       0.729842       0.667316       1.181066
      11.010000       0.721870       0.672013       1.158535
      11.020000       0.714914       0.677849       1.136347
      11.030000       0.709192       0.684445       1.114692
      11.040000       0.704797       0.691381       1.093705
      11.050000       0.701726       0.698265       1.073483
      11.060000       0.699931       0.704805       1.054111
      11.070000       0.699358       0.710846       1.035677
      11.080000       0.699966       0.716350       1.018266
      11.090000       0.701727       0.721321       1.001923
      11.100000       0.704609       0.725700       0.986612
      11.110000       0.708569       0.729298       0.972195
      11.120000       0.713559       0.731793       0.958442
      11.130000       0.719543       0.732809       0.945063
      11.140000       0.726522       0.732033       0.931772
      11.150000       0.734530       0.729327       0.918326
      11.160000       0.743600       0.724780       0.904566
      11.170000       0.753710       0.718680       0.890425
      11.180000       0.764710       0.711429       0.875934
      11.190000       0.776284       0.703433       0.861212
      11.200000       0.787950       0.695013       0.846462
      11.210000       0.799103       0.686356       0.831941
      11.220000       0.809085       0.677513       0.817924
      11.230000       0.817256       0.668425       0.804661
      11.240000       0.823052       0.658974       0.792342
      11.250000       0.826027       0.649037       0.781070
      11.260000       0.825887       0.638534       0.770861
      11.270000       0.822540       0.627459       0.761647
      11.280000       0.816133       0.615893       0.753291
      11.290000       0.807066       0.603994       0.745615
      11.300000       0.795942       0.591967       0.738423
      11.310000       0.783466       0.580025       0.731526
      11.320000       0.770320       0.568346       0.724756
      11.330000       0.757078       0.557046       0.717981
      11.340000       0.744172       0.546170       0.711107
      11.350000       0.731922       0.535701       0.704087
      11.360000       0.720593       0.525579       0.696914
      11.370000       0.710439       0.515732       0.689610
      11.380000       0.701719       0.506108       0.682208
      11.390000       0.694662       0.496699       0.674722
      11.400000       0.689396       0.487557       0.667135
      11.410000       0.685882       0.478789       0.659393
      11.420000       0.683864       0.470534       0.651427
      11.430000       0.682872       0.462919       0.643192
      11.440000       0.682284       0.456036       0.634693
      11.450000       0.681433       0.449914       0.626007
      11.460000       0.679733       0.444529       0.617266
      11.470000       0.676786       0.439823       0.608634
      11.480000       0.672444       0.435725       0.600276
      11.490000       0.666798       0.432180       0.592348
      11.500000       0.660104       0.429161       0.584993
      11.510000       0.652676       0.426666       0.578351
      11.520000       0.644792       0.424713       0.572555
      11.530000       0.636646       0.423317       0.567715
      11.540000       0.628357       0.422492       0.563879
      11.550000       0.620000       0.422241       0.561011
      11.560000       0.611651       0.422565       0.558969
      11.570000       0.603397       0.423457       0.557532
      11.580000       0.595340       0.424899       0.556445
      11.590000       0.587594       0.426869       0.555484
      11.600000       0.580277       0.429342       0.554510
      11.610000       0.573500       0.432312       0.553512
      11.620000       0.567355       0.435803       0.552604
      11.630000       0.561890       0.439882       0.552006
      11.640000       0.557091       0.444647       0.551981
      11.650000       0.552878       0.450222       0.552772
      11.660000       0.549130       0.456722       0.554531
      11.670000       0.545729       0.464242       0.557269
      11.680000       0.542598       0.472831       0.560836
      11.690000       0.539722       0.482470       0.564927
      11.700000       0.537149       0.493045       0.569136
      11.710000       0.534952       0.504325       0.573027
      11.720000       0.533204       0.515954       0.576208
      11.730000       0.531945       0.527457       0.578398
      11.740000       0.531171       0.538264       0.579443
      11.750000       0.530831       0.547748       0.579313
      11.760000       0.530844       0.555282       0.578066
      11.770000       0.531108       0.560324       0.575811
      11.780000       0.531512       0.562518       0.572682
      11.790000       0.531942       0.561787       0.568822
      11.800000       0.532279       0.558369       0.564378
      11.810000       0.532406       0.552790       0.559491
      11.820000       0.532221       0.545767       0.554280
      11.830000       0.531652       0.538067       0.548823
      11.840000       0.530672       0.530383       0.543139
      11.850000       0.529304       0.523230       0.537199
      11.860000       0.527602       0.516912       0.530937
      11.870000       0.525631       0.511521       0.524289
      11.880000       0.523440       0.506989       0.517217
      11.890000       0.521047       0.503158       0.509730
      11.900000       0.518436       0.499863       0.501881
      11.910000       0.515565       0.497002       0.493759
      11.920000       0.512375       0.494574       0.485471
      11.930000       0.508805       0.492682       0.477125
      11.940000       0.504814       0.491496       0.468821
      11.950000       0.500399       0.491187       0.460653
      11.960000       0.495613       0.491865       0.452699
      11.970000       0.490563       0.493536       0.445026
      11.980000       0.485394       0.496086       0.437677
      11.990000       0.480253       0.499304       0.430667
      12.000000       0.475264       0.502926       0.423980
      12.010000       0.470513       0.506690       0.417564
      12.020000       0.466055       0.510389       0.411341
      12.030000       0.461932       0.513906       0.405221
      12.040000       0.458202       0.517221       0.399113
      12.050000       0.454953       0.520377       0.392955
      12.060000       0.452304       0.523421       0.386724
      12.070000       0.450384       0.526341       0.380443
      12.080000       0.449309       0.529021       0.374180
      12.090000       0.449157       0.531250       0.368020
      12.100000       0.449957       0.532769       0.362040
      12.110000       0.451688       0.533341       0.356283
      12.120000       0.454293       0.532816       0.350749
      12.130000       0.457699       0.531161       0.345397
      12.140000       0.461843       0.528445       0.340160
      12.150000       0.466693       0.524804       0.334960
      12.160000       0.472253       0.520414       0.329737
      12.170000       0.478556       0.515465       0.324458
      12.180000       0.485649       0.510166       0.319126
      12.190000       0.493554       0.504739       0.313779
      12.200000       0.502225       0.499415       0.308473
      12.210000       0.511493       0.494418       0.303268
      12.220000       0.521031       0.489960       0.298217
      12.230000       0.530329       0.486225       0.293357
      12.240000       0.538732       0.483367       0.288714
      12.250000       0.545525       0.481491       0.284299
      12.260000       0.550068       0.480647       0.280114
      12.270000       0.551938       0.480815       0.276142
      12.280000       0.551035       0.481912       0.272346
      12.290000       0.547598       0.483802       0.268673
      12.300000       0.542145       0.486326       0.265063
      12.310000       0.535341       0.489321       0.261466
      12.320000       0.527856       0.492637       0.257857
      12.330000       0.520255       0.496135       0.254238
      12.340000       0.512935       0.499687       0.250641
      12.350000       0.506105       0.503170       0.247112
      12.360000       0.499810       0.506473       0.243701
      12.370000       0.493953       0.509499       0.240449
      12.380000       0.488329       0.512172       0.237385
      12.390000       0.482662       0.514435       0.234524
      12.400000       0.476651       0.516232       0.231862
      12.410000       0.470030       0.517494       0.229383
      12.420000       0.462623       0.518124       0.227059
      12.430000       0.454388       0.518002       0.224860
      12.440000       0.445424       0.517012       0.222755
      12.450000       0.435941       0.515072       0.220726
      12.460000       0.426205       0.512173       0.218767
      12.470000       0.416481       0.508392       0.216892
      12.480000       0.406989       0.503886       0.215127
      12.490000       0.397886       0.498862       0.213507
      12.500000       0.389260       0.493545       0.212064
      12.510000       0.381144       0.488149       0.210811
      12.520000       0.373532       0.482871       0.209743
      12.530000       0.366398       0.477887       0.208831
      12.540000       0.359716       0.473346       0.208035
      12.550000       0.353469       0.469357       0.207307
      12.560000       0.347671       0.465971       0.206610
      12.570000       0.342376       0.463179       0.205919
      12.580000       0.337678       0.460925       0.205228
      12.590000       0.333696       0.459124       0.204544
      12.600000       0.330555       0.457683       0.203882
      12.610000       0.328358       0.456509       0.203260
      12.620000       0.327171       0.455509       0.202690
      12.630000       0.327022       0.454597       0.202167
      12.640000       0.327901       0.453704       0.201666
      12.650000       0.329774       0.452806       0.201141
      12.660000       0.332591       0.451943       0.200535
      12.670000       0.336297       0.451232       0.199796
      12.680000       0.340830       0.450854       0.198893
      12.690000       0.346111       0.451020       0.197822
      12.700000       0.352031       0.451916       0.196616
      12.710000       0.358438       0.453655       0.195329
      12.720000       0.365121       0.456233       0.194027
      12.730000       0.371825       0.459514       0.192774
      12.740000       0.378268       0.463242       0.191623
      12.750000       0.384180       0.467091       0.190604
      12.760000       0.389337       0.470724       0.189732
      12.770000       0.393598       0.473867       0.189009
      12.780000       0.396911       0.476362       0.188431
      12.790000       0.399314       0.478186       0.187995
      12.800000       0.400911       0.479441       0.187698
      12.810000       0.401847       0.480304       0.187541
      12.820000       0.402286       0.480960       0.187526
      12.830000       0.402391       0.481554       0.187651
      12.840000       0.402313       0.482158       0.187913
      12.850000       0.402188       0.482782       0.188310
      12.860000       0.402127       0.483399       0.188831
      12.870000       0.402204       0.483979       0.189467
      12.880000       0.402448       0.484512       0.190198
      12.890000       0.402841       0.485019       0.191005
      12.900000       0.403329       0.485543       0.191867
      12.910000       0.403845       0.486137       0.192768
      12.920000       0.404335       0.486856       0.193696
      12.930000       0.404775       0.487747       0.194639
      12.940000       0.405183       0.488842       0.195590
      12.950000       0.405603       0.490151       0.196537
      12.960000       0.406088       0.491662       0.197476
      12.970000       0.406678       0.493347       0.198407
      12.980000       0.407386       0.495168       0.199336
      12.990000       0.408211       0.497096       0.200272
      13.000000       0.409152       0.499120       0.201223
      13.010000       0.410229       0.501260       0.202192
      13.020000       0.411488       0.503557       0.203177
      13.030000       0.412997       0.506053       0.204174
      13.040000       0.414826       0.508767       0.205180
      13.050000       0.417037       0.511665       0.206191
      13.060000       0.419677       0.514639       0.207209
      13.070000       0.422779       0.517510       0.208241
      13.080000       0.426357       0.520035       0.209304
      13.090000       0.430404       0.521946       0.210418
      13.100000       0.434861       0.522989       0.211601
      13.110000       0.439599       0.522966       0.212865
      13.120000       0.444394       0.521765       0.214206
      13.130000       0.448936       0.519363       0.215603
      13.140000       0.452864       0.515815       0.217016
      13.150000       0.455841       0.511233       0.218401
      13.160000       0.457625       0.505766       0.219719
      13.170000       0.458132       0.499585       0.220950
      13.180000       0.457443       0.492872       0.222100
      13.190000       0.455763       0.485803       0.223194
      13.200000       0.453338       0.478543       0.224263
      13.210000       0.450375       0.471234       0.225330
      13.220000       0.446991       0.464004       0.226395
      13.230000       0.443211       0.456971       0.227427
      13.240000       0.438996       0.450244       0.228376
      13.250000       0.434303       0.443923       0.229189
      13.260000       0.429117       0.438091       0.229829
      13.270000       0.423485       0.432807       0.230295
      13.280000       0.417504       0.428106       0.230614
      13.290000       0.411309       0.423995       0.230835
      13.300000       0.405039       0.420458       0.231009
      13.310000       0.398812       0.417465       0.231170
      13.320000       0.392702       0.414977       0.231336
      13.330000       0.386735       0.412964       0.231505
      13.340000       0.380899       0.411413       0.231674
      13.350000       0.375166       0.410329       0.231839
      13.360000       0.369521       0.409725       0.232006
      13.370000       0.363977       0.409589       0.232193
      13.380000       0.358581       0.409857       0.232422
      13.390000       0.353407       0.410384       0.232726
      13.400000       0.348536       0.410941       0.233146
      13.410000       0.344050       0.411227       0.233737
      13.420000       0.340019       0.410915       0.234568
      13.430000       0.336495       0.409706       0.235717
      13.440000       0.333510       0.407398       0.237269
      13.450000       0.331072       0.403938       0.239295
      13.460000       0.329161       0.399431       0.241845
      13.470000       0.327733       0.394113       0.244934
      13.480000       0.326718       0.388290       0.248533
      13.490000       0.326021       0.382275       0.252574
      13.500000       0.325524       0.376339       0.256953
      13.510000       0.325085       0.370684       0.261556
      13.520000       0.324540       0.365443       0.266274
      13.530000       0.323715       0.360694       0.271022
      13.540000       0.322447       0.356481       0.275752
      13.550000       0.320610       0.352838       0.280443
      13.560000       0.318146       0.349807       0.285095
      13.570000       0.315071       0.347442       0.289709
      13.580000       0.311480       0.345802       0.294279
      13.590000       0.307517       0.344934       0.298790
      13.600000       0.303347       0.344853       0.303219
      13.610000       0.299131       0.345528       0.307546
      13.620000       0.295001       0.346884       0.311755
      13.630000       0.291053       0.348800       0.315841
      13.640000       0.287340       0.351127       0.319792
      13.650000       0.283885       0.353704       0.323587
      13.660000       0.280695       0.356373       0.327179
      13.670000       0.277782       0.359003       0.330496
      13.680000       0.275174       0.361498       0.333438
      13.690000       0.272922       0.363790       0.335895
      13.700000       0.271092       0.365824       0.337762
      13.710000       0.269753       0.367543       0.338953
      13.720000       0.268965       0.368871       0.339415
      13.730000       0.268770       0.369720       0.339132
      13.740000       0.269183       0.369991       0.338125
      13.750000       0.270194       0.369590       0.336434
      13.760000       0.271760       0.368439       0.334108
      13.770000       0.273813       0.366492       0.331186
      13.780000       0.276275       0.363756       0.327691
      13.790000       0.279076       0.360300       0.323630
      13.800000       0.282164       0.356262       0.319010
      13.810000       0.285517       0.351827       0.313847
      13.820000       0.289134       0.347203       0.308180
      13.830000       0.293025       0.342591       0.302090
      13.840000       0.297199       0.338158       0.295698
      13.850000       0.301661       0.334029       0.289165
      13.860000       0.306396       0.330282       0.282670
      13.870000       0.311366       0.326952       0.276390
      13.880000       0.316498       0.324032       0.270477
      13.890000       0.321675       0.321470       0.265040
      13.900000       0.326746       0.319166       0.260152
      13.910000       0.331544       0.316978       0.255853
      13.920000       0.335910       0.314728       0.252166
      13.930000       0.339724       0.312233       0.249109
      13.940000       0.342919       0.309335       0.246700
      13.950000       0.345490       0.305934       0.244952
      13.960000       0.347476       0.302009       0.243873
      13.970000       0.348949       0.297611       0.243459
      13.980000       0.349985       0.292846       0.243690
      13.990000       0.350648       0.287837       0.244530
      14.000000       0.350975       0.282701       0.245924
      14.010000       0.350973       0.277536       0.247794
      14.020000       0.350616       0.272419       0.250031
      14.030000       0.349856       0.267417       0.252492
      14.040000       0.348626       0.262586       0.254999
      14.050000       0.346853       0.257973       0.257347
      14.060000       0.344481       0.253614       0.259335
      14.070000       0.341493       0.249533       0.260794
      14.080000       0.337937       0.245735       0.261627
      14.090000       0.333937       0.242208       0.261826
      14.100000       0.329674       0.238919       0.261479
      14.110000       0.325350       0.235816       0.260739
      14.120000       0.321143       0.232843       0.259799
      14.130000       0.317175       0.229954       0.258861
      14.140000       0.313501       0.227128       0.258108
      14.150000       0.310113       0.224380       0.257700
      14.160000       0.306955       0.221747       0.257774
      14.170000       0.303941       0.219274       0.258442
      14.180000       0.300973       0.216992       0.259794
      14.190000       0.297962       0.214903       0.261886
      14.200000       0.294840       0.212983       0.264733
      14.210000       0.291573       0.211189       0.268291
      14.220000       0.288154       0.209474       0.272449
      14.230000       0.284597       0.207800       0.277029
      14.240000       0.280920       0.206146       0.281787
      14.250000       0.277146       0.204510       0.286435
      14.260000       0.273293       0.202904       0.290660
      14.270000       0.269385       0.201345       0.294160
      14.280000       0.265444       0.199843       0.296683
      14.290000       0.261496       0.198398       0.298062
      14.300000       0.257564       0.196999       0.298247
      14.310000       0.253667       0.195635       0.297315
      14.320000       0.249824       0.194305       0.295458
      14.330000       0.246061       0.193025       0.292948
      14.340000       0.242413       0.191824       0.290094
      14.350000       0.238933       0.190746       0.287193
      14.360000       0.235687       0.189833       0.284495
      14.370000       0.232742       0.189120       0.282186
      14.380000       0.230163       0.188626       0.280379
      14.390000       0.227998       0.188344       0.279127
      14.400000       0.226280       0.188249       0.278439
      14.410000       0.225031       0.188293       0.278300
      14.420000       0.224265       0.188411       0.278688
      14.430000       0.223986       0.188538       0.279588
      14.440000       0.224192       0.188617       0.280994
      14.450000       0.224876       0.188610       0.282901
      14.460000       0.226029       0.188500       0.285298
      14.470000       0.227640       0.188292       0.288157
      14.480000       0.229689       0.187997       0.291429
      14.490000       0.232139       0.187633       0.295050
      14.500000       0.234930       0.187218       0.298947
      14.510000       0.237973       0.186772       0.303042
      14.520000       0.241166       0.186314       0.307268
      14.530000       0.244399       0.185868       0.311573
      14.540000       0.247577       0.185450       0.315926
      14.550000       0.250635       0.185072       0.320313
      14.560000       0.253535       0.184731       0.324729
      14.570000       0.256268       0.184413       0.329167
      14.580000       0.258842       0.184088       0.333615
      14.590000       0.261274       0.183717       0.338048
      14.600000       0.263577       0.183257       0.342442
      14.610000       0.265756       0.182672       0.346776
      14.620000       0.267794       0.181928       0.351053
      14.630000       0.269651       0.181004       0.355298
      14.640000       0.271266       0.179886       0.359564
      14.650000       0.272561       0.178575       0.363905
      14.660000       0.273456       0.177091       0.368363
      14.670000       0.273881       0.175470       0.372952
      14.680000       0.273792       0.173769       0.377646
      14.690000       0.273178       0.172050       0.382395
      14.700000       0.272066       0.170376       0.387141
      14.710000       0.270510       0.168799       0.391843
      14.720000       0.268572       0.167355       0.396498
      14.730000       0.266298       0.166067       0.401154
      14.740000       0.263714       0.164943       0.405913
      14.750000       0.260832       0.163988       0.410909
      14.760000       0.257676       0.163199       0.416298
      14.770000       0.254306       0.162580       0.422226
      14.780000       0.250828       0.162133       0.428818
      14.790000       0.247379       0.161865       0.436160
      14.800000       0.244106       0.161781       0.444292
      14.810000       0.241136       0.161882       0.453212
      14.820000       0.238552       0.162158       0.462882
      14.830000       0.236381       0.162583       0.473244
      14.840000       0.234601       0.163121       0.484230
      14.850000       0.233144       0.163728       0.495765
      14.860000       0.231921       0.164362       0.507757
      14.870000       0.230836       0.164992       0.520086
      14.880000       0.229806       0.165598       0.532583
      14.890000       0.228765       0.166169       0.545031
      14.900000       0.227666       0.166694       0.557162
      14.910000       0.226479       0.167154       0.568670
      14.920000       0.225189       0.167519       0.579236
      14.930000       0.223795       0.167751       0.588553
      14.940000       0.222309       0.167809       0.596363
      14.950000       0.220757       0.167656       0.602479
      14.960000       0.219175       0.167261       0.606808
      14.970000       0.217614       0.166613       0.609343
      14.980000       0.216145       0.165715       0.610148
      14.990000       0.214854       0.164597       0.609318
      15.000000       0.213838       0.163305       0.606958
      15.010000       0.213200       0.161904       0.603159
      15.020000       0.213034       0.160469       0.597999
      15.030000       0.213415       0.159070       0.591556
      15.040000       0.214383       0.157770       0.583928
      15.050000       0.215944       0.156620       0.575251
      15.060000       0.218072       0.155658       0.565700
      15.070000       0.220715       0.154917       0.555480
      15.080000       0.223806       0.154424       0.544805
      15.090000       0.227260       0.154207       0.533865
      15.100000       0.230971       0.154284       0.522809
      15.110000       0.234798       0.154664       0.511739
      15.120000       0.238564       0.155333       0.500720
      15.130000       0.242061       0.156250       0.489801
      15.140000       0.245076       0.157345       0.479035
      15.150000       0.247428       0.158527       0.468482
      15.160000       0.249002       0.159694       0.458208
      15.170000       0.249780       0.160747       0.448264
      15.180000       0.249841       0.161607       0.438676
      15.190000       0.249344       0.162225       0.429430
      15.200000       0.248491       0.162586       0.420477
      15.210000       0.247486       0.162704       0.411742
      15.220000       0.246495       0.162608       0.403136
      15.230000       0.245627       0.162335       0.394581
      15.240000       0.244920       0.161918       0.386023
      15.250000       0.244348       0.161383       0.377445
      15.260000       0.243848       0.160751       0.368866
      15.270000       0.243344       0.160041       0.360329
      15.280000       0.242779       0.159273       0.351885
      15.290000       0.242131       0.158468       0.343573
      15.300000       0.241421       0.157648       0.335413
      15.310000       0.240703       0.156831       0.327402
      15.320000       0.240040       0.156035       0.319518
      15.330000       0.239487       0.155277       0.311730
      15.340000       0.239082       0.154579       0.304012
      15.350000       0.238850       0.153963       0.296351
      15.360000       0.238809       0.153459       0.288758
      15.370000       0.238985       0.153100       0.281268
      15.380000       0.239415       0.152923       0.273936
      15.390000       0.240131       0.152965       0.266826
      15.400000       0.241154       0.153253       0.260000
      15.410000       0.242469       0.153800       0.253514
      15.420000       0.244026       0.154594       0.247416
      15.430000       0.245738       0.155604       0.241748
      15.440000       0.247493       0.156780       0.236546
      15.450000       0.249163       0.158063       0.231844
      15.460000       0.250614       0.159399       0.227667
      15.470000       0.251709       0.160750       0.224020
      15.480000       0.252317       0.162093       0.220890
      15.490000       0.252324       0.163424       0.218231
      15.500000       0.251657       0.164741       0.215972
      15.510000       0.250288       0.166039       0.214018
      15.520000       0.248236       0.167298       0.212261
      15.530000       0.245555       0.168483       0.210597
      15.540000       0.242321       0.169554       0.208934
      15.550000       0.238612       0.170471       0.207202
      15.560000       0.234505       0.171204       0.205364
      15.570000       0.230067       0.171738       0.203409
      15.580000       0.225355       0.172070       0.201356
      15.590000       0.220419       0.172207       0.199242
      15.600000       0.215309       0.172154       0.197111
      15.610000       0.210084       0.171917       0.195008
      15.620000       0.204817       0.171498       0.192970
      15.630000       0.199594       0.170905       0.191019
      15.640000       0.194512       0.170155       0.189169
      15.650000       0.189669       0.169277       0.187420
      15.660000       0.185156       0.168308       0.185764
      15.670000       0.181045       0.167294       0.184191
      15.680000       0.177384       0.166280       0.182689
      15.690000       0.174195       0.165303       0.181248
      15.700000       0.171476       0.164388       0.179853
      15.710000       0.169201       0.163546       0.178485
      15.720000       0.167328       0.162773       0.177119
      15.730000       0.165802       0.162056       0.175730
      15.740000       0.164562       0.161378       0.174293
      15.750000       0.163543       0.160728       0.172790
      15.760000       0.162685       0.160105       0.171216
      15.770000       0.161938       0.159517       0.169582
      15.780000       0.161271       0.158980       0.167916
      15.790000       0.160675       0.158508       0.166260
      15.800000       0.160171       0.158112       0.164660
      15.810000       0.159799       0.157800       0.163163
      15.820000       0.159614       0.157574       0.161804
      15.830000       0.159669       0.157438       0.160606
      15.840000       0.160008       0.157391       0.159574
      15.850000       0.160657       0.157431       0.158695
      15.860000       0.161627       0.157553       0.157950
      15.870000       0.162913       0.157742       0.157313
      15.880000       0.164497       0.157984       0.156755
      15.890000       0.166349       0.158260       0.156252
      15.900000       0.168429       0.158555       0.155782
      15.910000       0.170685       0.158854       0.155323
      15.920000       0.173063       0.159146       0.154850
      15.930000       0.175508       0.159415       0.154341
      15.940000       0.177969       0.159640       0.153775
      15.950000       0.180406       0.159796       0.153144
      15.960000       0.182780       0.159852       0.152457
      15.970000       0.185053       0.159780       0.151741
      15.980000       0.187180       0.159563       0.151040
      15.990000       0.189103       0.159199       0.150402
      16.000000       0.190766       0.158700       0.149868
      16.010000       0.192119       0.158098       0.149465
      16.020000       0.193135       0.157432       0.149198
      16.030000       0.193820       0.156754       0.149054
      16.040000       0.194209       0.156116       0.149001
      16.050000       0.194355       0.155570       0.148999
      16.060000       0.194309       0.155160       0.149008
      16.070000       0.194093       0.154917       0.148991
      16.080000       0.193686       0.154857       0.148924
      16.090000       0.193020       0.154983       0.148798
      16.100000       0.191999       0.155285       0.148627
      16.110000       0.190529       0.155744       0.148438
      16.120000       0.188555       0.156336       0.148270
      16.130000       0.186088       0.157034       0.148162
      16.140000       0.183211       0.157805       0.148145
      16.150000       0.180058       0.158609       0.148239
      16.160000       0.176790       0.159392       0.148448
      16.170000       0.173567       0.160091       0.148761
      16.180000       0.170532       0.160630       0.149154
      16.190000       0.167799       0.160930       0.149592
      16.200000       0.165461       0.160924       0.150027
      16.210000       0.163581       0.160563       0.150410
      16.220000       0.162201       0.159828       0.150688
      16.230000       0.161339       0.158730       0.150820
      16.240000       0.160985       0.157304       0.150780
      16.250000       0.161097       0.155609       0.150568
      16.260000       0.161595       0.153715       0.150210
      16.270000       0.162353       0.151700       0.149756
      16.280000       0.163197       0.149640       0.149270
      16.290000       0.163913       0.147606       0.148820
      16.300000       0.164271       0.145655       0.148462
      16.310000       0.164064       0.143836       0.148230
      16.320000       0.163151       0.142183       0.148133
      16.330000       0.161491       0.140721       0.148153
      16.340000       0.159148       0.139460       0.148254
      16.350000       0.156265       0.138396       0.148390
      16.360000       0.153026       0.137511       0.148513
      16.370000       0.149615       0.136772       0.148582
      16.380000       0.146180       0.136138       0.148563
      16.390000       0.142831       0.135563       0.148430
      16.400000       0.139637       0.135003       0.148166
      16.410000       0.136638       0.134421       0.147765
      16.420000       0.133857       0.133791       0.147226
      16.430000       0.131308       0.133097       0.146556
      16.440000       0.129000       0.132339       0.145768
      16.450000       0.126944       0.131530       0.144882
      16.460000       0.125149       0.130693       0.143923
      16.470000       0.123621       0.129862       0.142920
      16.480000       0.122365       0.129070       0.141907
      16.490000       0.121378       0.128350       0.140915
      16.500000       0.120653       0.127721       0.139977
      16.510000       0.120174       0.127190       0.139114
      16.520000       0.119922       0.126753       0.138336
      16.530000       0.119869       0.126392       0.137635
      16.540000       0.119978       0.126081       0.136989
      16.550000       0.120199       0.125787       0.136368
      16.560000       0.120465       0.125474       0.135734
      16.570000       0.120696       0.125102       0.135054
      16.580000       0.120807       0.124640       0.134299
      16.590000       0.120725       0.124066       0.133452
      16.600000       0.120398       0.123381       0.132510
      16.610000       0.119813       0.122609       0.131479
      16.620000       0.118986       0.121791       0.130379
      16.630000       0.117968       0.120978       0.129227
      16.640000       0.116820       0.120219       0.128042
      16.650000       0.115609       0.119551       0.126838
      16.660000       0.114396       0.118994       0.125624
      16.670000       0.113229       0.118552       0.124412
      16.680000       0.112144       0.118215       0.123221
      16.690000       0.111169       0.117962       0.122071
      16.700000       0.110322       0.117765       0.120990
      16.710000       0.109615       0.117600       0.119999
      16.720000       0.109057       0.117447       0.119113
      16.730000       0.108656       0.117296       0.118337
      16.740000       0.108416       0.117147       0.117667
      16.750000       0.108342       0.117005       0.117093
      16.760000       0.108437       0.116876       0.116607
      16.770000       0.108700       0.116766       0.116201
      16.780000       0.109130       0.116672       0.115872
      16.790000       0.109720       0.116590       0.115619
      16.800000       0.110459       0.116517       0.115442
      16.810000       0.111329       0.116449       0.115335
      16.820000       0.112305       0.116390       0.115291
      16.830000       0.113352       0.116345       0.115293
      16.840000       0.114428       0.116320       0.115327
      16.850000       0.115490       0.116319       0.115375
      16.860000       0.116498       0.116345       0.115424
      16.870000       0.117427       0.116401       0.115466
      16.880000       0.118270       0.116487       0.115492
      16.890000       0.119045       0.116603       0.115495
      16.900000       0.119794       0.116744       0.115466
      16.910000       0.120579       0.116902       0.115399
      16.920000       0.121476       0.117055       0.115295
      16.930000       0.122558       0.117175       0.115164
      16.940000       0.123886       0.117228       0.115027
      16.950000       0.125499       0.117183       0.114912
      16.960000       0.127408       0.117016       0.114850
      16.970000       0.129593       0.116721       0.114862
      16.980000       0.132007       0.116308       0.114961
      16.990000       0.134580       0.115806       0.115146
      17.000000       0.137222       0.115252       0.115403
      17.010000       0.139826       0.114690       0.115718
      17.020000       0.142281       0.114160       0.116078
      17.030000       0.144476       0.113693       0.116484
      17.040000       0.146318       0.113304       0.116953
      17.050000       0.147742       0.112993       0.117512
      17.060000       0.148718       0.112744       0.118192
      17.070000       0.149254       0.112533       0.119018
      17.080000       0.149379       0.112330       0.120006
      17.090000       0.149136       0.112106       0.121155
      17.100000       0.148568       0.111842       0.122453
      17.110000       0.147711       0.111527       0.123884
      17.120000       0.146592       0.111158       0.125431
      17.130000       0.145228       0.110742       0.127086
      17.140000       0.143635       0.110291       0.128851
      17.150000       0.141827       0.109818       0.130733
      17.160000       0.139825       0.109336       0.132742
      17.170000       0.137650       0.108849       0.134889
      17.180000       0.135327       0.108353       0.137179
      17.190000       0.132874       0.107836       0.139614
      17.200000       0.130306       0.107278       0.142188
      17.210000       0.127639       0.106657       0.144891
      17.220000       0.124888       0.105954       0.147702
      17.230000       0.122082       0.105153       0.150589
      17.240000       0.119258       0.104248       0.153509
      17.250000       0.116463       0.103243       0.156414
      17.260000       0.113747       0.102156       0.159259
      17.270000       0.111156       0.101011       0.162011
      17.280000       0.108724       0.099840       0.164660
      17.290000       0.106470       0.098675       0.167218
      17.300000       0.104395       0.097544       0.169720
      17.310000       0.102490       0.096471       0.172223
      17.320000       0.100737       0.095478       0.174800
      17.330000       0.099117       0.094584       0.177533
      17.340000       0.097614       0.093808       0.180500
      17.350000       0.096222       0.093167       0.183758
      17.360000       0.094938       0.092671       0.187326
      17.370000       0.093764       0.092323       0.191181
      17.380000       0.092701       0.092118       0.195250
      17.390000       0.091746       0.092039       0.199427
      17.400000       0.090888       0.092063       0.203576
      17.410000       0.090113       0.092165       0.207557
      17.420000       0.089405       0.092316       0.211239
      17.430000       0.088749       0.092489       0.214526
      17.440000       0.088140       0.092662       0.217372
      17.450000       0.087576       0.092811       0.219793
      17.460000       0.087066       0.092918       0.221872
      17.470000       0.086622       0.092966       0.223745
      17.480000       0.086258       0.092942       0.225577
      17.490000       0.085985       0.092844       0.227538
      17.500000       0.085814       0.092677       0.229772
      17.510000       0.085750       0.092456       0.232380
      17.520000       0.085792       0.092195       0.235416
      17.530000       0.085934       0.091902       0.238892
      17.540000       0.086166       0.091580       0.242783
      17.550000       0.086474       0.091223       0.247044
      17.560000       0.086848       0.090820       0.251620
      17.570000       0.087280       0.090367       0.256464
      17.580000       0.087768       0.089864       0.261549
      17.590000       0.088315       0.089319       0.266865
      17.600000       0.088924       0.088750       0.272417
      17.610000       0.089595       0.088182       0.278202
      17.620000       0.090326       0.087645       0.284196
      17.630000       0.091112       0.087170       0.290339
      17.640000       0.091940       0.086781       0.296538
      17.650000       0.092802       0.086497       0.302672
      17.660000       0.093689       0.086321       0.308609
      17.670000       0.094600       0.086243       0.314220
      17.680000       0.095542       0.086240       0.319403
      17.690000       0.096533       0.086285       0.324102
      17.700000       0.097593       0.086347       0.328317
      17.710000       0.098746       0.086399       0.332103
      17.720000       0.100009       0.086419       0.335553
      17.730000       0.101393       0.086391       0.338777
      17.740000       0.102896       0.086306       0.341871
      17.750000       0.104506       0.086161       0.344900
      17.760000       0.106200       0.085959       0.347897
      17.770000       0.107944       0.085709       0.350861
      17.780000       0.109700       0.085423       0.353781
      17.790000       0.111427       0.085119       0.356639
      17.800000       0.113085       0.084810       0.359424
      17.810000       0.114638       0.084512       0.362132
      17.820000       0.116063       0.084230       0.364764
      17.830000       0.117345       0.083963       0.367328
      17.840000       0.118477       0.083703       0.369833
      17.850000       0.119449       0.083430       0.372294
      17.860000       0.120243       0.083120       0.374727
      17.870000       0.120825       0.082750       0.377149
      17.880000       0.121148       0.082299       0.379575
      17.890000       0.121165       0.081757       0.381995
      17.900000       0.120833       0.081128       0.384368
      17.910000       0.120133       0.080428       0.386606
      17.920000       0.119076       0.079686       0.388589
      17.930000       0.117700       0.078935       0.390187
      17.940000       0.116068       0.078206       0.391289
      17.950000       0.114257       0.077521       0.391828
      17.960000       0.112342       0.076892       0.391792
      17.970000       0.110393       0.076321       0.391220
      17.980000       0.108465       0.075802       0.390195
      17.990000       0.106604       0.075326       0.388822
      18.000000       0.104842       0.074887       0.387207
      18.010000       0.103204       0.074482       0.385444
      18.020000       0.101710       0.074116       0.383603
      18.030000       0.100375       0.073793       0.381727
      18.040000       0.099204       0.073519       0.379840
      18.050000       0.098195       0.073297       0.377943
      18.060000       0.097332       0.073119       0.376017
      18.070000       0.096592       0.072973       0.374028
      18.080000       0.095941       0.072838       0.371944
      18.090000       0.095342       0.072690       0.369761
      18.100000       0.094761       0.072503       0.367518
      18.110000       0.094172       0.072260       0.365318
      18.120000       0.093561       0.071954       0.363308
      18.130000       0.092930       0.071589       0.361658
      18.140000       0.092296       0.071180       0.360522
      18.150000       0.091683       0.070748       0.359992
      18.160000       0.091122       0.070319       0.360077
      18.170000       0.090642       0.069914       0.360691
      18.180000       0.090265       0.069555       0.361663
      18.190000       0.090007       0.069255       0.362760
      18.200000       0.089876       0.069027       0.363729
      18.210000       0.089869       0.068879       0.364329
      18.220000       0.089973       0.068821       0.364355
      18.230000       0.090165       0.068855       0.363659
      18.240000       0.090414       0.068986       0.362165
      18.250000       0.090690       0.069212       0.359871
      18.260000       0.090961       0.069527       0.356860
      18.270000       0.091204       0.069920       0.353291
      18.280000       0.091402       0.070374       0.349384
      18.290000       0.091546       0.070868       0.345385
      18.300000       0.091638       0.071379       0.341533
      18.310000       0.091683       0.071887       0.338031
      18.320000       0.091696       0.072375       0.335030
      18.330000       0.091691       0.072835       0.332619
      18.340000       0.091685       0.073264       0.330839
      18.350000       0.091687       0.073666       0.329678
      18.360000       0.091703       0.074044       0.329094
      18.370000       0.091731       0.074404       0.329017
      18.380000       0.091766       0.074751       0.329361
      18.390000       0.091803       0.075091       0.330040
      18.400000       0.091839       0.075431       0.330968
      18.410000       0.091879       0.075781       0.332069
      18.420000       0.091932       0.076152       0.333279
      18.430000       0.092016       0.076556       0.334547
      18.440000       0.092144       0.077004       0.335834
      18.450000       0.092330       0.077501       0.337099
      18.460000       0.092580       0.078047       0.338295
      18.470000       0.092891       0.078636       0.339355
      18.480000       0.093254       0.079252       0.340199
      18.490000       0.093653       0.079878       0.340746
      18.500000       0.094068       0.080491       0.340931
      18.510000       0.094477       0.081069       0.340715
      18.520000       0.094862       0.081592       0.340082
      18.530000       0.095210       0.082040       0.339026
      18.540000       0.095519       0.082397       0.337540
      18.550000       0.095790       0.082653       0.335608
      18.560000       0.096031       0.082802       0.333221
      18.570000       0.096247       0.082844       0.330387
      18.580000       0.096437       0.082790       0.327143
      18.590000       0.096594       0.082653       0.323563
      18.600000       0.096706       0.082450       0.319746
      18.610000       0.096758       0.082194       0.315805
      18.620000       0.096734       0.081891       0.311846
      18.630000       0.096625       0.081541       0.307963
      18.640000       0.096428       0.081141       0.304234
      18.650000       0.096146       0.080685       0.300728
      18.660000       0.095790       0.080169       0.297508
      18.670000       0.095375       0.079595       0.294636
      18.680000       0.094916       0.078972       0.292169
      18.690000       0.094433       0.078317       0.290147
      18.700000       0.093947       0.077651       0.288591
      18.710000       0.093473       0.076997       0.287501
      18.720000       0.093020       0.076377       0.286852
      18.730000       0.092590       0.075808       0.286608
      18.740000       0.092173       0.075299       0.286715
      18.750000       0.091753       0.074856       0.287107
      18.760000       0.091312       0.074482       0.287691
      18.770000       0.090836       0.074181       0.288348
      18.780000       0.090320       0.073960       0.288934
      18.790000       0.089768       0.073829       0.289302
      18.800000       0.089193       0.073793       0.289327
      18.810000       0.088614       0.073856       0.288929
      18.820000       0.088047       0.074015       0.288093
      18.830000       0.087506       0.074257       0.286869
      18.840000       0.086994       0.074562       0.285359
      18.850000       0.086506       0.074905       0.283692
      18.860000       0.086027       0.075257       0.282001
      18.870000       0.085540       0.075589       0.280396
      18.880000       0.085028       0.075880       0.278955
      18.890000       0.084479       0.076115       0.277719
      18.900000       0.083888       0.076288       0.276697
      18.910000       0.083254       0.076401       0.275874
      18.920000       0.082581       0.076457       0.275220
      18.930000       0.081874       0.076462       0.274697
      18.940000       0.081136       0.076420       0.274266
      18.950000       0.080372       0.076336       0.273895
      18.960000       0.079589       0.076215       0.273556
      18.970000       0.078794       0.076061       0.273230
      18.980000       0.077997       0.075878       0.272901
      18.990000       0.077208       0.075668       0.272556
      19.000000       0.076437       0.075429       0.272191
      19.010000       0.075691       0.075153       0.271806
      19.020000       0.074969       0.074833       0.271415
      19.030000       0.074267       0.074459       0.271039
      19.040000       0.073575       0.074024       0.270714
      19.050000       0.072880       0.073527       0.270483
      19.060000       0.072167       0.072968       0.270390
      19.070000       0.071424       0.072353       0.270473
      19.080000       0.070641       0.071689       0.270748
      19.090000       0.069811       0.070986       0.271210
      19.100000       0.068931       0.070250       0.271830
      19.110000       0.067999       0.069489       0.272560
      19.120000       0.067021       0.068710       0.273341
      19.130000       0.066001       0.067919       0.274105
      19.140000       0.064948       0.067122       0.274787
      19.150000       0.063875       0.066322       0.275332
      19.160000       0.062795       0.065524       0.275706
      19.170000       0.061728       0.064732       0.275906
      19.180000       0.060692       0.063948       0.275957
      19.190000       0.059706       0.063175       0.275916
      19.200000       0.058786       0.062413       0.275858
      19.210000       0.057940       0.061663       0.275866
      19.220000       0.057173       0.060927       0.276017
      19.230000       0.056478       0.060207       0.276370
      19.240000       0.055846       0.059510       0.276956
      19.250000       0.055262       0.058847       0.277776
      19.260000       0.054712       0.058226       0.278812
      19.270000       0.054182       0.057659       0.280030
      19.280000       0.053664       0.057151       0.281393
      19.290000       0.053152       0.056704       0.282865
      19.300000       0.052649       0.056313       0.284414
      19.310000       0.052160       0.055967       0.286010
      19.320000       0.051696       0.055651       0.287622
      19.330000       0.051269       0.055347       0.289218
      19.340000       0.050892       0.055041       0.290774
      19.350000       0.050575       0.054721       0.292270
      19.360000       0.050326       0.054386       0.293702
      19.370000       0.050149       0.054039       0.295083
      19.380000       0.050044       0.053693       0.296459
      19.390000       0.050004       0.053363       0.297912
      19.400000       0.050018       0.053066       0.299559
      19.410000       0.050072       0.052816       0.301545
      19.420000       0.050152       0.052623       0.304014
      19.430000       0.050245       0.052493       0.307083
      19.440000       0.050341       0.052431       0.310815
      19.450000       0.050431       0.052435       0.315194
      19.460000       0.050509       0.052504       0.320120
      19.470000       0.050573       0.052634       0.325420
      19.480000       0.050618       0.052818       0.330872
      19.490000       0.050642       0.053045       0.336246
      19.500000       0.050645       0.053301       0.341334
      19.510000       0.050625       0.053571       0.345987
      19.520000       0.050583       0.053836       0.350123
      19.530000       0.050521       0.054081       0.353723
      19.540000       0.050445       0.054294       0.356823
      19.550000       0.050363       0.054467       0.359476
      19.560000       0.050283       0.054601       0.361738
      19.570000       0.050214       0.054698       0.363636
      19.580000       0.050164       0.054765       0.365167
      19.590000       0.050140       0.054809       0.366293
      19.600000       0.050147       0.054836       0.366962
      19.610000       0.050191       0.054850       0.367119
      19.620000       0.050274       0.054854       0.366719
      19.630000       0.050399       0.054850       0.365731
      19.640000       0.050568       0.054842       0.364137
      19.650000       0.050781       0.054837       0.361930
      19.660000       0.051036       0.054842       0.359126
      19.670000       0.051330       0.054868       0.355779
      19.680000       0.051663       0.054924       0.351983
      19.690000       0.052035       0.055019       0.347878
      19.700000       0.052451       0.055162       0.343629
      19.710000       0.052917       0.055357       0.339406
      19.720000       0.053441       0.055604       0.335363
      19.730000       0.054031       0.055899       0.331623
      19.740000       0.054695       0.056231       0.328271
      19.750000       0.055443       0.056585       0.325355
      19.760000       0.056280       0.056944       0.322889
      19.770000       0.057212       0.057294       0.320847
      19.780000       0.058240       0.057621       0.319165
      19.790000       0.059358       0.057915       0.317735
      19.800000       0.060556       0.058172       0.316411
      19.810000       0.061812       0.058391       0.315027
      19.820000       0.063096       0.058577       0.313418
      19.830000       0.064373       0.058734       0.311451
      19.840000       0.065602       0.058871       0.309050
      19.850000       0.066743       0.058996       0.306211
      19.860000       0.067760       0.059115       0.303000
      19.870000       0.068628       0.059236       0.299537
      19.880000       0.069339       0.059361       0.295968
      19.890000       0.069898       0.059492       0.292443
      19.900000       0.070327       0.059630       0.289095
      19.910000       0.070660       0.059770       0.286026
      19.920000       0.070936       0.059910       0.283301
      19.930000       0.071195       0.060043       0.280938
      19.940000       0.071473       0.060161       0.278905
      19.950000       0.071798       0.060255       0.277118
      19.960000       0.072183       0.060313       0.275439
      19.970000       0.072629       0.060323       0.273696
      19.980000       0.073118       0.060275       0.271708
      19.990000       0.073622       0.060163       0.269317
      20.000000       0.074106       0.059985       0.266413
