  # energy grid [eV]     epsr_x  epsr_y  epsr_z
       0.000000            NaN            NaN            NaN
       0.010000  -98541.375776 -108925.764536       1.939597
       0.020000  -24631.539195  -27228.544885       1.939632
       0.030000  -10944.531461  -12099.429931       1.939690
       0.040000   -6154.077619   -6804.239456       1.939772
       0.050000   -3936.780592   -4353.322457       1.939877
       0.060000   -2732.321621   -3021.959856       1.940006
       0.070000   -2006.069462   -2219.189905       1.940159
       0.080000   -1534.702444   -1698.161028       1.940337
       0.090000   -1211.533294   -1340.945034       1.940538
       0.100000    -980.370793   -1085.430219       1.940765
       0.110000    -809.335146    -896.377830       1.941017
       0.120000    -679.246943    -752.587656       1.941294
       0.130000    -578.006138    -640.684758       1.941597
       0.140000    -497.673040    -551.892898       1.941926
       0.150000    -432.862754    -480.259818       1.942281
       0.160000    -379.818616    -421.633047       1.942662
       0.170000    -335.855241    -373.044268       1.943069
       0.180000    -299.011790    -332.326049       1.943501
       0.190000    -267.829438    -297.865869       1.943958
       0.200000    -241.204686    -268.443970       1.944439
       0.210000    -218.290344    -243.123910       1.944940
       0.220000    -198.427273    -221.177115       1.945459
       0.230000    -181.096432    -202.029866       1.945993
       0.240000    -165.884603    -185.225423       1.946535
       0.250000    -152.459521    -170.396524       1.947080
       0.260000    -140.551557    -157.245149       1.947619
       0.270000    -129.940067    -145.527421       1.948144
       0.280000    -120.443088    -135.042222       1.948646
       0.290000    -111.909472    -125.622499       1.949121
       0.300000    -104.212833    -117.128567       1.949565
       0.310000     -97.246829    -109.442902       1.949986
       0.320000     -90.921468    -102.466051       1.950397
       0.330000     -85.160176     -96.113397       1.950818
       0.340000     -79.897469     -90.312580       1.951277
       0.350000     -75.077075     -85.001428       1.951798
       0.360000     -70.650424     -80.126280       1.952401
       0.370000     -66.575412     -75.640628       1.953095
       0.380000     -62.815398     -71.504001       1.953880
       0.390000     -59.338369     -67.681050       1.954744
       0.400000     -56.116259     -64.140785       1.955669
       0.410000     -53.124374     -60.855951       1.956628
       0.420000     -50.340918     -57.802497       1.957593
       0.430000     -47.746593     -54.959135       1.958527
       0.440000     -45.324261     -52.306969       1.959394
       0.450000     -43.058657     -49.829176       1.960152
       0.460000     -40.936152     -47.510743       1.960762
       0.470000     -38.944541     -45.338236       1.961180
       0.480000     -37.072866     -43.299604       1.961365
       0.490000     -35.311269     -41.384013       1.961275
       0.500000     -33.650856     -39.581702       1.960863
       0.510000     -32.083586     -37.883854       1.960082
       0.520000     -30.602173     -36.282493       1.958890
       0.530000     -29.200000     -34.770386       1.957257
       0.540000     -27.871045     -33.340966       1.955176
       0.550000     -26.609815     -31.988252       1.952673
       0.560000     -25.411291     -30.706795       1.949802
       0.570000     -24.270878     -29.491616       1.946642
       0.580000     -23.184358     -28.338164       1.943281
       0.590000     -22.147855     -27.242266       1.939818
       0.600000     -21.157800     -26.200095       1.936351
       0.610000     -20.210902     -25.208134       1.932979
       0.620000     -19.304120     -24.263146       1.929801
       0.630000     -18.434642     -23.362147       1.926896
       0.640000     -17.599867     -22.502384       1.924320
       0.650000     -16.797388     -21.681315       1.922095
       0.660000     -16.024978     -20.896586       1.920207
       0.670000     -15.280586     -20.146017       1.918616
       0.680000     -14.562325     -19.427588       1.917263
       0.690000     -13.868477     -18.739424       1.916083
       0.700000     -13.197494     -18.079783       1.915020
       0.710000     -12.548009     -17.447046       1.914036
       0.720000     -11.918858     -16.839707       1.913114
       0.730000     -11.309101     -16.256366       1.912258
       0.740000     -10.718067     -15.695723       1.911476
       0.750000     -10.145398     -15.156569       1.910776
       0.760000      -9.591120     -14.637785       1.910154
       0.770000      -9.055723     -14.138336       1.909602
       0.780000      -8.540256     -13.657273       1.909116
       0.790000      -8.046437     -13.193728       1.908702
       0.800000      -7.576785     -12.746920       1.908378
       0.810000      -7.134740     -12.316149       1.908163
       0.820000      -6.724780     -11.900808       1.908069
       0.830000      -6.352452     -11.500371       1.908090
       0.840000      -6.024239     -11.114397       1.908198
       0.850000      -5.747145     -10.742511       1.908354
       0.860000      -5.527872     -10.384379       1.908516
       0.870000      -5.371620     -10.039670       1.908656
       0.880000      -5.280710      -9.708002       1.908769
       0.890000      -5.253457      -9.388891       1.908879
       0.900000      -5.283791      -9.081715       1.909032
       0.910000      -5.361936      -8.785699       1.909277
       0.920000      -5.476025      -8.499948       1.909654
       0.930000      -5.614126      -8.223507       1.910178
       0.940000      -5.765998      -7.955437       1.910832
       0.950000      -5.924046      -7.694882       1.911576
       0.960000      -6.083329      -7.441101       1.912349
       0.970000      -6.240931      -7.193474       1.913082
       0.980000      -6.395245      -6.951493       1.913708
       0.990000      -6.545570      -6.714746       1.914173
       1.000000      -6.691966      -6.482914       1.914441
       1.010000      -6.834996      -6.255764       1.914503
       1.020000      -6.975151      -6.033133       1.914375
       1.030000      -7.112188      -5.814908       1.914097
       1.040000      -7.244785      -5.601011       1.913718
       1.050000      -7.370672      -5.391409       1.913296
       1.060000      -7.486937      -5.186119       1.912875
       1.070000      -7.590071      -4.985237       1.912482
       1.080000      -7.675728      -4.788940       1.912120
       1.090000      -7.738616      -4.597504       1.911767
       1.100000      -7.772994      -4.411305       1.911393
       1.110000      -7.773819      -4.230818       1.910968
       1.120000      -7.738019      -4.056601       1.910480
       1.130000      -7.665276      -3.889231       1.909944
       1.140000      -7.558009      -3.729205       1.909402
       1.150000      -7.420706      -3.576795       1.908921
       1.160000      -7.258983      -3.431909       1.908572
       1.170000      -7.078726      -3.294023       1.908421
       1.180000      -6.885466      -3.162239       1.908510
       1.190000      -6.684031      -3.035501       1.908848
       1.200000      -6.478400      -2.912898       1.909413
       1.210000      -6.271682      -2.793932       1.910155
       1.220000      -6.066163      -2.678628       1.911007
       1.230000      -5.863390      -2.567427       1.911894
       1.240000      -5.664288      -2.460896       1.912741
       1.250000      -5.469309      -2.359363       1.913486
       1.260000      -5.278600      -2.262615       1.914090
       1.270000      -5.092165      -2.169798       1.914541
       1.280000      -4.909970      -2.079579       1.914862
       1.290000      -4.731990      -1.990539       1.915109
       1.300000      -4.558179      -1.901618       1.915359
       1.310000      -4.388427      -1.812434       1.915690
       1.320000      -4.222509      -1.723333       1.916165
       1.330000      -4.060091      -1.635187       1.916820
       1.340000      -3.900764      -1.549023       1.917656
       1.350000      -3.744118      -1.465656       1.918642
       1.360000      -3.589814      -1.385449       1.919723
       1.370000      -3.437615      -1.308304       1.920828
       1.380000      -3.287399      -1.233895       1.921876
       1.390000      -3.139132      -1.162016       1.922783
       1.400000      -2.992846      -1.092866       1.923469
       1.410000      -2.848615      -1.027115       1.923868
       1.420000      -2.706541      -0.965694       1.923940
       1.430000      -2.566759      -0.909387       1.923683
       1.440000      -2.429442      -0.858415       1.923142
       1.450000      -2.294819      -0.812203       1.922406
       1.460000      -2.163200      -0.769466       1.921593
       1.470000      -2.034992      -0.728614       1.920827
       1.480000      -1.910725      -0.688293       1.920213
       1.490000      -1.791052      -0.647817       1.919817
       1.500000      -1.676748      -0.607312       1.919665
       1.510000      -1.568663      -0.567576       1.919750
       1.520000      -1.467660      -0.529773       1.920043
       1.530000      -1.374514      -0.495096       1.920504
       1.540000      -1.289796      -0.464466       1.921089
       1.550000      -1.213779      -0.438272       1.921749
       1.560000      -1.146390      -0.416167       1.922428
       1.570000      -1.087243      -0.396986       1.923069
       1.580000      -1.035744      -0.378855       1.923622
       1.590000      -0.991252      -0.359524       1.924046
       1.600000      -0.953212      -0.336839       1.924329
       1.610000      -0.921240      -0.309214       1.924487
       1.620000      -0.895122      -0.275952       1.924563
       1.630000      -0.874755      -0.237333       1.924623
       1.640000      -0.860037      -0.194448       1.924739
       1.650000      -0.850764      -0.148864       1.924973
       1.660000      -0.846598      -0.102208       1.925369
       1.670000      -0.847147      -0.055839       1.925943
       1.680000      -0.852124      -0.010667       1.926686
       1.690000      -0.861502       0.032795       1.927567
       1.700000      -0.875596       0.074232       1.928545
       1.710000      -0.895033       0.113295       1.929578
       1.720000      -0.920664       0.149494       1.930631
       1.730000      -0.953415       0.182279       1.931680
       1.740000      -0.994106       0.211254       1.932711
       1.750000      -1.043238       0.236394       1.933716
       1.760000      -1.100789       0.258113       1.934685
       1.770000      -1.166015       0.277183       1.935610
       1.780000      -1.237269       0.294548       1.936482
       1.790000      -1.311885       0.311185       1.937302
       1.800000      -1.386214       0.328018       1.938081
       1.810000      -1.455903       0.345857       1.938841
       1.820000      -1.516428       0.365268       1.939606
       1.830000      -1.563796       0.386397       1.940397
       1.840000      -1.595182       0.408816       1.941219
       1.850000      -1.609296       0.431509       1.942062
       1.860000      -1.606370       0.453012       1.942901
       1.870000      -1.587837       0.471630       1.943702
       1.880000      -1.555862       0.485657       1.944431
       1.890000      -1.512909       0.493563       1.945061
       1.900000      -1.461417       0.494175       1.945576
       1.910000      -1.403610       0.486898       1.945972
       1.920000      -1.341408       0.471969       1.946253
       1.930000      -1.276397       0.450615       1.946432
       1.940000      -1.209841       0.424965       1.946529
       1.950000      -1.142720       0.397662       1.946574
       1.960000      -1.075782       0.371260       1.946604
       1.970000      -1.009600       0.347685       1.946663
       1.980000      -0.944615       0.327956       1.946790
       1.990000      -0.881167       0.312252       1.947012
       2.000000      -0.819478       0.300245       1.947340
       2.010000      -0.759638       0.291481       1.947770
       2.020000      -0.701585       0.285663       1.948287
       2.030000      -0.645113       0.282727       1.948878
       2.040000      -0.589924       0.282758       1.949532
       2.050000      -0.535701       0.285855       1.950243
       2.060000      -0.482172       0.292080       1.951008
       2.070000      -0.429142       0.301534       1.951824
       2.080000      -0.376483       0.314472       1.952692
       2.090000      -0.324109       0.331345       1.953616
       2.100000      -0.271946       0.352667       1.954606
       2.110000      -0.219935       0.378762       1.955677
       2.120000      -0.168045       0.409522       1.956836
       2.130000      -0.116297       0.444308       1.958079
       2.140000      -0.064783       0.482051       1.959379
       2.150000      -0.013663       0.521507       1.960690
       2.160000       0.036844       0.561554       1.961953
       2.170000       0.086483       0.601400       1.963108
       2.180000       0.134979       0.640632       1.964109
       2.190000       0.182071       0.679088       1.964935
       2.200000       0.227541       0.716657       1.965596
       2.210000       0.271259       0.753116       1.966128
       2.220000       0.313219       0.788085       1.966587
       2.230000       0.353567       0.821071       1.967034
       2.240000       0.392582       0.851527       1.967526
       2.250000       0.430617       0.878829       1.968109
       2.260000       0.468006       0.902183       1.968812
       2.270000       0.504966       0.920531       1.969642
       2.280000       0.541544       0.932536       1.970583
       2.290000       0.577611       0.936685       1.971604
       2.300000       0.612903       0.931508       1.972656
       2.310000       0.647096       0.915873       1.973693
       2.320000       0.679867       0.889332       1.974671
       2.330000       0.710948       0.852492       1.975560
       2.340000       0.740133       0.807266       1.976341
       2.350000       0.767250       0.756854       1.977007
       2.360000       0.792109       0.705344       1.977553
       2.370000       0.814469       0.657010       1.977981
       2.380000       0.834046       0.615561       1.978296
       2.390000       0.850574       0.583609       1.978500
       2.400000       0.863875       0.562493       1.978585
       2.410000       0.873909       0.552389       1.978528
       2.420000       0.880773       0.552575       1.978289
       2.430000       0.884661       0.561727       1.977816
       2.440000       0.885823       0.578225       1.977066
       2.450000       0.884567       0.600434       1.976021
       2.460000       0.881295       0.626932       1.974696
       2.470000       0.876555       0.656643       1.973147
       2.480000       0.871095       0.688827       1.971462
       2.490000       0.865871       0.722973       1.969747
       2.500000       0.861989       0.758653       1.968104
       2.510000       0.860591       0.795435       1.966622
       2.520000       0.862683       0.832884       1.965359
       2.530000       0.868991       0.870649       1.964353
       2.540000       0.879864       0.908562       1.963623
       2.550000       0.895273       0.946692       1.963178
       2.560000       0.914876       0.985306       1.963019
       2.570000       0.938115       1.024763       1.963127
       2.580000       0.964321       1.065356       1.963464
       2.590000       0.992810       1.107177       1.963968
       2.600000       1.022949       1.150057       1.964563
       2.610000       1.054211       1.193571       1.965174
       2.620000       1.086203       1.237133       1.965748
       2.630000       1.118669       1.280120       1.966259
       2.640000       1.151480       1.322003       1.966714
       2.650000       1.184593       1.362452       1.967145
       2.660000       1.218012       1.401386       1.967589
       2.670000       1.251749       1.438945       1.968076
       2.680000       1.285794       1.475401       1.968620
       2.690000       1.320102       1.511018       1.969219
       2.700000       1.354587       1.545923       1.969864
       2.710000       1.389131       1.580036       1.970551
       2.720000       1.423589       1.613088       1.971282
       2.730000       1.457810       1.644731       1.972064
       2.740000       1.491645       1.674691       1.972898
       2.750000       1.524975       1.702894       1.973768
       2.760000       1.557726       1.729534       1.974628
       2.770000       1.589895       1.755056       1.975407
       2.780000       1.621565       1.780091       1.976019
       2.790000       1.652904       1.805371       1.976373
       2.800000       1.684147       1.831662       1.976398
       2.810000       1.715551       1.859687       1.976051
       2.820000       1.747359       1.890040       1.975322
       2.830000       1.779756       1.923107       1.974227
       2.840000       1.812866       1.958994       1.972808
       2.850000       1.846750       1.997505       1.971123
       2.860000       1.881420       2.038143       1.969251
       2.870000       1.916853       2.080138       1.967295
       2.880000       1.952997       2.122470       1.965371
       2.890000       1.989770       2.163914       1.963599
       2.900000       2.027069       2.203094       1.962080
       2.910000       2.064770       2.238569       1.960880
       2.920000       2.102733       2.268938       1.960024
       2.930000       2.140806       2.292956       1.959497
       2.940000       2.178835       2.309648       1.959267
       2.950000       2.216668       2.318393       1.959294
       2.960000       2.254169       2.318971       1.959545
       2.970000       2.291215       2.311584       1.959993
       2.980000       2.327699       2.296838       1.960612
       2.990000       2.363510       2.275738       1.961365
       3.000000       2.398499       2.249664       1.962207
       3.010000       2.432451       2.220362       1.963077
       3.020000       2.465053       2.189907       1.963911
       3.030000       2.495896       2.160603       1.964646
       3.040000       2.524482       2.134800       1.965233
       3.050000       2.550280       2.114619       1.965648
       3.060000       2.572784       2.101666       1.965892
       3.070000       2.591599       2.096819       1.965994
       3.080000       2.606499       2.100168       1.965993
       3.090000       2.617445       2.111104       1.965922
       3.100000       2.624550       2.128520       1.965801
       3.110000       2.628024       2.151059       1.965630
       3.120000       2.628147       2.177331       1.965410
       3.130000       2.625289       2.206077       1.965158
       3.140000       2.619954       2.236250       1.964918
       3.150000       2.612763       2.267019       1.964760
       3.160000       2.604344       2.297739       1.964760
       3.170000       2.595140       2.327912       1.964982
       3.180000       2.585240       2.357162       1.965454
       3.190000       2.574323       2.385208       1.966162
       3.200000       2.561750       2.411848       1.967061
       3.210000       2.546750       2.436929       1.968089
       3.220000       2.528612       2.460299       1.969196
       3.230000       2.506804       2.481726       1.970358
       3.240000       2.481009       2.500819       1.971593
       3.250000       2.451130       2.517003       1.972949
       3.260000       2.417374       2.529600       1.974496
       3.270000       2.380423       2.538013       1.976299
       3.280000       2.341640       2.541958       1.978402
       3.290000       2.303126       2.541644       1.980813
       3.300000       2.267533       2.537805       1.983503
       3.310000       2.237617       2.531569       1.986410
       3.320000       2.215692       2.524185       1.989441
       3.330000       2.203177       2.516723       1.992482
       3.340000       2.200379       2.509849       1.995406
       3.350000       2.206532       2.503767       1.998078
       3.360000       2.220031       2.498354       2.000365
       3.370000       2.238754       2.493443       2.002149
       3.380000       2.260386       2.489128       2.003332
       3.390000       2.282709       2.485947       2.003851
       3.400000       2.303857       2.484827       2.003688
       3.410000       2.322539       2.486794       2.002875
       3.420000       2.338213       2.492569       2.001501
       3.430000       2.351163       2.502241       1.999706
       3.440000       2.362415       2.515165       1.997667
       3.450000       2.373445       2.530106       1.995567
       3.460000       2.385785       2.545563       1.993573
       3.470000       2.400624       2.560123       1.991811
       3.480000       2.418599       2.572745       1.990364
       3.490000       2.439802       2.582886       1.989292
       3.500000       2.463967       2.590450       1.988640
       3.510000       2.490710       2.595586       1.988454
       3.520000       2.519698       2.598396       1.988777
       3.530000       2.550671       2.598691       1.989630
       3.540000       2.583340       2.595905       1.991004
       3.550000       2.617228       2.589241       1.992851
       3.560000       2.651551       2.578011       1.995091
       3.570000       2.685205       2.562042       1.997624
       3.580000       2.716847       2.541969       2.000340
       3.590000       2.745074       2.519273       2.003142
       3.600000       2.768636       2.496016       2.005948
       3.610000       2.786651       2.474364       2.008705
       3.620000       2.798789       2.456119       2.011390
       3.630000       2.805380       2.442457       2.014008
       3.640000       2.807423       2.433934       2.016587
       3.650000       2.806482       2.430678       2.019164
       3.660000       2.804479       2.432594       2.021773
       3.670000       2.803403       2.439441       2.024440
       3.680000       2.804985       2.450786       2.027175
       3.690000       2.810390       2.465897       2.029978
       3.700000       2.820022       2.483674       2.032839
       3.710000       2.833459       2.502687       2.035743
       3.720000       2.849565       2.521288       2.038670
       3.730000       2.866736       2.537764       2.041587
       3.740000       2.883198       2.550489       2.044454
       3.750000       2.897304       2.558042       2.047219
       3.760000       2.907759       2.559309       2.049830
       3.770000       2.913779       2.553569       2.052233
       3.780000       2.915123       2.540564       2.054379
       3.790000       2.912009       2.520525       2.056223
       3.800000       2.904862       2.494102       2.057726
       3.810000       2.893963       2.462194       2.058850
       3.820000       2.879132       2.425699       2.059565
       3.830000       2.859585       2.385266       2.059852
       3.840000       2.834102       2.341127       2.059721
       3.850000       2.801449       2.293113       2.059217
       3.860000       2.760923       2.240878       2.058433
       3.870000       2.712805       2.184266       2.057496
       3.880000       2.658521       2.123697       2.056551
       3.890000       2.600459       2.060406       2.055732
       3.900000       2.541486       1.996419       2.055147
       3.910000       2.484323       1.934282       2.054865
       3.920000       2.430990       1.876616       2.054916
       3.930000       2.382512       1.825656       2.055298
       3.940000       2.338961       1.782920       2.055979
       3.950000       2.299778       1.749131       2.056900
       3.960000       2.264210       1.724364       2.057981
       3.970000       2.231663       1.708336       2.059129
       3.980000       2.201878       1.700665       2.060253
       3.990000       2.174902       1.700987       2.061284
       4.000000       2.150942       1.708933       2.062188
       4.010000       2.130215       1.724015       2.062963
       4.020000       2.112874       1.745553       2.063630
       4.030000       2.099055       1.772661       2.064216
       4.040000       2.088974       1.804261       2.064738
       4.050000       2.082967       1.839083       2.065206
       4.060000       2.081439       1.875651       2.065618
       4.070000       2.084715       1.912291       2.065976
       4.080000       2.092878       1.947237       2.066285
       4.090000       2.105632       1.978809       2.066555
       4.100000       2.122208       2.005644       2.066803
       4.110000       2.141338       2.026862       2.067055
       4.120000       2.161297       2.042127       2.067352
       4.130000       2.180020       2.051559       2.067750
       4.140000       2.195291       2.055565       2.068313
       4.150000       2.204985       2.054645       2.069102
       4.160000       2.207334       2.049230       2.070156
       4.170000       2.201176       2.039608       2.071474
       4.180000       2.186112       2.025919       2.073012
       4.190000       2.162532       2.008255       2.074683
       4.200000       2.131461       1.986815       2.076366
       4.210000       2.094283       1.962050       2.077928
       4.220000       2.052416       1.934725       2.079238
       4.230000       2.007053       1.905866       2.080190
       4.240000       1.959091       1.876626       2.080725
       4.250000       1.909254       1.848133       2.080840
       4.260000       1.858323       1.821336       2.080593
       4.270000       1.807338       1.796895       2.080085
       4.280000       1.757654       1.775157       2.079434
       4.290000       1.710870       1.756235       2.078737
       4.300000       1.668664       1.740215       2.078050
       4.310000       1.632628       1.727375       2.077373
       4.320000       1.604103       1.718301       2.076662
       4.330000       1.584029       1.713791       2.075845
       4.340000       1.572805       1.714568       2.074847
       4.350000       1.570194       1.720888       2.073610
       4.360000       1.575337       1.732260       2.072108
       4.370000       1.586852       1.747369       2.070348
       4.380000       1.603032       1.764264       2.068368
       4.390000       1.622076       1.780714       2.066231
       4.400000       1.642325       1.794625       2.064013
       4.410000       1.662447       1.804399       2.061794
       4.420000       1.681553       1.809147       2.059654
       4.430000       1.699226       1.808715       2.057662
       4.440000       1.715512       1.803525       2.055870
       4.450000       1.730865       1.794293       2.054317
       4.460000       1.746070       1.781725       2.053023
       4.470000       1.762123       1.766275       2.051997
       4.480000       1.780061       1.748017       2.051232
       4.490000       1.800761       1.726657       2.050698
       4.500000       1.824755       1.701702       2.050342
       4.510000       1.852142       1.672753       2.050084
       4.520000       1.882590       1.639848       2.049837
       4.530000       1.915426       1.603718       2.049518
       4.540000       1.949745       1.565827       2.049076
       4.550000       1.984519       1.528165       2.048505
       4.560000       2.018648       1.492895       2.047848
       4.570000       2.050970       1.461994       2.047195
       4.580000       2.080224       1.437027       2.046654
       4.590000       2.105015       1.419062       2.046329
       4.600000       2.123846       1.408676       2.046295
       4.610000       2.135238       1.406002       2.046589
       4.620000       2.137961       1.410769       2.047215
       4.630000       2.131282       1.422350       2.048149
       4.640000       2.115196       1.439816       2.049362
       4.650000       2.090532       1.461992       2.050822
       4.660000       2.058886       1.487534       2.052504
       4.670000       2.022389       1.514976       2.054385
       4.680000       1.983365       1.542775       2.056443
       4.690000       1.943978       1.569295       2.058651
       4.700000       1.905952       1.592792       2.060962
       4.710000       1.870439       1.611417       2.063310
       4.720000       1.838033       1.623333       2.065605
       4.730000       1.808942       1.626954       2.067741
       4.740000       1.783233       1.621288       2.069608
       4.750000       1.761085       1.606274       2.071115
       4.760000       1.742942       1.582948       2.072202
       4.770000       1.729511       1.553341       2.072866
       4.780000       1.721565       1.520095       2.073157
       4.790000       1.719648       1.485937       2.073176
       4.800000       1.723809       1.453240       2.073062
       4.810000       1.733494       1.423808       2.072967
       4.820000       1.747618       1.398922       2.073035
       4.830000       1.764768       1.379479       2.073382
       4.840000       1.783447       1.366104       2.074088
       4.850000       1.802273       1.359150       2.075195
       4.860000       1.820120       1.358630       2.076711
       4.870000       1.836193       1.364180       2.078622
       4.880000       1.850063       1.375081       2.080905
       4.890000       1.861656       1.390365       2.083536
       4.900000       1.871222       1.408936       2.086494
       4.910000       1.879274       1.429700       2.089764
       4.920000       1.886544       1.451681       2.093333
       4.930000       1.893929       1.474100       2.097184
       4.940000       1.902433       1.496410       2.101289
       4.950000       1.913081       1.518268       2.105612
       4.960000       1.926795       1.539464       2.110104
       4.970000       1.944282       1.559837       2.114708
       4.980000       1.965957       1.579233       2.119359
       4.990000       1.991937       1.597510       2.123988
       5.000000       2.022084       1.614580       2.128519
       5.010000       2.056045       1.630456       2.132873
       5.020000       2.093255       1.645280       2.136963
       5.030000       2.132908       1.659328       2.140697
       5.040000       2.173914       1.672979       2.143979
       5.050000       2.214915       1.686667       2.146720
       5.060000       2.254359       1.700811       2.148851
       5.070000       2.290642       1.715748       2.150338
       5.080000       2.322286       1.731663       2.151200
       5.090000       2.348097       1.748527       2.151506
       5.100000       2.367279       1.766059       2.151372
       5.110000       2.379445       1.783715       2.150926
       5.120000       2.384529       1.800727       2.150295
       5.130000       2.382637       1.816164       2.149579
       5.140000       2.373902       1.829010       2.148855
       5.150000       2.358431       1.838282       2.148181
       5.160000       2.336368       1.843192       2.147606
       5.170000       2.308066       1.843342       2.147183
       5.180000       2.274292       1.838892       2.146974
       5.190000       2.236349       1.830592       2.147049
       5.200000       2.196028       1.819648       2.147484
       5.210000       2.155365       1.807442       2.148356
       5.220000       2.116312       1.795237       2.149732
       5.230000       2.080471       1.783993       2.151663
       5.240000       2.049032       1.774341       2.154172
       5.250000       2.022896       1.766671       2.157250
       5.260000       2.002875       1.761233       2.160857
       5.270000       1.989827       1.758204       2.164928
       5.280000       1.984619       1.757695       2.169380
       5.290000       1.987961       1.759721       2.174132
       5.300000       2.000191       1.764166       2.179112
       5.310000       2.021098       1.770746       2.184264
       5.320000       2.049858       1.778991       2.189548
       5.330000       2.085088       1.788232       2.194932
       5.340000       2.124991       1.797626       2.200384
       5.350000       2.167582       1.806224       2.205865
       5.360000       2.210917       1.813126       2.211325
       5.370000       2.253283       1.817680       2.216703
       5.380000       2.293293       1.819694       2.221934
       5.390000       2.329861       1.819557       2.226946
       5.400000       2.362079       1.818202       2.231668
       5.410000       2.389069       1.816897       2.236024
       5.420000       2.409908       1.816910       2.239937
       5.430000       2.423681       1.819167       2.243324
       5.440000       2.429657       1.824025       2.246108
       5.450000       2.427513       1.831230       2.248221
       5.460000       2.417501       1.840066       2.249626
       5.470000       2.400454       1.849615       2.250330
       5.480000       2.377615       1.858981       2.250390
       5.490000       2.350338       1.867410       2.249918
       5.500000       2.319827       1.874317       2.249061
       5.510000       2.287056       1.879286       2.247990
       5.520000       2.252924       1.882146       2.246878
       5.530000       2.218539       1.883078       2.245891
       5.540000       2.185460       1.882684       2.245174
       5.550000       2.155716       1.881896       2.244845
       5.560000       2.131542       1.881727       2.244990
       5.570000       2.114907       1.882993       2.245660
       5.580000       2.107030       1.886139       2.246865
       5.590000       2.108053       1.891256       2.248586
       5.600000       2.116977       1.898256       2.250778
       5.610000       2.131838       1.907052       2.253384
       5.620000       2.150037       1.917612       2.256346
       5.630000       2.168679       1.929853       2.259612
       5.640000       2.184851       1.943420       2.263143
       5.650000       2.195794       1.957516       2.266916
       5.660000       2.198995       1.970869       2.270922
       5.670000       2.192284       1.981872       2.275166
       5.680000       2.173961       1.988861       2.279668
       5.690000       2.142977       1.990437       2.284449
       5.700000       2.099120       1.985789       2.289518
       5.710000       2.043126       1.974923       2.294864
       5.720000       1.976634       1.958736       2.300446
       5.730000       1.901967       1.938900       2.306191
       5.740000       1.821780       1.917570       2.312003
       5.750000       1.738692       1.896972       2.317773
       5.760000       1.655043       1.878980       2.323388
       5.770000       1.572843       1.864801       2.328747
       5.780000       1.493923       1.854884       2.333765
       5.790000       1.420132       1.849093       2.338383
       5.800000       1.353454       1.847074       2.342564
       5.810000       1.295900       1.848639       2.346296
       5.820000       1.249195       1.853967       2.349584
       5.830000       1.214409       1.863534       2.352449
       5.840000       1.191710       1.877818       2.354930
       5.850000       1.180342       1.896929       2.357076
       5.860000       1.178786       1.920347       2.358950
       5.870000       1.184990       1.946821       2.360620
       5.880000       1.196556       1.974445       2.362159
       5.890000       1.210847       2.000826       2.363637
       5.900000       1.225048       2.023328       2.365122
       5.910000       1.236221       2.039343       2.366676
       5.920000       1.241402       2.046577       2.368344
       5.930000       1.237737       2.043275       2.370154
       5.940000       1.222666       2.028297       2.372101
       5.950000       1.194130       2.001009       2.374156
       5.960000       1.150742       1.961034       2.376276
       5.970000       1.091893       1.908030       2.378418
       5.980000       1.017747       1.841619       2.380570
       5.990000       0.929189       1.761555       2.382756
       6.000000       0.827770       1.668033       2.385041
       6.010000       0.715714       1.562048       2.387508
       6.020000       0.595928       1.445592       2.390232
       6.030000       0.471944       1.321619       2.393254
       6.040000       0.347703       1.193747       2.396560
       6.050000       0.227204       1.065809       2.400084
       6.060000       0.114134       0.941429       2.403718
       6.070000       0.011579       0.823737       2.407325
       6.080000      -0.078140       0.715231       2.410767
       6.090000      -0.153549       0.617732       2.413924
       6.100000      -0.214083       0.532325       2.416710
       6.110000      -0.260130       0.459255       2.419085
       6.120000      -0.293007       0.397835       2.421064
       6.130000      -0.314793       0.346454       2.422716
       6.140000      -0.328002       0.302784       2.424152
       6.150000      -0.335179       0.264163       2.425505
       6.160000      -0.338542       0.228054       2.426906
       6.170000      -0.339799       0.192435       2.428455
       6.180000      -0.340180       0.156007       2.430214
       6.190000      -0.340636       0.118200       2.432202
       6.200000      -0.342083       0.079001       2.434415
       6.210000      -0.345547       0.038732       2.436836
       6.220000      -0.352113      -0.002105       2.439461
       6.230000      -0.362668      -0.042814       2.442297
       6.240000      -0.377546      -0.082356       2.445364
       6.250000      -0.396233      -0.119186       2.448678
       6.260000      -0.417305      -0.151262       2.452234
       6.270000      -0.438655      -0.176323       2.456003
       6.280000      -0.457958      -0.192355       2.459929
       6.290000      -0.473200      -0.198044       2.463951
       6.300000      -0.483100      -0.193027       2.468010
       6.310000      -0.487294      -0.177872       2.472070
       6.320000      -0.486253      -0.153845       2.476115
       6.330000      -0.481009      -0.122616       2.480157
       6.340000      -0.472842      -0.086003       2.484233
       6.350000      -0.463038      -0.045805       2.488400
       6.360000      -0.452773      -0.003720       2.492726
       6.370000      -0.443104       0.038667       2.497280
       6.380000      -0.434993       0.079879       2.502108
       6.390000      -0.429319       0.118521       2.507211
       6.400000      -0.426850       0.153319       2.512535
       6.410000      -0.428174       0.183216       2.517973
       6.420000      -0.433577       0.207546       2.523383
       6.430000      -0.442896       0.226190       2.528620
       6.440000      -0.455370       0.239665       2.533568
       6.450000      -0.469604       0.249050       2.538164
       6.460000      -0.483719       0.255757       2.542413
       6.470000      -0.495704       0.261199       2.546389
       6.480000      -0.503833       0.266475       2.550217
       6.490000      -0.506997       0.272195       2.554054
       6.500000      -0.504788       0.278495       2.558062
       6.510000      -0.497348       0.285231       2.562383
       6.520000      -0.485088       0.292256       2.567121
       6.530000      -0.468424       0.299645       2.572324
       6.540000      -0.447653       0.307760       2.577977
       6.550000      -0.423004       0.317128       2.584020
       6.560000      -0.394778       0.328192       2.590367
       6.570000      -0.363509       0.341071       2.596936
       6.580000      -0.330032       0.355430       2.603668
       6.590000      -0.295470       0.370487       2.610534
       6.600000      -0.261119       0.385145       2.617535
       6.610000      -0.228284       0.398194       2.624682
       6.620000      -0.198084       0.408552       2.631991
       6.630000      -0.171288       0.415506       2.639470
       6.640000      -0.148221       0.418910       2.647129
       6.650000      -0.128790       0.419268       2.654986
       6.660000      -0.112624       0.417658       2.663074
       6.670000      -0.099273       0.415507       2.671447
       6.680000      -0.088375       0.414275       2.680169
       6.690000      -0.079743       0.415189       2.689299
       6.700000      -0.073323       0.419089       2.698877
       6.710000      -0.069071       0.426421       2.708915
       6.720000      -0.066827       0.437310       2.719394
       6.730000      -0.066276       0.451645       2.730270
       6.740000      -0.067024       0.469112       2.741486
       6.750000      -0.068750       0.489215       2.752986
       6.760000      -0.071364       0.511304       2.764731
       6.770000      -0.075064       0.534650       2.776701
       6.780000      -0.080267       0.558549       2.788894
       6.790000      -0.087439       0.582429       2.801318
       6.800000      -0.096883       0.605916       2.813972
       6.810000      -0.108569       0.628833       2.826853
       6.820000      -0.122069       0.651130       2.839952
       6.830000      -0.136612       0.672735       2.853271
       6.840000      -0.151262       0.693385       2.866817
       6.850000      -0.165135       0.712488       2.880605
       6.860000      -0.177576       0.729111       2.894641
       6.870000      -0.188219       0.742137       2.908911
       6.880000      -0.196906       0.750555       2.923373
       6.890000      -0.203516       0.753780       2.937958
       6.900000      -0.207819       0.751858       2.952578
       6.910000      -0.209415       0.745458       2.967143
       6.920000      -0.207810       0.735657       2.981575
       6.930000      -0.202544       0.723600       2.995811
       6.940000      -0.193302       0.710227       3.009807
       6.950000      -0.179953       0.696158       3.023523
       6.960000      -0.162532       0.681787       3.036905
       6.970000      -0.141191       0.667480       3.049875
       6.980000      -0.116178       0.653745       3.062318
       6.990000      -0.087850       0.641252       3.074092
       7.000000      -0.056706       0.630678       3.085033
       7.010000      -0.023431       0.622489       3.094963
       7.020000       0.011106       0.616779       3.103708
       7.030000       0.045881       0.613264       3.111100
       7.040000       0.079786       0.611401       3.116998
       7.050000       0.111730       0.610544       3.121291
       7.060000       0.140755       0.610031       3.123916
       7.070000       0.166154       0.609210       3.124859
       7.080000       0.187574       0.607412       3.124153
       7.090000       0.205063       0.603946       3.121871
       7.100000       0.219039       0.598130       3.118105
       7.110000       0.230184       0.589349       3.112943
       7.120000       0.239275       0.577103       3.106447
       7.130000       0.247027       0.561058       3.098669
       7.140000       0.253991       0.541075       3.089675
       7.150000       0.260513       0.517240       3.079602
       7.160000       0.266765       0.489908       3.068705
       7.170000       0.272792       0.459719       3.057374
       7.180000       0.278561       0.427568       3.046108
       7.190000       0.284003       0.394475       3.035431
       7.200000       0.289028       0.361395       3.025786
       7.210000       0.293552       0.329035       3.017427
       7.220000       0.297527       0.297802       3.010365
       7.230000       0.300988       0.267894       3.004381
       7.240000       0.304087       0.239470       2.999101
       7.250000       0.307092       0.212767       2.994101
       7.260000       0.310342       0.188073       2.989011
       7.270000       0.314165       0.165588       2.983575
       7.280000       0.318768       0.145284       2.977662
       7.290000       0.324164       0.126867       2.971225
       7.300000       0.330138       0.109885       2.964248
       7.310000       0.336289       0.093911       2.956690
       7.320000       0.342119       0.078722       2.948449
       7.330000       0.347147       0.064378       2.939344
       7.340000       0.351007       0.051181       2.929122
       7.350000       0.353533       0.039553       2.917513
       7.360000       0.354796       0.029895       2.904317
       7.370000       0.355109       0.022477       2.889500
       7.380000       0.354996       0.017390       2.873264
       7.390000       0.355107       0.014566       2.856048
       7.400000       0.356099       0.013832       2.838468
       7.410000       0.358521       0.014966       2.821209
       7.420000       0.362728       0.017704       2.804934
       7.430000       0.368868       0.021703       2.790211
       7.440000       0.376932       0.026471       2.777496
       7.450000       0.386834       0.031311       2.767136
       7.460000       0.398496       0.035334       2.759390
       7.470000       0.411900       0.037579       2.754445
       7.480000       0.427088       0.037198       2.752430
       7.490000       0.444119       0.033661       2.753433
       7.500000       0.463000       0.026877       2.757510
       7.510000       0.483628       0.017206       2.764707
       7.520000       0.505770       0.005371       2.775059
       7.530000       0.529089      -0.007680       2.788582
       7.540000       0.553198      -0.020908       2.805252
       7.550000       0.577735      -0.033325       2.824986
       7.560000       0.602422      -0.044118       2.847636
       7.570000       0.627103      -0.052753       2.872992
       7.580000       0.651749      -0.059009       2.900804
       7.590000       0.676436      -0.062928       2.930800
       7.600000       0.701292      -0.064696       2.962687
       7.610000       0.726450      -0.064498       2.996141
       7.620000       0.752005      -0.062422       3.030791
       7.630000       0.777981      -0.058421       3.066198
       7.640000       0.804310      -0.052348       3.101839
       7.650000       0.830797      -0.044029       3.137101
       7.660000       0.857110      -0.033343       3.171283
       7.670000       0.882783      -0.020281       3.203602
       7.680000       0.907257      -0.004978       3.233214
       7.690000       0.929955       0.012291       3.259242
       7.700000       0.950386       0.031125       3.280830
       7.710000       0.968248       0.051050       3.297225
       7.720000       0.983512       0.071584       3.307908
       7.730000       0.996453       0.092332       3.312709
       7.740000       1.007610       0.113067       3.311889
       7.750000       1.017685       0.133780       3.306125
       7.760000       1.027427       0.154671       3.296389
       7.770000       1.037546       0.176088       3.283781
       7.780000       1.048669       0.198419       3.269363
       7.790000       1.061327       0.221992       3.254063
       7.800000       1.075940       0.246984       3.238655
       7.810000       1.092795       0.273353       3.223767
       7.820000       1.112024       0.300808       3.209899
       7.830000       1.133593       0.328815       3.197388
       7.840000       1.157332       0.356623       3.186374
       7.850000       1.182965       0.383341       3.176762
       7.860000       1.210159       0.408020       3.168250
       7.870000       1.238564       0.429768       3.160410
       7.880000       1.267841       0.447853       3.152816
       7.890000       1.297690       0.461826       3.145200
       7.900000       1.327857       0.471598       3.137563
       7.910000       1.358132       0.477494       3.130241
       7.920000       1.388357       0.480220       3.123862
       7.930000       1.418422       0.480786       3.119227
       7.940000       1.448250       0.480374       3.117133
       7.950000       1.477776       0.480199       3.118189
       7.960000       1.506892       0.481367       3.122695
       7.970000       1.535409       0.484755       3.130616
       7.980000       1.563041       0.490938       3.141658
       7.990000       1.589426       0.500187       3.155413
       8.000000       1.614182       0.512522       3.171519
       8.010000       1.636957       0.527789       3.189779
       8.020000       1.657441       0.545723       3.210195
       8.030000       1.675332       0.565979       3.232932
       8.040000       1.690242       0.588134       3.258226
       8.050000       1.701581       0.611673       3.286287
       8.060000       1.708469       0.635995       3.317236
       8.070000       1.709713       0.660439       3.351084
       8.080000       1.703892       0.684341       3.387749
       8.090000       1.689572       0.707094       3.427090
       8.100000       1.665598       0.728172       3.468938
       8.110000       1.631417       0.747100       3.513115
       8.120000       1.587295       0.763389       3.559432
       8.130000       1.534336       0.776471       3.607677
       8.140000       1.474221       0.785703       3.657595
       8.150000       1.408723       0.790479       3.708860
       8.160000       1.339183       0.790433       3.761061
       8.170000       1.266167       0.785658       3.813684
       8.180000       1.189480       0.776826       3.866100
       8.190000       1.108529       0.765139       3.917552
       8.200000       1.022910       0.752093       3.967162
       8.210000       0.932996       0.739169       4.013958
       8.220000       0.840335       0.727578       4.056908
       8.230000       0.747735       0.718152       4.094947
       8.240000       0.658991       0.711406       4.126944
       8.250000       0.578310       0.707664       4.151651
       8.260000       0.509592       0.707172       4.167645
       8.270000       0.455765       0.710121       4.173327
       8.280000       0.418354       0.716571       4.167010
       8.290000       0.397362       0.726349       4.147071
       8.300000       0.391450       0.738952       4.112125
       8.310000       0.398303       0.753504       4.061175
       8.320000       0.415048       0.768783       3.993727
       8.330000       0.438655       0.783311       3.909865
       8.340000       0.466235       0.795516       3.810285
       8.350000       0.495253       0.803931       3.696281
       8.360000       0.523636       0.807381       3.569680
       8.370000       0.549798       0.805115       3.432746
       8.380000       0.572612       0.796843       3.288056
       8.390000       0.591341       0.782702       3.138366
       8.400000       0.605566       0.763200       2.986456
       8.410000       0.615097       0.739177       2.834967
       8.420000       0.619875       0.711770       2.686238
       8.430000       0.619855       0.682369       2.542199
       8.440000       0.614911       0.652500       2.404336
       8.450000       0.604819       0.623645       2.273740
       8.460000       0.589362       0.597040       2.151210
       8.470000       0.568530       0.573538       2.037383
       8.480000       0.542753       0.553591       1.932827
       8.490000       0.513047       0.537358       1.838070
       8.500000       0.481001       0.524862       1.753542
       8.510000       0.448576       0.516104       1.679453
       8.520000       0.417760       0.511106       1.615630
       8.530000       0.390169       0.509884       1.561408
       8.540000       0.366742       0.512415       1.515608
       8.550000       0.347645       0.518642       1.476680
       8.560000       0.332407       0.528518       1.442959
       8.570000       0.320241       0.542047       1.413002
       8.580000       0.310407       0.559266       1.385856
       8.590000       0.302486       0.580154       1.361171
       8.600000       0.296473       0.604495       1.339094
       8.610000       0.292685       0.631763       1.320001
       8.620000       0.291548       0.661092       1.304192
       8.630000       0.293395       0.691344       1.291670
       8.640000       0.298349       0.721257       1.282080
       8.650000       0.306346       0.749618       1.274820
       8.660000       0.317246       0.775420       1.269218
       8.670000       0.330965       0.797973       1.264700
       8.680000       0.347554       0.816954       1.260860
       8.690000       0.367183       0.832404       1.257445
       8.700000       0.390023       0.844636       1.254312
       8.710000       0.416094       0.854074       1.251375
       8.720000       0.445127       0.861047       1.248575
       8.730000       0.476509       0.865614       1.245867
       8.740000       0.509326       0.867498       1.243214
       8.750000       0.542458       0.866140       1.240602
       8.760000       0.574720       0.860830       1.238045
       8.770000       0.604993       0.850832       1.235558
       8.780000       0.632339       0.835479       1.233105
       8.790000       0.656094       0.814228       1.230528
       8.800000       0.675921       0.786699       1.227518
       8.810000       0.691822       0.752741       1.223660
       8.820000       0.704099       0.712513       1.218557
       8.830000       0.713237       0.666550       1.212003
       8.840000       0.719751       0.615744       1.204130
       8.850000       0.724004       0.561244       1.195464
       8.860000       0.726089       0.504299       1.186837
       8.870000       0.725788       0.446145       1.179203
       8.880000       0.722659       0.387975       1.173431
       8.890000       0.716206       0.330980       1.170161
       8.900000       0.706095       0.276409       1.169791
       8.910000       0.692384       0.225579       1.172562
       8.920000       0.675697       0.179795       1.178695
       8.930000       0.657286       0.140194       1.188481
       8.940000       0.638934       0.107563       1.202320
       8.950000       0.622695       0.082226       1.220657
       8.960000       0.610534       0.064039       1.243871
       8.970000       0.603981       0.052504       1.272143
       8.980000       0.603888       0.046913       1.305350
       8.990000       0.610355       0.046474       1.343011
       9.000000       0.622786       0.050350       1.384319
       9.010000       0.640026       0.057656       1.428242
       9.020000       0.660503       0.067456       1.473682
       9.030000       0.682363       0.078795       1.519623
       9.040000       0.703614       0.090792       1.565230
       9.050000       0.722280       0.102744       1.609867
       9.060000       0.736597       0.114218       1.653027
       9.070000       0.745226       0.125055       1.694239
       9.080000       0.747433       0.135306       1.732990
       9.090000       0.743178       0.145099       1.768707
       9.100000       0.733048       0.154491       1.800800
       9.110000       0.718057       0.163391       1.828735
       9.120000       0.699364       0.171572       1.852099
       9.130000       0.678047       0.178791       1.870643
       9.140000       0.654986       0.184962       1.884288
       9.150000       0.630857       0.190295       1.893109
       9.160000       0.606178       0.195343       1.897295
       9.170000       0.581326       0.200904       1.897091
       9.180000       0.556539       0.207835       1.892724
       9.190000       0.531917       0.216830       1.884348
       9.200000       0.507464       0.228229       1.872012
       9.210000       0.483176       0.241912       1.855676
       9.220000       0.459134       0.257279       1.835275
       9.230000       0.435569       0.273334       1.810808
       9.240000       0.412876       0.288849       1.782439
       9.250000       0.391576       0.302565       1.750563
       9.260000       0.372245       0.313384       1.715810
       9.270000       0.355412       0.320486       1.678990
       9.280000       0.341477       0.323335       1.640994
       9.290000       0.330632       0.321595       1.602671
       9.300000       0.322825       0.315001       1.564722
       9.310000       0.317763       0.303280       1.527605
       9.320000       0.314969       0.286197       1.491457
       9.330000       0.313871       0.263711       1.456060
       9.340000       0.313909       0.236201       1.420870
       9.350000       0.314617       0.204612       1.385153
       9.360000       0.315678       0.170427       1.348200
       9.370000       0.316943       0.135420       1.309573
       9.380000       0.318408       0.101265       1.269256
       9.390000       0.320155       0.069174       1.227657
       9.400000       0.322279       0.039702       1.185431
       9.410000       0.324817       0.012780       1.143237
       9.420000       0.327706      -0.012082       1.101538
       9.430000       0.330765      -0.035525       1.060560
       9.440000       0.333734      -0.058074       1.020371
       9.450000       0.336332      -0.079947       0.981006
       9.460000       0.338312      -0.100987       0.942538
       9.470000       0.339476      -0.120707       0.905048
       9.480000       0.339645      -0.138469       0.868553
       9.490000       0.338609      -0.153692       0.832959
       9.500000       0.336115      -0.166025       0.798091
       9.510000       0.331899      -0.175440       0.763816
       9.520000       0.325751      -0.182211       0.730168
       9.530000       0.317592      -0.186851       0.697442
       9.540000       0.307535      -0.190001       0.666168
       9.550000       0.295903      -0.192334       0.636995
       9.560000       0.283210      -0.194453       0.610527
       9.570000       0.270070      -0.196824       0.587173
       9.580000       0.257075      -0.199725       0.567076
       9.590000       0.244675      -0.203209       0.550116
       9.600000       0.233128      -0.207117       0.535948
       9.610000       0.222542      -0.211110       0.524052
       9.620000       0.212994      -0.214761       0.513782
       9.630000       0.204628      -0.217671       0.504442
       9.640000       0.197655      -0.219608       0.495378
       9.650000       0.192227      -0.220607       0.486078
       9.660000       0.188256      -0.221015       0.476249
       9.670000       0.185291      -0.221433       0.465834
       9.680000       0.182533      -0.222592       0.454961
       9.690000       0.179004      -0.225174       0.443867
       9.700000       0.173815      -0.229641       0.432803
       9.710000       0.166424      -0.236105       0.421958
       9.720000       0.156801      -0.244286       0.411422
       9.730000       0.145439      -0.253553       0.401186
       9.740000       0.133227      -0.263049       0.391181
       9.750000       0.121222      -0.271857       0.381314
       9.760000       0.110405      -0.279144       0.371502
       9.770000       0.101492      -0.284260       0.361685
       9.780000       0.094820      -0.286767       0.351849
       9.790000       0.090291      -0.286427       0.342053
       9.800000       0.087388      -0.283182       0.332492
       9.810000       0.085267      -0.277143       0.323527
       9.820000       0.082934      -0.268582       0.315684
       9.830000       0.079491      -0.257916       0.309594
       9.840000       0.074374      -0.245686       0.305898
       9.850000       0.067518      -0.232543       0.305165
       9.860000       0.059372      -0.219244       0.307841
       9.870000       0.050747      -0.206652       0.314228
       9.880000       0.042554      -0.195714       0.324488
       9.890000       0.035522      -0.187411       0.338631
       9.900000       0.029997      -0.182666       0.356497
       9.910000       0.025905      -0.182248       0.377748
       9.920000       0.022843      -0.186667       0.401862
       9.930000       0.020257      -0.196110       0.428170
       9.940000       0.017611      -0.210399       0.455898
       9.950000       0.014483      -0.229006       0.484226
       9.960000       0.010586      -0.251087       0.512323
       9.970000       0.005732      -0.275579       0.539370
       9.980000      -0.000210      -0.301324       0.564592
       9.990000      -0.007305      -0.327222       0.587297
      10.000000      -0.015509      -0.352349       0.606934
      10.010000      -0.024596      -0.376008       0.623173
      10.020000      -0.034140      -0.397712       0.635970
      10.030000      -0.043541      -0.417134       0.645627
      10.040000      -0.052117      -0.434071       0.652784
      10.050000      -0.059224      -0.448423       0.658350
      10.060000      -0.064366      -0.460175       0.663348
      10.070000      -0.067272      -0.469368       0.668729
      10.080000      -0.067922      -0.476058       0.675211
      10.090000      -0.066508      -0.480284       0.683189
      10.100000      -0.063368      -0.482053       0.692749
      10.110000      -0.058883      -0.481341       0.703733
      10.120000      -0.053414      -0.478104       0.715810
      10.130000      -0.047265      -0.472296       0.728513
      10.140000      -0.040688      -0.463903       0.741229
      10.150000      -0.033915      -0.452994       0.753171
      10.160000      -0.027167      -0.439761       0.763363
      10.170000      -0.020654      -0.424540       0.770668
      10.180000      -0.014555      -0.407790       0.773831
      10.190000      -0.008986      -0.390050       0.771568
      10.200000      -0.003996      -0.371868       0.762676
      10.210000       0.000416      -0.353732       0.746152
      10.220000       0.004253      -0.336013       0.721318
      10.230000       0.007477      -0.318933       0.687883
      10.240000       0.010002      -0.302567       0.645935
      10.250000       0.011745      -0.286890       0.595835
      10.260000       0.012722      -0.271820       0.538061
      10.270000       0.013142      -0.257249       0.473042
      10.280000       0.013455      -0.243043       0.401056
      10.290000       0.014326      -0.229016       0.322253
      10.300000       0.016536      -0.214915       0.236793
      10.310000       0.020827      -0.200444       0.145058
      10.320000       0.027738      -0.185310       0.047817
      10.330000       0.037472      -0.169287      -0.053708
      10.340000       0.049832      -0.152258      -0.157913
      10.350000       0.064230      -0.134214      -0.262952
      10.360000       0.079781      -0.115235      -0.366882
      10.370000       0.095433      -0.095457      -0.467764
      10.380000       0.110098      -0.075050      -0.563711
      10.390000       0.122763      -0.054219      -0.652931
      10.400000       0.132544      -0.033212      -0.733780
      10.410000       0.138710      -0.012326      -0.804856
      10.420000       0.140688       0.008079      -0.865109
      10.430000       0.138079       0.027586      -0.913934
      10.440000       0.130715       0.045742      -0.951218
      10.450000       0.118747       0.062092      -0.977331
      10.460000       0.102734       0.076226      -0.993040
      10.470000       0.083671       0.087814      -0.999387
      10.480000       0.062900       0.096625      -0.997551
      10.490000       0.041919       0.102512      -0.988724
      10.500000       0.022145       0.105391      -0.974046
      10.510000       0.004698       0.105213      -0.954574
      10.520000      -0.009732       0.101968      -0.931291
      10.530000      -0.020913       0.095716      -0.905125
      10.540000      -0.029027       0.086633      -0.876939
      10.550000      -0.034567       0.075049      -0.847499
      10.560000      -0.038214       0.061443      -0.817432
      10.570000      -0.040717       0.046401      -0.787193
      10.580000      -0.042779       0.030545      -0.757061
      10.590000      -0.044972       0.014463      -0.727173
      10.600000      -0.047683      -0.001338      -0.697580
      10.610000      -0.051099      -0.016464      -0.668337
      10.620000      -0.055233      -0.030654      -0.639577
      10.630000      -0.059958      -0.043796      -0.611581
      10.640000      -0.065038      -0.055937      -0.584791
      10.650000      -0.070147      -0.067264      -0.559787
      10.660000      -0.074890      -0.078069      -0.537235
      10.670000      -0.078844      -0.088682      -0.517800
      10.680000      -0.081629      -0.099397      -0.502057
      10.690000      -0.083012      -0.110397      -0.490394
      10.700000      -0.082979      -0.121688      -0.482941
      10.710000      -0.081766      -0.133062      -0.479546
      10.720000      -0.079805      -0.144104      -0.479804
      10.730000      -0.077626      -0.154236      -0.483138
      10.740000      -0.075720      -0.162820      -0.488905
      10.750000      -0.074428      -0.169278      -0.496488
      10.760000      -0.073869      -0.173202      -0.505346
      10.770000      -0.073932      -0.174423      -0.515020
      10.780000      -0.074328      -0.173018      -0.525124
      10.790000      -0.074666      -0.169265      -0.535341
      10.800000      -0.074543      -0.163571      -0.545438
      10.810000      -0.073614      -0.156397      -0.555274
      10.820000      -0.071641      -0.148205      -0.564786
      10.830000      -0.068512      -0.139419      -0.573937
      10.840000      -0.064248      -0.130411      -0.582666
      10.850000      -0.058984      -0.121485      -0.590875
      10.860000      -0.052959      -0.112865      -0.598442
      10.870000      -0.046493      -0.104684      -0.605279
      10.880000      -0.039963      -0.096976      -0.611383
      10.890000      -0.033772      -0.089676      -0.616843
      10.900000      -0.028295      -0.082638      -0.621813
      10.910000      -0.023813      -0.075653      -0.626451
      10.920000      -0.020451      -0.068480      -0.630856
      10.930000      -0.018130      -0.060894      -0.635036
      10.940000      -0.016561      -0.052727      -0.638906
      10.950000      -0.015286      -0.043916      -0.642314
      10.960000      -0.013762      -0.034527      -0.645072
      10.970000      -0.011461      -0.024755      -0.646985
      10.980000      -0.007966      -0.014905      -0.647866
      10.990000      -0.003024      -0.005357      -0.647564
      11.000000       0.003423       0.003477      -0.645983
      11.010000       0.011259       0.011199      -0.643102
      11.020000       0.020239       0.017472      -0.638980
      11.030000       0.030052       0.022068      -0.633727
      11.040000       0.040386       0.024908      -0.627481
      11.050000       0.050972       0.026060      -0.620373
      11.060000       0.061607       0.025707      -0.612526
      11.070000       0.072143       0.024067      -0.604074
      11.080000       0.082461       0.021300      -0.595190
      11.090000       0.092447       0.017454      -0.586100
      11.100000       0.101981       0.012473      -0.577062
      11.110000       0.110950       0.006274      -0.568325
      11.120000       0.119255      -0.001139      -0.560071
      11.130000       0.126812      -0.009591      -0.552380
      11.140000       0.133536      -0.018712      -0.545208
      11.150000       0.139295      -0.027995      -0.538411
      11.160000       0.143874      -0.036918      -0.531770
      11.170000       0.146963      -0.045058      -0.525031
      11.180000       0.148183      -0.052178      -0.517938
      11.190000       0.147156      -0.058236      -0.510262
      11.200000       0.143586      -0.063345      -0.501828
      11.210000       0.137331      -0.067703      -0.492551
      11.220000       0.128442      -0.071515      -0.482447
      11.230000       0.117168      -0.074929      -0.471633
      11.240000       0.103931      -0.078002      -0.460310
      11.250000       0.089304      -0.080695      -0.448721
      11.260000       0.073981      -0.082883      -0.437129
      11.270000       0.058744      -0.084398      -0.425772
      11.280000       0.044390      -0.085065      -0.414845
      11.290000       0.031640      -0.084749      -0.404483
      11.300000       0.021027      -0.083385      -0.394753
      11.310000       0.012835      -0.080995      -0.385659
      11.320000       0.007100      -0.077672      -0.377157
      11.330000       0.003677      -0.073556      -0.369164
      11.340000       0.002330      -0.068800      -0.361573
      11.350000       0.002812      -0.063530      -0.354270
      11.360000       0.004886      -0.057827      -0.347153
      11.370000       0.008313      -0.051713      -0.340144
      11.380000       0.012798      -0.045155      -0.333205
      11.390000       0.017951      -0.038082      -0.326326
      11.400000       0.023273      -0.030420      -0.319509
      11.410000       0.028191      -0.022119      -0.312738
      11.420000       0.032140      -0.013192      -0.305947
      11.430000       0.034669      -0.003710      -0.299019
      11.440000       0.035538       0.006201      -0.291803
      11.450000       0.034772       0.016400      -0.284148
      11.460000       0.032657       0.026758      -0.275938
      11.470000       0.029674       0.037185      -0.267111
      11.480000       0.026382       0.047634      -0.257661
      11.490000       0.023294       0.058095      -0.247617
      11.500000       0.020775       0.068577      -0.237036
      11.510000       0.019016       0.079087      -0.226001
      11.520000       0.018057       0.089620      -0.214637
      11.530000       0.017860       0.100152      -0.203119
      11.540000       0.018377       0.110651      -0.191673
      11.550000       0.019583       0.121081      -0.180548
      11.560000       0.021476       0.131404      -0.169963
      11.570000       0.024061       0.141583      -0.160058
      11.580000       0.027332       0.151582      -0.150858
      11.590000       0.031264       0.161379      -0.142267
      11.600000       0.035804       0.170969      -0.134098
      11.610000       0.040867       0.180369      -0.126125
      11.620000       0.046327       0.189606      -0.118152
      11.630000       0.052027       0.198696      -0.110074
      11.640000       0.057800       0.207621      -0.101920
      11.650000       0.063508       0.216312      -0.093863
      11.660000       0.069072       0.224638      -0.086197
      11.670000       0.074487       0.232407      -0.079289
      11.680000       0.079804       0.239370      -0.073506
      11.690000       0.085092       0.245224      -0.069141
      11.700000       0.090400       0.249636      -0.066349
      11.710000       0.095724       0.252270      -0.065119
      11.720000       0.101006       0.252830      -0.065280
      11.730000       0.106148       0.251109      -0.066549
      11.740000       0.111034       0.247033      -0.068594
      11.750000       0.115551       0.240704      -0.071093
      11.760000       0.119611       0.232431      -0.073773
      11.770000       0.123152       0.222753      -0.076425
      11.780000       0.126141       0.212406      -0.078896
      11.790000       0.128567       0.202245      -0.081082
      11.800000       0.130443       0.193108      -0.082923
      11.810000       0.131814       0.185685      -0.084409
      11.820000       0.132762       0.180400      -0.085572
      11.830000       0.133396       0.177375      -0.086481
      11.840000       0.133839       0.176455      -0.087217
      11.850000       0.134205       0.177288      -0.087837
      11.860000       0.134573       0.179426      -0.088356
      11.870000       0.134978       0.182431      -0.088733
      11.880000       0.135417       0.185951      -0.088883
      11.890000       0.135869       0.189771      -0.088701
      11.900000       0.136312       0.193813      -0.088089
      11.910000       0.136744       0.198111      -0.086972
      11.920000       0.137190       0.202742      -0.085310
      11.930000       0.137712       0.207759      -0.083094
      11.940000       0.138413       0.213131      -0.080343
      11.950000       0.139425       0.218717      -0.077095
      11.960000       0.140888       0.224282      -0.073406
      11.970000       0.142918       0.229541      -0.069351
      11.980000       0.145584       0.234218      -0.065020
      11.990000       0.148897       0.238106      -0.060512
      12.000000       0.152824       0.241096      -0.055927
      12.010000       0.157313       0.243196      -0.051350
      12.020000       0.162318       0.244503      -0.046840
      12.030000       0.167820       0.245163      -0.042416
      12.040000       0.173818       0.245308      -0.038055
      12.050000       0.180313       0.245003      -0.033697
      12.060000       0.187280       0.244225      -0.029259
      12.070000       0.194649       0.242876      -0.024657
      12.080000       0.202303       0.240845      -0.019837
      12.090000       0.210087       0.238078      -0.014790
      12.100000       0.217829       0.234630      -0.009555
      12.110000       0.225365       0.230684      -0.004203
      12.120000       0.232562       0.226513       0.001182
      12.130000       0.239324       0.222426       0.006533
      12.140000       0.245591       0.218708       0.011812
      12.150000       0.251323       0.215591       0.017021
      12.160000       0.256474       0.213251       0.022200
      12.170000       0.260961       0.211819       0.027414
      12.180000       0.264645       0.211385       0.032732
      12.190000       0.267308       0.211999       0.038212
      12.200000       0.268658       0.213663       0.043886
      12.210000       0.268353       0.216327       0.049756
      12.220000       0.266050       0.219895       0.055803
      12.230000       0.261496       0.224225       0.061994
      12.240000       0.254619       0.229135       0.068290
      12.250000       0.245614       0.234410       0.074645
      12.260000       0.234970       0.239809       0.081013
      12.270000       0.223421       0.245088       0.087344
      12.280000       0.211821       0.250028       0.093598
      12.290000       0.200983       0.254449       0.099752
      12.300000       0.191526       0.258232       0.105810
      12.310000       0.183791       0.261304       0.111806
      12.320000       0.177826       0.263630       0.117794
      12.330000       0.173449       0.265197       0.123829
      12.340000       0.170324       0.266011       0.129959
      12.350000       0.168058       0.266093       0.136207
      12.360000       0.166260       0.265482       0.142574
      12.370000       0.164595       0.264236       0.149040
      12.380000       0.162815       0.262415       0.155572
      12.390000       0.160791       0.260076       0.162131
      12.400000       0.158527       0.257263       0.168678
      12.410000       0.156167       0.254009       0.175178
      12.420000       0.153965       0.250360       0.181611
      12.430000       0.152233       0.246396       0.187967
      12.440000       0.151268       0.242257       0.194254
      12.450000       0.151294       0.238145       0.200492
      12.460000       0.152422       0.234301       0.206708
      12.470000       0.154657       0.230967       0.212926
      12.480000       0.157917       0.228347       0.219161
      12.490000       0.162073       0.226580       0.225407
      12.500000       0.166982       0.225731       0.231638
      12.510000       0.172512       0.225803       0.237814
      12.520000       0.178563       0.226753       0.243888
      12.530000       0.185068       0.228501       0.249819
      12.540000       0.191998       0.230926       0.255585
      12.550000       0.199357       0.233872       0.261183
      12.560000       0.207173       0.237164       0.266630
      12.570000       0.215478       0.240633       0.271952
      12.580000       0.224286       0.244141       0.277180
      12.590000       0.233573       0.247589       0.282335
      12.600000       0.243263       0.250920       0.287431
      12.610000       0.253240       0.254105       0.292463
      12.620000       0.263353       0.257146       0.297413
      12.630000       0.273445       0.260077       0.302253
      12.640000       0.283360       0.262976       0.306955
      12.650000       0.292959       0.265953       0.311504
      12.660000       0.302113       0.269137       0.315910
      12.670000       0.310704       0.272632       0.320213
      12.680000       0.318612       0.276483       0.324476
      12.690000       0.325707       0.280637       0.328775
      12.700000       0.331851       0.284936       0.333178
      12.710000       0.336910       0.289129       0.337735
      12.720000       0.340775       0.292917       0.342469
      12.730000       0.343394       0.296013       0.347373
      12.740000       0.344793       0.298202       0.352422
      12.750000       0.345090       0.299395       0.357580
      12.760000       0.344486       0.299644       0.362808
      12.770000       0.343239       0.299139       0.368077
      12.780000       0.341627       0.298152       0.373366
      12.790000       0.339909       0.296977       0.378659
      12.800000       0.338300       0.295859       0.383946
      12.810000       0.336958       0.294944       0.389215
      12.820000       0.335981       0.294272       0.394454
      12.830000       0.335415       0.293798       0.399648
      12.840000       0.335264       0.293437       0.404783
      12.850000       0.335493       0.293116       0.409842
      12.860000       0.336035       0.292794       0.414811
      12.870000       0.336794       0.292476       0.419674
      12.880000       0.337667       0.292193       0.424417
      12.890000       0.338559       0.291978       0.429035
      12.900000       0.339408       0.291856       0.433528
      12.910000       0.340197       0.291828       0.437901
      12.920000       0.340949       0.291875       0.442161
      12.930000       0.341716       0.291956       0.446315
      12.940000       0.342550       0.292019       0.450371
      12.950000       0.343482       0.291999       0.454338
      12.960000       0.344513       0.291837       0.458230
      12.970000       0.345616       0.291487       0.462061
      12.980000       0.346761       0.290923       0.465843
      12.990000       0.347931       0.290139       0.469581
      13.000000       0.349131       0.289144       0.473273
      13.010000       0.350378       0.287939       0.476917
      13.020000       0.351685       0.286500       0.480508
      13.030000       0.353042       0.284757       0.484047
      13.040000       0.354407       0.282594       0.487535
      13.050000       0.355711       0.279865       0.490981
      13.060000       0.356866       0.276415       0.494393
      13.070000       0.357764       0.272121       0.497781
      13.080000       0.358279       0.266925       0.501151
      13.090000       0.358255       0.260862       0.504500
      13.100000       0.357509       0.254063       0.507811
      13.110000       0.355846       0.246748       0.511058
      13.120000       0.353097       0.239183       0.514205
      13.130000       0.349168       0.231646       0.517220
      13.140000       0.344096       0.224394       0.520084
      13.150000       0.338066       0.217644       0.522799
      13.160000       0.331395       0.211567       0.525388
      13.170000       0.324466       0.206287       0.527892
      13.180000       0.317636       0.201880       0.530350
      13.190000       0.311161       0.198379       0.532789
      13.200000       0.305151       0.195782       0.535211
      13.210000       0.299596       0.194064       0.537593
      13.220000       0.294417       0.193184       0.539901
      13.230000       0.289536       0.193093       0.542105
      13.240000       0.284928       0.193727       0.544198
      13.250000       0.280635       0.195004       0.546205
      13.260000       0.276750       0.196827       0.548180
      13.270000       0.273386       0.199083       0.550191
      13.280000       0.270635       0.201655       0.552297
      13.290000       0.268546       0.204429       0.554533
      13.300000       0.267112       0.207302       0.556906
      13.310000       0.266278       0.210187       0.559401
      13.320000       0.265957       0.213019       0.562000
      13.330000       0.266065       0.215750       0.564693
      13.340000       0.266538       0.218339       0.567479
      13.350000       0.267354       0.220732       0.570374
      13.360000       0.268525       0.222838       0.573398
      13.370000       0.270085       0.224528       0.576574
      13.380000       0.272063       0.225637       0.579924
      13.390000       0.274470       0.226000       0.583469
      13.400000       0.277288       0.225488       0.587229
      13.410000       0.280471       0.224060       0.591217
      13.420000       0.283948       0.221795       0.595434
      13.430000       0.287631       0.218912       0.599861
      13.440000       0.291417       0.215744       0.604449
      13.450000       0.295194       0.212687       0.609121
      13.460000       0.298846       0.210122       0.613768
      13.470000       0.302265       0.208348       0.618267
      13.480000       0.305348       0.207538       0.622488
      13.490000       0.308007       0.207736       0.626319
      13.500000       0.310173       0.208888       0.629680
      13.510000       0.311800       0.210877       0.632534
      13.520000       0.312883       0.213565       0.634886
      13.530000       0.313466       0.216821       0.636775
      13.540000       0.313655       0.220539       0.638252
      13.550000       0.313616       0.224633       0.639362
      13.560000       0.313554       0.229032       0.640133
      13.570000       0.313682       0.233660       0.640573
      13.580000       0.314187       0.238418       0.640678
      13.590000       0.315203       0.243173       0.640440
      13.600000       0.316796       0.247772       0.639856
      13.610000       0.318974       0.252047       0.638929
      13.620000       0.321699       0.255840       0.637663
      13.630000       0.324903       0.259020       0.636054
      13.640000       0.328515       0.261493       0.634083
      13.650000       0.332476       0.263215       0.631719
      13.660000       0.336751       0.264188       0.628921
      13.670000       0.341328       0.264451       0.625659
      13.680000       0.346208       0.264062       0.621925
      13.690000       0.351387       0.263075       0.617745
      13.700000       0.356845       0.261527       0.613183
      13.710000       0.362536       0.259445       0.608337
      13.720000       0.368387       0.256853       0.603328
      13.730000       0.374308       0.253790       0.598281
      13.740000       0.380199       0.250323       0.593312
      13.750000       0.385951       0.246551       0.588512
      13.760000       0.391471       0.242605       0.583947
      13.770000       0.396683       0.238656       0.579662
      13.780000       0.401545       0.234893       0.575698
      13.790000       0.406046       0.231512       0.572101
      13.800000       0.410199       0.228677       0.568939
      13.810000       0.414019       0.226500       0.566301
      13.820000       0.417512       0.225019       0.564296
      13.830000       0.420663       0.224203       0.563037
      13.840000       0.423439       0.223967       0.562625
      13.850000       0.425787       0.224184       0.563129
      13.860000       0.427635       0.224710       0.564566
      13.870000       0.428898       0.225392       0.566897
      13.880000       0.429489       0.226074       0.570040
      13.890000       0.429334       0.226610       0.573882
      13.900000       0.428395       0.226868       0.578307
      13.910000       0.426689       0.226756       0.583206
      13.920000       0.424293       0.226237       0.588482
      13.930000       0.421332       0.225347       0.594052
      13.940000       0.417960       0.224196       0.599833
      13.950000       0.414329       0.222947       0.605741
      13.960000       0.410565       0.221788       0.611684
      13.970000       0.406755       0.220886       0.617563
      13.980000       0.402941       0.220363       0.623276
      13.990000       0.399126       0.220286       0.628720
      14.000000       0.395289       0.220671       0.633789
      14.010000       0.391402       0.221508       0.638381
      14.020000       0.387439       0.222771       0.642400
      14.030000       0.383397       0.224428       0.645769
      14.040000       0.379296       0.226439       0.648448
      14.050000       0.375200       0.228757       0.650452
      14.060000       0.371215       0.231326       0.651873
      14.070000       0.367488       0.234085       0.652879
      14.080000       0.364185       0.236968       0.653694
      14.090000       0.361451       0.239912       0.654565
      14.100000       0.359372       0.242861       0.655719
      14.110000       0.357953       0.245781       0.657330
      14.120000       0.357116       0.248665       0.659499
      14.130000       0.356730       0.251534       0.662256
      14.140000       0.356640       0.254430       0.665576
      14.150000       0.356703       0.257394       0.669391
      14.160000       0.356802       0.260444       0.673605
      14.170000       0.356863       0.263569       0.678094
      14.180000       0.356854       0.266727       0.682711
      14.190000       0.356788       0.269868       0.687279
      14.200000       0.356711       0.272944       0.691597
      14.210000       0.356682       0.275929       0.695449
      14.220000       0.356759       0.278818       0.698624
      14.230000       0.356989       0.281631       0.700936
      14.240000       0.357404       0.284397       0.702254
      14.250000       0.358028       0.287147       0.702518
      14.260000       0.358882       0.289902       0.701763
      14.270000       0.359981       0.292666       0.700127
      14.280000       0.361341       0.295436       0.697847
      14.290000       0.362972       0.298202       0.695243
      14.300000       0.364881       0.300963       0.692678
      14.310000       0.367075       0.303730       0.690509
      14.320000       0.369566       0.306525       0.689042
      14.330000       0.372372       0.309373       0.688488
      14.340000       0.375513       0.312292       0.688947
      14.350000       0.379006       0.315281       0.690412
      14.360000       0.382853       0.318322       0.692791
      14.370000       0.387031       0.321373       0.695938
      14.380000       0.391502       0.324381       0.699689
      14.390000       0.396209       0.327286       0.703883
      14.400000       0.401094       0.330030       0.708384
      14.410000       0.406094       0.332567       0.713089
      14.420000       0.411149       0.334875       0.717921
      14.430000       0.416197       0.336954       0.722823
      14.440000       0.421183       0.338834       0.727739
      14.450000       0.426048       0.340558       0.732608
      14.460000       0.430738       0.342173       0.737362
      14.470000       0.435193       0.343721       0.741929
      14.480000       0.439343       0.345234       0.746242
      14.490000       0.443114       0.346732       0.750247
      14.500000       0.446433       0.348229       0.753915
      14.510000       0.449240       0.349736       0.757237
      14.520000       0.451507       0.351252       0.760229
      14.530000       0.453239       0.352773       0.762919
      14.540000       0.454474       0.354284       0.765346
      14.550000       0.455273       0.355760       0.767539
      14.560000       0.455703       0.357173       0.769519
      14.570000       0.455822       0.358492       0.771297
      14.580000       0.455674       0.359695       0.772878
      14.590000       0.455280       0.360775       0.774270
      14.600000       0.454641       0.361737       0.775498
      14.610000       0.453743       0.362601       0.776600
      14.620000       0.452558       0.363400       0.777629
      14.630000       0.451061       0.364175       0.778631
      14.640000       0.449239       0.364973       0.779636
      14.650000       0.447106       0.365849       0.780640
      14.660000       0.444700       0.366861       0.781608
      14.670000       0.442096       0.368057       0.782491
      14.680000       0.439391       0.369475       0.783245
      14.690000       0.436694       0.371129       0.783852
      14.700000       0.434108       0.373012       0.784334
      14.710000       0.431712       0.375098       0.784755
      14.720000       0.429551       0.377351       0.785207
      14.730000       0.427650       0.379734       0.785788
      14.740000       0.426027       0.382210       0.786576
      14.750000       0.424721       0.384752       0.787609
      14.760000       0.423799       0.387336       0.788868
      14.770000       0.423339       0.389944       0.790284
      14.780000       0.423407       0.392558       0.791738
      14.790000       0.424029       0.395156       0.793075
      14.800000       0.425170       0.397713       0.794126
      14.810000       0.426746       0.400193       0.794719
      14.820000       0.428628       0.402558       0.794694
      14.830000       0.430678       0.404771       0.793911
      14.840000       0.432760       0.406803       0.792239
      14.850000       0.434771       0.408640       0.789548
      14.860000       0.436645       0.410287       0.785701
      14.870000       0.438358       0.411756       0.780551
      14.880000       0.439921       0.413063       0.773954
      14.890000       0.441364       0.414217       0.765786
      14.900000       0.442732       0.415219       0.755966
      14.910000       0.444074       0.416064       0.744478
      14.920000       0.445445       0.416752       0.731386
      14.930000       0.446898       0.417289       0.716843
      14.940000       0.448487       0.417699       0.701081
      14.950000       0.450262       0.418017       0.684392
      14.960000       0.452271       0.418296       0.667094
      14.970000       0.454559       0.418599       0.649494
      14.980000       0.457159       0.418995       0.631856
      14.990000       0.460088       0.419552       0.614390
      15.000000       0.463339       0.420327       0.597254
      15.010000       0.466874       0.421362       0.580577
      15.020000       0.470620       0.422674       0.564483
      15.030000       0.474473       0.424260       0.549102
      15.040000       0.478311       0.426098       0.534577
      15.050000       0.482001       0.428155       0.521048
      15.060000       0.485419       0.430393       0.508631
      15.070000       0.488450       0.432773       0.497393
      15.080000       0.490993       0.435254       0.487344
      15.090000       0.492952       0.437788       0.478436
      15.100000       0.494238       0.440317       0.470584
      15.110000       0.494773       0.442768       0.463692
      15.120000       0.494513       0.445062       0.457675
      15.130000       0.493466       0.447121       0.452468
      15.140000       0.491718       0.448877       0.448021
      15.150000       0.489433       0.450291       0.444282
      15.160000       0.486840       0.451354       0.441179
      15.170000       0.484197       0.452095       0.438618
      15.180000       0.481743       0.452576       0.436491
      15.190000       0.479657       0.452877       0.434685
      15.200000       0.478038       0.453082       0.433103
      15.210000       0.476892       0.453264       0.431680
      15.220000       0.476150       0.453479       0.430390
      15.230000       0.475698       0.453760       0.429248
      15.240000       0.475406       0.454126       0.428301
      15.250000       0.475163       0.454589       0.427609
      15.260000       0.474905       0.455158       0.427226
      15.270000       0.474616       0.455842       0.427184
      15.280000       0.474332       0.456650       0.427484
      15.290000       0.474110       0.457588       0.428102
      15.300000       0.474011       0.458657       0.429001
      15.310000       0.474072       0.459858       0.430145
      15.320000       0.474300       0.461192       0.431508
      15.330000       0.474672       0.462660       0.433088
      15.340000       0.475154       0.464263       0.434901
      15.350000       0.475711       0.466000       0.436985
      15.360000       0.476315       0.467869       0.439385
      15.370000       0.476938       0.469860       0.442142
      15.380000       0.477541       0.471955       0.445282
      15.390000       0.478061       0.474119       0.448811
      15.400000       0.478410       0.476302       0.452714
      15.410000       0.478484       0.478444       0.456960
      15.420000       0.478178       0.480481       0.461511
      15.430000       0.477403       0.482352       0.466321
      15.440000       0.476096       0.484018       0.471338
      15.450000       0.474227       0.485457       0.476501
      15.460000       0.471794       0.486673       0.481733
      15.470000       0.468832       0.487685       0.486947
      15.480000       0.465411       0.488517       0.492049
      15.490000       0.461641       0.489184       0.496943
      15.500000       0.457663       0.489690       0.501551
      15.510000       0.453632       0.490024       0.505817
      15.520000       0.449697       0.490173       0.509717
      15.530000       0.445980       0.490127       0.513262
      15.540000       0.442574       0.489893       0.516495
      15.550000       0.439544       0.489493       0.519481
      15.560000       0.436931       0.488962       0.522299
      15.570000       0.434762       0.488342       0.525026
      15.580000       0.433057       0.487672       0.527731
      15.590000       0.431837       0.486982       0.530463
      15.600000       0.431128       0.486297       0.533249
      15.610000       0.430958       0.485641       0.536095
      15.620000       0.431354       0.485037       0.538992
      15.630000       0.432331       0.484517       0.541917
      15.640000       0.433881       0.484114       0.544846
      15.650000       0.435973       0.483858       0.547757
      15.660000       0.438550       0.483772       0.550630
      15.670000       0.441533       0.483864       0.553452
      15.680000       0.444829       0.484126       0.556215
      15.690000       0.448340       0.484538       0.558910
      15.700000       0.451970       0.485069       0.561529
      15.710000       0.455635       0.485685       0.564068
      15.720000       0.459261       0.486356       0.566526
      15.730000       0.462797       0.487064       0.568913
      15.740000       0.466207       0.487800       0.571249
      15.750000       0.469478       0.488571       0.573566
      15.760000       0.472617       0.489386       0.575904
      15.770000       0.475649       0.490254       0.578303
      15.780000       0.478617       0.491177       0.580798
      15.790000       0.481573       0.492146       0.583414
      15.800000       0.484562       0.493152       0.586154
      15.810000       0.487616       0.494179       0.589006
      15.820000       0.490741       0.495213       0.591937
      15.830000       0.493919       0.496240       0.594909
      15.840000       0.497110       0.497246       0.597878
      15.850000       0.500262       0.498213       0.600804
      15.860000       0.503315       0.499122       0.603659
      15.870000       0.506213       0.499959       0.606423
      15.880000       0.508898       0.500711       0.609086
      15.890000       0.511320       0.501372       0.611645
      15.900000       0.513433       0.501939       0.614101
      15.910000       0.515204       0.502412       0.616459
      15.920000       0.516611       0.502789       0.618727
      15.930000       0.517647       0.503068       0.620921
      15.940000       0.518315       0.503245       0.623068
      15.950000       0.518623       0.503325       0.625207
      15.960000       0.518578       0.503321       0.627376
      15.970000       0.518184       0.503261       0.629612
      15.980000       0.517445       0.503185       0.631935
      15.990000       0.516379       0.503138       0.634340
      16.000000       0.515020       0.503168       0.636806
      16.010000       0.513425       0.503316       0.639290
      16.020000       0.511668       0.503610       0.641747
      16.030000       0.509827       0.504067       0.644133
      16.040000       0.507963       0.504686       0.646416
      16.050000       0.506107       0.505450       0.648580
      16.060000       0.504252       0.506326       0.650626
      16.070000       0.502357       0.507270       0.652574
      16.080000       0.500374       0.508232       0.654455
      16.090000       0.498273       0.509162       0.656309
      16.100000       0.496073       0.510014       0.658174
      16.110000       0.493855       0.510747       0.660079
      16.120000       0.491755       0.511325       0.662033
      16.130000       0.489933       0.511716       0.664031
      16.140000       0.488542       0.511892       0.666047
      16.150000       0.487688       0.511824       0.668047
      16.160000       0.487423       0.511488       0.669991
      16.170000       0.487740       0.510871       0.671839
      16.180000       0.488592       0.509980       0.673555
      16.190000       0.489900       0.508847       0.675114
      16.200000       0.491566       0.507532       0.676500
      16.210000       0.493479       0.506115       0.677716
      16.220000       0.495519       0.504690       0.678783
      16.230000       0.497556       0.503351       0.679743
      16.240000       0.499455       0.502184       0.680651
      16.250000       0.501077       0.501256       0.681575
      16.260000       0.502285       0.500615       0.682574
      16.270000       0.502954       0.500285       0.683694
      16.280000       0.502997       0.500269       0.684957
      16.290000       0.502382       0.500553       0.686355
      16.300000       0.501160       0.501105       0.687852
      16.310000       0.499471       0.501886       0.689393
      16.320000       0.497535       0.502851       0.690918
      16.330000       0.495606       0.503947       0.692369
      16.340000       0.493930       0.505121       0.693705
      16.350000       0.492692       0.506318       0.694902
      16.360000       0.491993       0.507488       0.695956
      16.370000       0.491858       0.508590       0.696877
      16.380000       0.492254       0.509598       0.697685
      16.390000       0.493116       0.510500       0.698409
      16.400000       0.494371       0.511299       0.699078
      16.410000       0.495953       0.512015       0.699724
      16.420000       0.497803       0.512674       0.700380
      16.430000       0.499873       0.513310       0.701075
      16.440000       0.502125       0.513960       0.701837
      16.450000       0.504523       0.514654       0.702689
      16.460000       0.507030       0.515419       0.703649
      16.470000       0.509610       0.516266       0.704730
      16.480000       0.512223       0.517192       0.705933
      16.490000       0.514827       0.518182       0.707253
      16.500000       0.517381       0.519206       0.708669
      16.510000       0.519845       0.520230       0.710153
      16.520000       0.522177       0.521222       0.711666
      16.530000       0.524339       0.522153       0.713171
      16.540000       0.526289       0.523000       0.714637
      16.550000       0.527994       0.523752       0.716045
      16.560000       0.529427       0.524407       0.717389
      16.570000       0.530584       0.524979       0.718680
      16.580000       0.531491       0.525497       0.719938
      16.590000       0.532204       0.526004       0.721194
      16.600000       0.532805       0.526552       0.722480
      16.610000       0.533387       0.527187       0.723828
      16.620000       0.534040       0.527941       0.725260
      16.630000       0.534837       0.528826       0.726787
      16.640000       0.535822       0.529831       0.728417
      16.650000       0.537016       0.530925       0.730152
      16.660000       0.538416       0.532073       0.731996
      16.670000       0.540006       0.533234       0.733954
      16.680000       0.541765       0.534373       0.736035
      16.690000       0.543667       0.535465       0.738241
      16.700000       0.545686       0.536498       0.740565
      16.710000       0.547800       0.537472       0.742991
      16.720000       0.549985       0.538395       0.745496
      16.730000       0.552223       0.539283       0.748056
      16.740000       0.554493       0.540149       0.750648
      16.750000       0.556776       0.541001       0.753258
      16.760000       0.559052       0.541840       0.755877
      16.770000       0.561296       0.542662       0.758500
      16.780000       0.563488       0.543463       0.761126
      16.790000       0.565601       0.544241       0.763747
      16.800000       0.567613       0.544998       0.766357
      16.810000       0.569497       0.545737       0.768944
      16.820000       0.571232       0.546464       0.771497
      16.830000       0.572801       0.547181       0.774008
      16.840000       0.574201       0.547886       0.776473
      16.850000       0.575442       0.548575       0.778898
      16.860000       0.576555       0.549241       0.781290
      16.870000       0.577583       0.549877       0.783657
      16.880000       0.578582       0.550476       0.786009
      16.890000       0.579608       0.551025       0.788356
      16.900000       0.580708       0.551513       0.790710
      16.910000       0.581911       0.551920       0.793090
      16.920000       0.583217       0.552235       0.795520
      16.930000       0.584598       0.552449       0.798023
      16.940000       0.585995       0.552567       0.800619
      16.950000       0.587328       0.552612       0.803319
      16.960000       0.588504       0.552617       0.806119
      16.970000       0.589432       0.552625       0.809004
      16.980000       0.590024       0.552678       0.811951
      16.990000       0.590209       0.552812       0.814938
      17.000000       0.589934       0.553048       0.817952
      17.010000       0.589173       0.553391       0.820993
      17.020000       0.587930       0.553825       0.824074
      17.030000       0.586242       0.554325       0.827214
      17.040000       0.584180       0.554854       0.830432
      17.050000       0.581839       0.555375       0.833737
      17.060000       0.579323       0.555856       0.837125
      17.070000       0.576731       0.556274       0.840573
      17.080000       0.574140       0.556623       0.844053
      17.090000       0.571606       0.556908       0.847535
      17.100000       0.569164       0.557142       0.850993
      17.110000       0.566833       0.557345       0.854417
      17.120000       0.564623       0.557537       0.857802
      17.130000       0.562546       0.557733       0.861156
      17.140000       0.560617       0.557945       0.864484
      17.150000       0.558852       0.558173       0.867787
      17.160000       0.557271       0.558411       0.871061
      17.170000       0.555886       0.558646       0.874293
      17.180000       0.554707       0.558864       0.877467
      17.190000       0.553739       0.559053       0.880560
      17.200000       0.552990       0.559210       0.883551
      17.210000       0.552470       0.559339       0.886414
      17.220000       0.552197       0.559454       0.889124
      17.230000       0.552188       0.559579       0.891661
      17.240000       0.552460       0.559744       0.894016
      17.250000       0.553018       0.559981       0.896196
      17.260000       0.553849       0.560319       0.898231
      17.270000       0.554928       0.560783       0.900167
      17.280000       0.556214       0.561383       0.902063
      17.290000       0.557662       0.562123       0.903979
      17.300000       0.559227       0.562998       0.905969
      17.310000       0.560872       0.563997       0.908073
      17.320000       0.562572       0.565108       0.910308
      17.330000       0.564312       0.566318       0.912660
      17.340000       0.566086       0.567607       0.915082
      17.350000       0.567894       0.568952       0.917490
      17.360000       0.569735       0.570324       0.919776
      17.370000       0.571602       0.571690       0.921828
      17.380000       0.573486       0.573017       0.923544
      17.390000       0.575372       0.574276       0.924854
      17.400000       0.577248       0.575443       0.925729
      17.410000       0.579106       0.576502       0.926194
      17.420000       0.580945       0.577448       0.926327
      17.430000       0.582773       0.578278       0.926252
      17.440000       0.584601       0.578997       0.926129
      17.450000       0.586444       0.579613       0.926128
      17.460000       0.588310       0.580138       0.926404
      17.470000       0.590206       0.580589       0.927071
      17.480000       0.592130       0.580988       0.928182
      17.490000       0.594075       0.581359       0.929722
      17.500000       0.596029       0.581722       0.931623
      17.510000       0.597979       0.582094       0.933778
      17.520000       0.599906       0.582479       0.936062
      17.530000       0.601796       0.582873       0.938356
      17.540000       0.603639       0.583272       0.940558
      17.550000       0.605428       0.583672       0.942591
      17.560000       0.607166       0.584080       0.944406
      17.570000       0.608855       0.584509       0.945983
      17.580000       0.610500       0.584978       0.947311
      17.590000       0.612104       0.585506       0.948380
      17.600000       0.613664       0.586111       0.949160
      17.610000       0.615174       0.586803       0.949597
      17.620000       0.616626       0.587584       0.949620
      17.630000       0.618015       0.588443       0.949153
      17.640000       0.619337       0.589359       0.948137
      17.650000       0.620594       0.590300       0.946543
      17.660000       0.621797       0.591230       0.944384
      17.670000       0.622957       0.592115       0.941721
      17.680000       0.624089       0.592927       0.938661
      17.690000       0.625199       0.593650       0.935341
      17.700000       0.626287       0.594280       0.931908
      17.710000       0.627341       0.594822       0.928489
      17.720000       0.628338       0.595287       0.925171
      17.730000       0.629246       0.595693       0.921989
      17.740000       0.630031       0.596059       0.918932
      17.750000       0.630656       0.596403       0.915954
      17.760000       0.631090       0.596746       0.913003
      17.770000       0.631307       0.597101       0.910033
      17.780000       0.631293       0.597479       0.907015
      17.790000       0.631042       0.597886       0.903938
      17.800000       0.630561       0.598319       0.900801
      17.810000       0.629867       0.598768       0.897608
      17.820000       0.628983       0.599218       0.894365
      17.830000       0.627929       0.599652       0.891073
      17.840000       0.626721       0.600053       0.887732
      17.850000       0.625362       0.600411       0.884333
      17.860000       0.623851       0.600723       0.880866
      17.870000       0.622188       0.600999       0.877302
      17.880000       0.620390       0.601260       0.873600
      17.890000       0.618493       0.601536       0.869693
      17.900000       0.616558       0.601860       0.865511
      17.910000       0.614666       0.602260       0.860993
      17.920000       0.612902       0.602758       0.856123
      17.930000       0.611348       0.603359       0.850935
      17.940000       0.610066       0.604056       0.845521
      17.950000       0.609093       0.604831       0.840013
      17.960000       0.608439       0.605662       0.834557
      17.970000       0.608095       0.606528       0.829289
      17.980000       0.608037       0.607414       0.824314
      17.990000       0.608237       0.608311       0.819697
      18.000000       0.608659       0.609218       0.815461
      18.010000       0.609271       0.610135       0.811590
      18.020000       0.610039       0.611064       0.808051
      18.030000       0.610925       0.612001       0.804797
      18.040000       0.611890       0.612936       0.801784
      18.050000       0.612893       0.613856       0.798969
      18.060000       0.613896       0.614743       0.796325
      18.070000       0.614870       0.615583       0.793850
      18.080000       0.615792       0.616368       0.791575
      18.090000       0.616658       0.617097       0.789569
      18.100000       0.617475       0.617782       0.787917
      18.110000       0.618265       0.618445       0.786689
      18.120000       0.619056       0.619114       0.785910
      18.130000       0.619881       0.619816       0.785532
      18.140000       0.620764       0.620576       0.785423
      18.150000       0.621722       0.621411       0.785386
      18.160000       0.622757       0.622325       0.785189
      18.170000       0.623862       0.623318       0.784601
      18.180000       0.625016       0.624383       0.783439
      18.190000       0.626195       0.625509       0.781595
      18.200000       0.627367       0.626683       0.779050
      18.210000       0.628502       0.627893       0.775874
      18.220000       0.629569       0.629124       0.772211
      18.230000       0.630544       0.630362       0.768261
      18.240000       0.631412       0.631590       0.764260
      18.250000       0.632169       0.632788       0.760461
      18.260000       0.632821       0.633938       0.757107
      18.270000       0.633386       0.635022       0.754403
      18.280000       0.633882       0.636025       0.752486
      18.290000       0.634335       0.636939       0.751409
      18.300000       0.634766       0.637763       0.751139
      18.310000       0.635195       0.638504       0.751577
      18.320000       0.635636       0.639174       0.752576
      18.330000       0.636097       0.639790       0.753966
      18.340000       0.636577       0.640367       0.755575
      18.350000       0.637069       0.640918       0.757245
      18.360000       0.637565       0.641452       0.758837
      18.370000       0.638057       0.641974       0.760240
      18.380000       0.638541       0.642491       0.761375
      18.390000       0.639020       0.643006       0.762187
      18.400000       0.639502       0.643522       0.762649
      18.410000       0.639995       0.644044       0.762750
      18.420000       0.640506       0.644568       0.762493
      18.430000       0.641036       0.645090       0.761885
      18.440000       0.641578       0.645596       0.760929
      18.450000       0.642118       0.646070       0.759619
      18.460000       0.642635       0.646494       0.757944
      18.470000       0.643109       0.646849       0.755898
      18.480000       0.643522       0.647118       0.753492
      18.490000       0.643857       0.647289       0.750767
      18.500000       0.644107       0.647357       0.747788
      18.510000       0.644272       0.647324       0.744634
      18.520000       0.644360       0.647195       0.741378
      18.530000       0.644384       0.646982       0.738080
      18.540000       0.644360       0.646702       0.734794
      18.550000       0.644299       0.646374       0.731581
      18.560000       0.644204       0.646019       0.728517
      18.570000       0.644074       0.645662       0.725697
      18.580000       0.643902       0.645322       0.723221
      18.590000       0.643681       0.645014       0.721180
      18.600000       0.643409       0.644744       0.719641
      18.610000       0.643088       0.644512       0.718634
      18.620000       0.642731       0.644312       0.718158
      18.630000       0.642353       0.644139       0.718191
      18.640000       0.641975       0.643994       0.718697
      18.650000       0.641616       0.643883       0.719638
      18.660000       0.641295       0.643817       0.720969
      18.670000       0.641024       0.643813       0.722635
      18.680000       0.640811       0.643886       0.724568
      18.690000       0.640660       0.644050       0.726682
      18.700000       0.640565       0.644315       0.728884
      18.710000       0.640515       0.644679       0.731075
      18.720000       0.640492       0.645136       0.733164
      18.730000       0.640477       0.645672       0.735067
      18.740000       0.640453       0.646273       0.736704
      18.750000       0.640410       0.646924       0.738001
      18.760000       0.640350       0.647617       0.738894
      18.770000       0.640285       0.648344       0.739336
      18.780000       0.640230       0.649096       0.739322
      18.790000       0.640203       0.649860       0.738900
      18.800000       0.640215       0.650621       0.738175
      18.810000       0.640271       0.651356       0.737293
      18.820000       0.640364       0.652042       0.736422
      18.830000       0.640481       0.652653       0.735716
      18.840000       0.640602       0.653171       0.735291
      18.850000       0.640709       0.653581       0.735212
      18.860000       0.640789       0.653881       0.735484
      18.870000       0.640838       0.654076       0.736069
      18.880000       0.640861       0.654181       0.736898
      18.890000       0.640867       0.654216       0.737890
      18.900000       0.640869       0.654199       0.738969
      18.910000       0.640879       0.654147       0.740070
      18.920000       0.640907       0.654073       0.741147
      18.930000       0.640959       0.653985       0.742169
      18.940000       0.641040       0.653889       0.743125
      18.950000       0.641156       0.653788       0.744014
      18.960000       0.641309       0.653685       0.744845
      18.970000       0.641505       0.653581       0.745630
      18.980000       0.641743       0.653474       0.746383
      18.990000       0.642022       0.653360       0.747124
      19.000000       0.642334       0.653235       0.747876
      19.010000       0.642667       0.653095       0.748665
      19.020000       0.643008       0.652941       0.749516
      19.030000       0.643344       0.652778       0.750453
      19.040000       0.643665       0.652616       0.751491
      19.050000       0.643968       0.652467       0.752630
      19.060000       0.644251       0.652344       0.753851
      19.070000       0.644520       0.652257       0.755114
      19.080000       0.644785       0.652213       0.756362
      19.090000       0.645057       0.652219       0.757538
      19.100000       0.645349       0.652276       0.758588
      19.110000       0.645674       0.652387       0.759469
      19.120000       0.646046       0.652551       0.760159
      19.130000       0.646476       0.652768       0.760660
      19.140000       0.646977       0.653037       0.760994
      19.150000       0.647558       0.653357       0.761213
      19.160000       0.648227       0.653725       0.761385
      19.170000       0.648987       0.654140       0.761590
      19.180000       0.649836       0.654599       0.761905
      19.190000       0.650767       0.655100       0.762393
      19.200000       0.651765       0.655642       0.763090
      19.210000       0.652811       0.656224       0.763999
      19.220000       0.653886       0.656849       0.765094
      19.230000       0.654970       0.657518       0.766321
      19.240000       0.656049       0.658235       0.767612
      19.250000       0.657114       0.659000       0.768901
      19.260000       0.658163       0.659808       0.770129
      19.270000       0.659199       0.660651       0.771256
      19.280000       0.660231       0.661516       0.772260
      19.290000       0.661270       0.662388       0.773130
      19.300000       0.662327       0.663250       0.773862
      19.310000       0.663411       0.664090       0.774459
      19.320000       0.664529       0.664901       0.774930
      19.330000       0.665682       0.665683       0.775294
      19.340000       0.666866       0.666444       0.775580
      19.350000       0.668074       0.667196       0.775831
      19.360000       0.669293       0.667958       0.776101
      19.370000       0.670509       0.668744       0.776455
      19.380000       0.671706       0.669568       0.776962
      19.390000       0.672869       0.670436       0.777682
      19.400000       0.673988       0.671346       0.778645
      19.410000       0.675054       0.672292       0.779833
      19.420000       0.676065       0.673263       0.781165
      19.430000       0.677024       0.674248       0.782495
      19.440000       0.677934       0.675233       0.783628
      19.450000       0.678803       0.676207       0.784344
      19.460000       0.679637       0.677156       0.784432
      19.470000       0.680443       0.678069       0.783731
      19.480000       0.681228       0.678935       0.782149
      19.490000       0.681997       0.679743       0.779686
      19.500000       0.682758       0.680484       0.776416
      19.510000       0.683517       0.681156       0.772474
      19.520000       0.684284       0.681759       0.768017
      19.530000       0.685065       0.682302       0.763195
      19.540000       0.685870       0.682797       0.758125
      19.550000       0.686703       0.683257       0.752878
      19.560000       0.687569       0.683699       0.747478
      19.570000       0.688468       0.684135       0.741918
      19.580000       0.689399       0.684573       0.736178
      19.590000       0.690358       0.685019       0.730250
      19.600000       0.691343       0.685475       0.724150
      19.610000       0.692349       0.685942       0.717920
      19.620000       0.693372       0.686423       0.711623
      19.630000       0.694406       0.686919       0.705337
      19.640000       0.695447       0.687435       0.699147
      19.650000       0.696489       0.687975       0.693155
      19.660000       0.697529       0.688539       0.687477
      19.670000       0.698565       0.689129       0.682236
      19.680000       0.699599       0.689740       0.677551
      19.690000       0.700632       0.690366       0.673508
      19.700000       0.701666       0.690996       0.670148
      19.710000       0.702703       0.691618       0.667456
      19.720000       0.703740       0.692216       0.665367
      19.730000       0.704772       0.692774       0.663778
      19.740000       0.705793       0.693281       0.662560
      19.750000       0.706791       0.693727       0.661578
      19.760000       0.707755       0.694109       0.660687
      19.770000       0.708665       0.694430       0.659744
      19.780000       0.709502       0.694698       0.658615
      19.790000       0.710241       0.694924       0.657187
      19.800000       0.710857       0.695119       0.655386
      19.810000       0.711327       0.695296       0.653198
      19.820000       0.711633       0.695466       0.650672
      19.830000       0.711764       0.695636       0.647922
      19.840000       0.711722       0.695811       0.645104
      19.850000       0.711522       0.695992       0.642391
      19.860000       0.711191       0.696178       0.639940
      19.870000       0.710768       0.696365       0.637860
      19.880000       0.710300       0.696548       0.636204
      19.890000       0.709833       0.696721       0.634965
      19.900000       0.709405       0.696877       0.634085
      19.910000       0.709045       0.697010       0.633467
      19.920000       0.708768       0.697115       0.632984
      19.930000       0.708573       0.697187       0.632491
      19.940000       0.708444       0.697222       0.631838
      19.950000       0.708355       0.697221       0.630891
      19.960000       0.708270       0.697183       0.629549
      19.970000       0.708152       0.697115       0.627765
      19.980000       0.707968       0.697029       0.625565
      19.990000       0.707693       0.696938       0.623038
      20.000000       0.707317       0.696861       0.620323
