  # energy grid [eV]     epsi_x  epsi_y  epsi_z
       0.000000            NaN            NaN            NaN
       0.010000       0.002857       0.001868       8.755238
       0.020000       0.005716       0.003739       5.247724
       0.030000       0.008584       0.005620       4.099572
       0.040000       0.011464       0.007512       3.451942
       0.050000       0.014359       0.009422       2.997066
       0.060000       0.017273       0.011353       2.645261
       0.070000       0.020212       0.013311       2.357752
       0.080000       0.023179       0.015300       2.113342
       0.090000       0.026180       0.017325       1.899331
       0.100000       0.029219       0.019393       1.708139
       0.110000       0.032301       0.021508       1.535507
       0.120000       0.035432       0.023679       1.379207
       0.130000       0.038619       0.025911       1.238080
       0.140000       0.041867       0.028213       1.111376
       0.150000       0.045185       0.030592       0.998387
       0.160000       0.048579       0.033060       0.898292
       0.170000       0.052058       0.035625       0.810148
       0.180000       0.055631       0.038299       0.732930
       0.190000       0.059307       0.041096       0.665587
       0.200000       0.063095       0.044029       0.607088
       0.210000       0.067006       0.047114       0.556457
       0.220000       0.071048       0.050369       0.512778
       0.230000       0.075229       0.053814       0.475202
       0.240000       0.079557       0.057470       0.442937
       0.250000       0.084034       0.061359       0.415234
       0.260000       0.088662       0.065507       0.391380
       0.270000       0.093440       0.069940       0.370687
       0.280000       0.098364       0.074683       0.352492
       0.290000       0.103427       0.079761       0.336155
       0.300000       0.108622       0.085199       0.321079
       0.310000       0.113941       0.091019       0.306742
       0.320000       0.119374       0.097243       0.292746
       0.330000       0.124912       0.103896       0.278861
       0.340000       0.130552       0.111010       0.265049
       0.350000       0.136307       0.118629       0.251435
       0.360000       0.142204       0.126807       0.238250
       0.370000       0.148292       0.135609       0.225763
       0.380000       0.154634       0.145099       0.214215
       0.390000       0.161296       0.155325       0.203785
       0.400000       0.168343       0.166300       0.194576
       0.410000       0.175824       0.177993       0.186615
       0.420000       0.183766       0.190317       0.179860
       0.430000       0.192160       0.203133       0.174209
       0.440000       0.200959       0.216259       0.169510
       0.450000       0.210064       0.229488       0.165567
       0.460000       0.219325       0.242617       0.162161
       0.470000       0.228549       0.255459       0.159068
       0.480000       0.237521       0.267879       0.156089
       0.490000       0.246045       0.279813       0.153077
       0.500000       0.253989       0.291294       0.149963
       0.510000       0.261328       0.302454       0.146765
       0.520000       0.268150       0.313491       0.143570
       0.530000       0.274640       0.324597       0.140509
       0.540000       0.281033       0.335868       0.137722
       0.550000       0.287566       0.347240       0.135327
       0.560000       0.294450       0.358451       0.133401
       0.570000       0.301847       0.369083       0.131968
       0.580000       0.309884       0.378662       0.131001
       0.590000       0.318661       0.386784       0.130423
       0.600000       0.328268       0.393250       0.130123
       0.610000       0.338799       0.398142       0.129975
       0.620000       0.350356       0.401836       0.129868
       0.630000       0.363046       0.404948       0.129730
       0.640000       0.376977       0.408244       0.129544
       0.650000       0.392259       0.412526       0.129337
       0.660000       0.408994       0.418522       0.129158
       0.670000       0.427280       0.426811       0.129052
       0.680000       0.447195       0.437754       0.129045
       0.690000       0.468796       0.451453       0.129130
       0.700000       0.492101       0.467707       0.129273
       0.710000       0.517069       0.485976       0.129404
       0.720000       0.543580       0.505356       0.129426
       0.730000       0.571428       0.524600       0.129216
       0.740000       0.600318       0.542214       0.128648
       0.750000       0.629901       0.556652       0.127620
       0.760000       0.659845       0.566578       0.126078
       0.770000       0.689930       0.571153       0.124028
       0.780000       0.720145       0.570225       0.121524
       0.790000       0.750749       0.564362       0.118645
       0.800000       0.782268       0.554718       0.115473
       0.810000       0.815436       0.542790       0.112076
       0.820000       0.851095       0.530136       0.108515
       0.830000       0.890120       0.518157       0.104852
       0.840000       0.933357       0.507951       0.101166
       0.850000       0.981611       0.500256       0.097556
       0.860000       1.035660       0.495448       0.094135
       0.870000       1.096279       0.493552       0.091018
       0.880000       1.164275       0.494269       0.088305
       0.890000       1.240519       0.496997       0.086077
       0.900000       1.325966       0.500877       0.084386
       0.910000       1.421677       0.504881       0.083262
       0.920000       1.528824       0.507958       0.082707
       0.930000       1.648688       0.509235       0.082701
       0.940000       1.782642       0.508208       0.083198
       0.950000       1.932118       0.504865       0.084121
       0.960000       2.098557       0.499674       0.085366
       0.970000       2.283338       0.493446       0.086800
       0.980000       2.487702       0.487143       0.088273
       0.990000       2.712639       0.481695       0.089633
       1.000000       2.958735       0.477876       0.090757
       1.010000       3.225915       0.476249       0.091568
       1.020000       3.513040       0.477155       0.092057
       1.030000       3.817350       0.480732       0.092278
       1.040000       4.133866       0.486932       0.092338
       1.050000       4.454995       0.495551       0.092361
       1.060000       4.770656       0.506246       0.092462
       1.070000       5.069185       0.518584       0.092716
       1.080000       5.338952       0.532095       0.093143
       1.090000       5.570244       0.546339       0.093703
       1.100000       5.756735       0.560973       0.094308
       1.110000       5.896042       0.575792       0.094842
       1.120000       5.989398       0.590753       0.095203
       1.130000       6.040895       0.605976       0.095325
       1.140000       6.056659       0.621745       0.095208
       1.150000       6.043963       0.638480       0.094912
       1.160000       6.010062       0.656691       0.094543
       1.170000       5.960847       0.676897       0.094215
       1.180000       5.899777       0.699538       0.094018
       1.190000       5.827697       0.724906       0.093989
       1.200000       5.743705       0.753104       0.094104
       1.210000       5.646633       0.784015       0.094273
       1.220000       5.536272       0.817273       0.094359
       1.230000       5.413596       0.852227       0.094206
       1.240000       5.279921       0.887922       0.093667
       1.250000       5.135595       0.923159       0.092643
       1.260000       4.979154       0.956670       0.091103
       1.270000       4.807586       0.987418       0.089100
       1.280000       4.617669       1.014935       0.086755
       1.290000       4.407759       1.039552       0.084238
       1.300000       4.179096       1.062416       0.081731
       1.310000       3.936004       1.085257       0.079401
       1.320000       3.685002       1.110008       0.077384
       1.330000       3.433378       1.138393       0.075779
       1.340000       3.187891       1.171603       0.074642
       1.350000       2.953965       1.210074       0.073998
       1.360000       2.735425       1.253384       0.073838
       1.370000       2.534578       1.300265       0.074122
       1.380000       2.352478       1.348742       0.074779
       1.390000       2.189218       1.396418       0.075707
       1.400000       2.044202       1.440860       0.076778
       1.410000       1.916358       1.479996       0.077847
       1.420000       1.804291       1.512375       0.078777
       1.430000       1.706367       1.537235       0.079464
       1.440000       1.620771       1.554435       0.079859
       1.450000       1.545530       1.564383       0.079982
       1.460000       1.478570       1.568071       0.079908
       1.470000       1.417820       1.567140       0.079749
       1.480000       1.361376       1.563857       0.079613
       1.490000       1.307713       1.560886       0.079589
       1.500000       1.255859       1.560886       0.079722
       1.510000       1.205461       1.566069       0.080013
       1.520000       1.156706       1.577818       0.080427
       1.530000       1.110136       1.596446       0.080906
       1.540000       1.066420       1.621122       0.081381
       1.550000       1.026180       1.649976       0.081795
       1.560000       0.989888       1.680415       0.082110
       1.570000       0.957835       1.709669       0.082328
       1.580000       0.930156       1.735466       0.082487
       1.590000       0.906865       1.756671       0.082659
       1.600000       0.887900       1.773611       0.082927
       1.610000       0.873156       1.787951       0.083369
       1.620000       0.862514       1.802171       0.084029
       1.630000       0.855855       1.818840       0.084905
       1.640000       0.853074       1.839953       0.085942
       1.650000       0.854072       1.866478       0.087041
       1.660000       0.858743       1.898150       0.088075
       1.670000       0.866938       1.933511       0.088919
       1.680000       0.878431       1.970147       0.089481
       1.690000       0.892891       2.005080       0.089721
       1.700000       0.909890       2.035242       0.089656
       1.710000       0.928958       2.057974       0.089344
       1.720000       0.949675       2.071481       0.088860
       1.730000       0.971776       2.075207       0.088266
       1.740000       0.995215       2.070026       0.087601
       1.750000       1.020139       2.058148       0.086871
       1.760000       1.046792       2.042683       0.086068
       1.770000       1.075379       2.027016       0.085183
       1.780000       1.105973       2.014180       0.084230
       1.790000       1.138517       2.006450       0.083253
       1.800000       1.172923       2.005209       0.082329
       1.810000       1.209208       2.011022       0.081552
       1.820000       1.247582       2.023769       0.081014
       1.830000       1.288403       2.042749       0.080786
       1.840000       1.332019       2.066714       0.080910
       1.850000       1.378538       2.093924       0.081385
       1.860000       1.427662       2.122273       0.082176
       1.870000       1.478647       2.149521       0.083211
       1.880000       1.530436       2.173552       0.084400
       1.890000       1.581890       2.192595       0.085643
       1.900000       1.632029       2.205331       0.086851
       1.910000       1.680189       2.210904       0.087962
       1.920000       1.726030       2.208871       0.088944
       1.930000       1.769461       2.199172       0.089801
       1.940000       1.810521       2.182146       0.090562
       1.950000       1.849322       2.158532       0.091278
       1.960000       1.886056       2.129423       0.092006
       1.970000       1.921060       2.096144       0.092797
       1.980000       1.954840       2.060131       0.093695
       1.990000       1.988023       2.022840       0.094728
       2.000000       2.021224       1.985652       0.095910
       2.010000       2.054933       1.949719       0.097246
       2.020000       2.089457       1.915745       0.098728
       2.030000       2.124948       1.883818       0.100350
       2.040000       2.161411       1.853401       0.102112
       2.050000       2.198644       1.823561       0.104031
       2.060000       2.236114       1.793359       0.106144
       2.070000       2.272832       1.762218       0.108504
       2.080000       2.307290       1.730092       0.111164
       2.090000       2.337474       1.697353       0.114161
       2.100000       2.360897       1.664507       0.117502
       2.110000       2.374666       1.631917       0.121156
       2.120000       2.375645       1.599715       0.125062
       2.130000       2.360774       1.567906       0.129127
       2.140000       2.327539       1.536574       0.133241
       2.150000       2.274531       1.506026       0.137269
       2.160000       2.201924       1.476788       0.141056
       2.170000       2.111689       1.449470       0.144437
       2.180000       2.007405       1.424591       0.147250
       2.190000       1.893691       1.402449       0.149369
       2.200000       1.775440       1.383064       0.150716
       2.210000       1.657122       1.366179       0.151264
       2.220000       1.542322       1.351285       0.151021
       2.230000       1.433578       1.337626       0.150011
       2.240000       1.332432       1.324204       0.148271
       2.250000       1.239621       1.309836       0.145858
       2.260000       1.155308       1.293303       0.142868
       2.270000       1.079294       1.273579       0.139455
       2.280000       1.011192       1.250070       0.135820
       2.290000       0.950534       1.222752       0.132196
       2.300000       0.896814       1.192152       0.128813
       2.310000       0.849493       1.159208       0.125873
       2.320000       0.807984       1.125061       0.123526
       2.330000       0.771623       1.090827       0.121862
       2.340000       0.739659       1.057411       0.120910
       2.350000       0.711258       1.025370       0.120637
       2.360000       0.685540       0.994895       0.120963
       2.370000       0.661651       0.965895       0.121767
       2.380000       0.638867       0.938178       0.122917
       2.390000       0.616686       0.911647       0.124287
       2.400000       0.594885       0.886430       0.125784
       2.410000       0.573504       0.862904       0.127360
       2.420000       0.552777       0.841621       0.129007
       2.430000       0.533030       0.823194       0.130744
       2.440000       0.514597       0.808201       0.132592
       2.450000       0.497765       0.797126       0.134571
       2.460000       0.482751       0.790334       0.136691
       2.470000       0.469703       0.788054       0.138959
       2.480000       0.458703       0.790368       0.141384
       2.490000       0.449782       0.797183       0.143980
       2.500000       0.442916       0.808195       0.146752
       2.510000       0.438037       0.822845       0.149689
       2.520000       0.435024       0.840291       0.152747
       2.530000       0.433705       0.859404       0.155834
       2.540000       0.433849       0.878836       0.158810
       2.550000       0.435168       0.897175       0.161497
       2.560000       0.437326       0.913175       0.163699
       2.570000       0.439954       0.926001       0.165227
       2.580000       0.442685       0.935393       0.165921
       2.590000       0.445198       0.941688       0.165671
       2.600000       0.447277       0.945674       0.164437
       2.610000       0.448862       0.948354       0.162261
       2.620000       0.450077       0.950682       0.159270
       2.630000       0.451222       0.953361       0.155668
       2.640000       0.452722       0.956748       0.151695
       2.650000       0.455060       0.960890       0.147587
       2.660000       0.458696       0.965693       0.143538
       2.670000       0.464019       0.971156       0.139670
       2.680000       0.471297       0.977572       0.136031
       2.690000       0.480658       0.985621       0.132609
       2.700000       0.492082       0.996306       0.129362
       2.710000       0.505412       1.010770       0.126251
       2.720000       0.520381       1.030094       0.123268
       2.730000       0.536674       1.055117       0.120440
       2.740000       0.553991       1.086318       0.117816
       2.750000       0.572110       1.123750       0.115452
       2.760000       0.590902       1.166978       0.113390
       2.770000       0.610289       1.215018       0.111649
       2.780000       0.630172       1.266241       0.110230
       2.790000       0.650360       1.318290       0.109126
       2.800000       0.670544       1.368041       0.108333
       2.810000       0.690321       1.411728       0.107860
       2.820000       0.709269       1.445310       0.107723
       2.830000       0.727000       1.465118       0.107940
       2.840000       0.743183       1.468634       0.108522
       2.850000       0.757509       1.455123       0.109461
       2.860000       0.769606       1.425828       0.110728
       2.870000       0.778976       1.383624       0.112271
       2.880000       0.784976       1.332281       0.114017
       2.890000       0.786866       1.275658       0.115886
       2.900000       0.783909       1.217105       0.117801
       2.910000       0.775509       1.159194       0.119701
       2.920000       0.761350       1.103718       0.121550
       2.930000       0.741525       1.051833       0.123350
       2.940000       0.716602       1.004220       0.125136
       2.950000       0.687595       0.961201       0.126976
       2.960000       0.655833       0.922819       0.128942
       2.970000       0.622757       0.888902       0.131093
       2.980000       0.589710       0.859124       0.133442
       2.990000       0.557772       0.833064       0.135947
       3.000000       0.527686       0.810226       0.138507
       3.010000       0.499849       0.790057       0.140977
       3.020000       0.474367       0.771951       0.143191
       3.030000       0.451140       0.755298       0.144983
       3.040000       0.429951       0.739557       0.146204
       3.050000       0.410556       0.724333       0.146724
       3.060000       0.392731       0.709407       0.146442
       3.070000       0.376307       0.694703       0.145299
       3.080000       0.361167       0.680208       0.143295
       3.090000       0.347234       0.665909       0.140507
       3.100000       0.334458       0.651769       0.137082
       3.110000       0.322812       0.637780       0.133223
       3.120000       0.312286       0.624024       0.129148
       3.130000       0.302887       0.610733       0.125061
       3.140000       0.294636       0.598274       0.121128
       3.150000       0.287558       0.587089       0.117466
       3.160000       0.281673       0.577608       0.114148
       3.170000       0.276977       0.570172       0.111219
       3.180000       0.273439       0.564991       0.108699
       3.190000       0.270983       0.562131       0.106603
       3.200000       0.269488       0.561523       0.104933
       3.210000       0.268774       0.562971       0.103683
       3.220000       0.268606       0.566173       0.102832
       3.230000       0.268704       0.570731       0.102346
       3.240000       0.268769       0.576191       0.102183
       3.250000       0.268522       0.582102       0.102301
       3.260000       0.267750       0.588081       0.102666
       3.270000       0.266341       0.593880       0.103256
       3.280000       0.264295       0.599427       0.104056
       3.290000       0.261717       0.604823       0.105041
       3.300000       0.258773       0.610309       0.106162
       3.310000       0.255652       0.616180       0.107338
       3.320000       0.252522       0.622703       0.108455
       3.330000       0.249510       0.630040       0.109390
       3.340000       0.246699       0.638231       0.110040
       3.350000       0.244143       0.647203       0.110358
       3.360000       0.241890       0.656838       0.110369
       3.370000       0.240000       0.667031       0.110167
       3.380000       0.238544       0.677743       0.109891
       3.390000       0.237603       0.689006       0.109692
       3.400000       0.237247       0.700893       0.109699
       3.410000       0.237524       0.713457       0.110003
       3.420000       0.238454       0.726668       0.110647
       3.430000       0.240023       0.740406       0.111632
       3.440000       0.242190       0.754506       0.112922
       3.450000       0.244886       0.768847       0.114458
       3.460000       0.248020       0.783439       0.116169
       3.470000       0.251491       0.798478       0.117981
       3.480000       0.255197       0.814335       0.119827
       3.490000       0.259062       0.831506       0.121657
       3.500000       0.263057       0.850530       0.123441
       3.510000       0.267222       0.871903       0.125162
       3.520000       0.271666       0.896010       0.126812
       3.530000       0.276551       0.923087       0.128368
       3.540000       0.282058       0.953190       0.129777
       3.550000       0.288354       0.986168       0.130948
       3.560000       0.295557       1.021646       0.131762
       3.570000       0.303719       1.059016       0.132103
       3.580000       0.312803       1.097457       0.131890
       3.590000       0.322685       1.135979       0.131116
       3.600000       0.333157       1.173489       0.129847
       3.610000       0.343953       1.208862       0.128215
       3.620000       0.354787       1.241026       0.126383
       3.630000       0.365408       1.269024       0.124515
       3.640000       0.375643       1.292028       0.122745
       3.650000       0.385418       1.309282       0.121162
       3.660000       0.394743       1.320008       0.119805
       3.670000       0.403659       1.323360       0.118663
       3.680000       0.412185       1.318477       0.117686
       3.690000       0.420274       1.304680       0.116793
       3.700000       0.427806       1.281741       0.115898
       3.710000       0.434622       1.250131       0.114934
       3.720000       0.440570       1.211114       0.113866
       3.730000       0.445558       1.166639       0.112707
       3.740000       0.449594       1.119031       0.111511
       3.750000       0.452821       1.070610       0.110357
       3.760000       0.455518       1.023357       0.109328
       3.770000       0.458082       0.978710       0.108494
       3.780000       0.460967       0.937537       0.107901
       3.790000       0.464624       0.900218       0.107571
       3.800000       0.469449       0.866805       0.107509
       3.810000       0.475753       0.837177       0.107712
       3.820000       0.483778       0.811147       0.108182
       3.830000       0.493716       0.788526       0.108929
       3.840000       0.505734       0.769131       0.109974
       3.850000       0.519973       0.752772       0.111345
       3.860000       0.536523       0.739229       0.113070
       3.870000       0.555385       0.728222       0.115170
       3.880000       0.576424       0.719400       0.117651
       3.890000       0.599350       0.712366       0.120497
       3.900000       0.623729       0.706729       0.123673
       3.910000       0.649041       0.702182       0.127122
       3.920000       0.674794       0.698552       0.130773
       3.930000       0.700647       0.695808       0.134545
       3.940000       0.726518       0.694024       0.138348
       3.950000       0.752613       0.693308       0.142097
       3.960000       0.779370       0.693748       0.145709
       3.970000       0.807307       0.695380       0.149112
       3.980000       0.836832       0.698190       0.152232
       3.990000       0.868062       0.702121       0.154997
       4.000000       0.900700       0.707084       0.157333
       4.010000       0.934001       0.712944       0.159176
       4.020000       0.966867       0.719499       0.160490
       4.030000       0.998031       0.726465       0.161287
       4.040000       1.026306       0.733470       0.161627
       4.050000       1.050817       0.740088       0.161605
       4.060000       1.071173       0.745882       0.161317
       4.070000       1.087530       0.750468       0.160846
       4.080000       1.100574       0.753561       0.160243
       4.090000       1.111377       0.755016       0.159546
       4.100000       1.121170       0.754857       0.158802
       4.110000       1.131030       0.753291       0.158079
       4.120000       1.141585       0.750725       0.157478
       4.130000       1.152807       0.747738       0.157122
       4.140000       1.163972       0.745019       0.157142
       4.150000       1.173817       0.743268       0.157659
       4.160000       1.180876       0.743103       0.158770
       4.170000       1.183904       0.744980       0.160534
       4.180000       1.182249       0.749172       0.162961
       4.190000       1.176038       0.755781       0.166013
       4.200000       1.166102       0.764771       0.169597
       4.210000       1.153724       0.776003       0.173573
       4.220000       1.140319       0.789242       0.177763
       4.230000       1.127161       0.804148       0.181965
       4.240000       1.115207       0.820244       0.185976
       4.250000       1.105019       0.836894       0.189608
       4.260000       1.096764       0.853322       0.192707
       4.270000       1.090308       0.868682       0.195176
       4.280000       1.085378       0.882200       0.196982
       4.290000       1.081781       0.893376       0.198161
       4.300000       1.079609       0.902155       0.198802
       4.310000       1.079339       0.909015       0.199023
       4.320000       1.081782       0.914895       0.198948
       4.330000       1.087914       0.921010       0.198679
       4.340000       1.098641       0.928612       0.198302
       4.350000       1.114579       0.938788       0.197893
       4.360000       1.135899       0.952334       0.197537
       4.370000       1.162225       0.969717       0.197335
       4.380000       1.192610       0.991118       0.197402
       4.390000       1.225594       1.016522       0.197842
       4.400000       1.259358       1.045830       0.198731
       4.410000       1.292002       1.078959       0.200089
       4.420000       1.321901       1.115904       0.201866
       4.430000       1.348047       1.156746       0.203948
       4.440000       1.370257       1.201594       0.206168
       4.450000       1.389167       1.250492       0.208339
       4.460000       1.406060       1.303311       0.210296
       4.470000       1.422595       1.359688       0.211925
       4.480000       1.440548       1.419009       0.213188
       4.490000       1.461559       1.480472       0.214115
       4.500000       1.486919       1.543171       0.214782
       4.510000       1.517360       1.606170       0.215279
       4.520000       1.552926       1.668537       0.215673
       4.530000       1.592957       1.729346       0.215999
       4.540000       1.636230       1.787683       0.216258
       4.550000       1.681242       1.842697       0.216429
       4.560000       1.726552       1.893699       0.216489
       4.570000       1.771014       1.940237       0.216431
       4.580000       1.813803       1.982075       0.216273
       4.590000       1.854173       2.019038       0.216066
       4.600000       1.891112       2.050766       0.215894
       4.610000       1.923100       2.076525       0.215862
       4.620000       1.948199       2.095217       0.216073
       4.630000       1.964502       2.105631       0.216600
       4.640000       1.970804       2.106846       0.217461
       4.650000       1.967179       2.098599       0.218607
       4.660000       1.955168       2.081447       0.219928
       4.670000       1.937478       2.056672       0.221264
       4.680000       1.917322       2.026039       0.222441
       4.690000       1.897671       1.991515       0.223301
       4.700000       1.880681       1.955035       0.223730
       4.710000       1.867420       1.918311       0.223675
       4.720000       1.857884       1.882706       0.223156
       4.730000       1.851206       1.849207       0.222245
       4.740000       1.845938       1.818496       0.221055
       4.750000       1.840324       1.791101       0.219709
       4.760000       1.832560       1.767509       0.218318
       4.770000       1.821068       1.748195       0.216962
       4.780000       1.804787       1.733528       0.215684
       4.790000       1.783407       1.723600       0.214491
       4.800000       1.757453       1.718083       0.213365
       4.810000       1.728146       1.716190       0.212279
       4.820000       1.697084       1.716812       0.211213
       4.830000       1.665816       1.718791       0.210154
       4.840000       1.635484       1.721224       0.209098
       4.850000       1.606622       1.723683       0.208039
       4.860000       1.579174       1.726238       0.206964
       4.870000       1.552714       1.729305       0.205849
       4.880000       1.526794       1.733411       0.204661
       4.890000       1.501292       1.738993       0.203370
       4.900000       1.476642       1.746306       0.201954
       4.910000       1.453868       1.755456       0.200402
       4.920000       1.434413       1.766477       0.198712
       4.930000       1.419874       1.779423       0.196883
       4.940000       1.411729       1.794367       0.194902
       4.950000       1.411153       1.811325       0.192742
       4.960000       1.418909       1.830125       0.190367
       4.970000       1.435305       1.850301       0.187743
       4.980000       1.460175       1.871081       0.184854
       4.990000       1.492865       1.891477       0.181713
       5.000000       1.532231       1.910446       0.178364
       5.010000       1.576682       1.927072       0.174885
       5.020000       1.624297       1.940691       0.171372
       5.030000       1.673038       1.950943       0.167932
       5.040000       1.720993       1.957720       0.164662
       5.050000       1.766614       1.961062       0.161640
       5.060000       1.808850       1.961045       0.158916
       5.070000       1.847184       1.957699       0.156506
       5.080000       1.881587       1.950982       0.154400
       5.090000       1.912417       1.940815       0.152572
       5.100000       1.940283       1.927134       0.150990
       5.110000       1.965900       1.909953       0.149632
       5.120000       1.989960       1.889388       0.148494
       5.130000       2.013045       1.865670       0.147596
       5.140000       2.035557       1.839132       0.146970
       5.150000       2.057650       1.810199       0.146654
       5.160000       2.079142       1.779375       0.146680
       5.170000       2.099437       1.747248       0.147065
       5.180000       2.117506       1.714500       0.147811
       5.190000       2.131961       1.681923       0.148909
       5.200000       2.141235       1.650408       0.150335
       5.210000       2.143856       1.620894       0.152053
       5.220000       2.138775       1.594295       0.154017
       5.230000       2.125643       1.571423       0.156171
       5.240000       2.104916       1.552928       0.158458
       5.250000       2.077713       1.539242       0.160827
       5.260000       2.045481       1.530512       0.163247
       5.270000       2.009607       1.526526       0.165707
       5.280000       1.971125       1.526675       0.168208
       5.290000       1.930634       1.530015       0.170745
       5.300000       1.888398       1.535424       0.173290
       5.310000       1.844572       1.541844       0.175778
       5.320000       1.799464       1.548498       0.178099
       5.330000       1.753726       1.555026       0.180116
       5.340000       1.708426       1.561492       0.181679
       5.350000       1.664960       1.568297       0.182658
       5.360000       1.624843       1.576035       0.182963
       5.370000       1.589454       1.585381       0.182563
       5.380000       1.559829       1.596999       0.181483
       5.390000       1.536553       1.611522       0.179796
       5.400000       1.519806       1.629528       0.177607
       5.410000       1.509507       1.651525       0.175036
       5.420000       1.505515       1.677905       0.172208
       5.430000       1.507787       1.708883       0.169238
       5.440000       1.516413       1.744389       0.166227
       5.450000       1.531511       1.783953       0.163256
       5.460000       1.553013       1.826601       0.160392
       5.470000       1.580416       1.870843       0.157690
       5.480000       1.612592       1.914799       0.155197
       5.490000       1.647730       1.956469       0.152951
       5.500000       1.683457       1.994017       0.150978
       5.510000       1.717143       2.025958       0.149287
       5.520000       1.746325       2.051137       0.147868
       5.530000       1.769144       2.068547       0.146698
       5.540000       1.784665       2.077122       0.145743
       5.550000       1.792994       2.075651       0.144972
       5.560000       1.795192       2.062932       0.144358
       5.570000       1.793004       2.038119       0.143886
       5.580000       1.788483       2.001154       0.143556
       5.590000       1.783566       1.953066       0.143381
       5.600000       1.779694       1.895996       0.143386
       5.610000       1.777566       1.832912       0.143602
       5.620000       1.777091       1.767127       0.144056
       5.630000       1.777547       1.701804       0.144769
       5.640000       1.777893       1.639583       0.145748
       5.650000       1.777115       1.582393       0.146992
       5.660000       1.774504       1.531414       0.148491
       5.670000       1.769804       1.487150       0.150243
       5.680000       1.763241       1.449573       0.152257
       5.690000       1.755470       1.418298       0.154563
       5.700000       1.747485       1.392777       0.157211
       5.710000       1.740502       1.372445       0.160260
       5.720000       1.735795       1.356800       0.163756
       5.730000       1.734514       1.345367       0.167717
       5.740000       1.737514       1.337616       0.172106
       5.750000       1.745255       1.332854       0.176829
       5.760000       1.757807       1.330177       0.181733
       5.770000       1.774952       1.328507       0.186621
       5.780000       1.796326       1.326704       0.191275
       5.790000       1.821526       1.323747       0.195488
       5.800000       1.850155       1.318912       0.199095
       5.810000       1.881769       1.311914       0.201988
       5.820000       1.915734       1.302930       0.204128
       5.830000       1.951035       1.292497       0.205542
       5.840000       1.986097       1.281270       0.206305
       5.850000       2.018750       1.269760       0.206525
       5.860000       2.046392       1.258131       0.206327
       5.870000       2.066374       1.246172       0.205832
       5.880000       2.076508       1.233441       0.205147
       5.890000       2.075538       1.219544       0.204348
       5.900000       2.063439       1.204423       0.203486
       5.910000       2.041447       1.188521       0.202579
       5.920000       2.011818       1.172766       0.201621
       5.930000       1.977407       1.158401       0.200585
       5.940000       1.941199       1.146742       0.199434
       5.950000       1.905880       1.138957       0.198139
       5.960000       1.873508       1.135911       0.196688
       5.970000       1.845304       1.138085       0.195111
       5.980000       1.821553       1.145553       0.193477
       5.990000       1.801629       1.158003       0.191897
       6.000000       1.784154       1.174834       0.190501
       6.010000       1.767293       1.195298       0.189422
       6.020000       1.749166       1.218673       0.188773
       6.030000       1.728286       1.244399       0.188629
       6.040000       1.703895       1.272116       0.189030
       6.050000       1.676105       1.301565       0.189979
       6.060000       1.645790       1.332391       0.191452
       6.070000       1.614320       1.363944       0.193412
       6.080000       1.583213       1.395178       0.195812
       6.090000       1.553845       1.424683       0.198601
       6.100000       1.527222       1.450872       0.201720
       6.110000       1.503876       1.472256       0.205099
       6.120000       1.483860       1.487763       0.208660
       6.130000       1.466868       1.497030       0.212323
       6.140000       1.452430       1.500584       0.216018
       6.150000       1.440155       1.499834       0.219700
       6.160000       1.429919       1.496834       0.223355
       6.170000       1.421929       1.493870       0.227009
       6.180000       1.416635       1.492992       0.230712
       6.190000       1.414525       1.495626       0.234523
       6.200000       1.415887       1.502350       0.238494
       6.210000       1.420632       1.512864       0.242652
       6.220000       1.428241       1.526149       0.246993
       6.230000       1.437841       1.540735       0.251478
       6.240000       1.448356       1.555008       0.256031
       6.250000       1.458673       1.567430       0.260539
       6.260000       1.467767       1.576622       0.264860
       6.270000       1.474756       1.581331       0.268829
       6.280000       1.478918       1.580359       0.272275
       6.290000       1.479706       1.572587       0.275034
       6.300000       1.476784       1.557132       0.276970
       6.310000       1.470085       1.533616       0.277976
       6.320000       1.459865       1.502427       0.277986
       6.330000       1.446687       1.464826       0.276971
       6.340000       1.431335       1.422826       0.274940
       6.350000       1.414642       1.378871       0.271944
       6.360000       1.397316       1.335445       0.268082
       6.370000       1.379829       1.294747       0.263495
       6.380000       1.362430       1.258500       0.258368
       6.390000       1.345271       1.227914       0.252915
       6.400000       1.328590       1.203745       0.247369
       6.410000       1.312834       1.186382       0.241962
       6.420000       1.298702       1.175931       0.236912
       6.430000       1.287084       1.172254       0.232410
       6.440000       1.278951       1.174987       0.228612
       6.450000       1.275228       1.183516       0.225641
       6.460000       1.276667       1.196958       0.223581
       6.470000       1.283755       1.214134       0.222479
       6.480000       1.296657       1.233595       0.222350
       6.490000       1.315221       1.253705       0.223174
       6.500000       1.339033       1.272802       0.224901
       6.510000       1.367527       1.289421       0.227448
       6.520000       1.400100       1.302514       0.230706
       6.530000       1.436190       1.311592       0.234548
       6.540000       1.475247       1.316713       0.238838
       6.550000       1.516591       1.318312       0.243447
       6.560000       1.559193       1.316956       0.248270
       6.570000       1.601484       1.313138       0.253224
       6.580000       1.641302       1.307197       0.258259
       6.590000       1.676054       1.299366       0.263341
       6.600000       1.703077       1.289899       0.268444
       6.610000       1.720127       1.279184       0.273533
       6.620000       1.725829       1.267831       0.278551
       6.630000       1.719980       1.256689       0.283413
       6.640000       1.703585       1.246823       0.288010
       6.650000       1.678652       1.239426       0.292218
       6.660000       1.647801       1.235685       0.295914
       6.670000       1.613813       1.236616       0.298989
       6.680000       1.579233       1.242918       0.301359
       6.690000       1.546092       1.254880       0.302978
       6.700000       1.515797       1.272363       0.303840
       6.710000       1.489177       1.294863       0.303982
       6.720000       1.466637       1.321614       0.303487
       6.730000       1.448354       1.351706       0.302471
       6.740000       1.434424       1.384151       0.301080
       6.750000       1.424917       1.417912       0.299473
       6.760000       1.419852       1.451903       0.297804
       6.770000       1.419136       1.485025       0.296211
       6.780000       1.422518       1.516257       0.294799
       6.790000       1.429584       1.544798       0.293637
       6.800000       1.439788       1.570164       0.292757
       6.810000       1.452473       1.592174       0.292160
       6.820000       1.466872       1.610781       0.291823
       6.830000       1.482085       1.625805       0.291717
       6.840000       1.497058       1.636686       0.291823
       6.850000       1.510652       1.642428       0.292134
       6.860000       1.521818       1.641820       0.292660
       6.870000       1.529846       1.633874       0.293413
       6.880000       1.534587       1.618295       0.294390
       6.890000       1.536507       1.595765       0.295564
       6.900000       1.536549       1.567890       0.296881
       6.910000       1.535857       1.536846       0.298272
       6.920000       1.535474       1.504895       0.299658
       6.930000       1.536131       1.473963       0.300968
       6.940000       1.538141       1.445409       0.302149
       6.950000       1.541401       1.419999       0.303169
       6.960000       1.545480       1.398039       0.304021
       6.970000       1.549785       1.379581       0.304717
       6.980000       1.553754       1.364584       0.305273
       6.990000       1.557052       1.353008       0.305696
       7.000000       1.559690       1.344807       0.305977
       7.010000       1.562044       1.339878       0.306088
       7.020000       1.564764       1.337988       0.305997
       7.030000       1.568615       1.338732       0.305679
       7.040000       1.574300       1.341498       0.305144
       7.050000       1.582312       1.345457       0.304445
       7.060000       1.592861       1.349598       0.303680
       7.070000       1.605881       1.352821       0.302981
       7.080000       1.621088       1.354089       0.302486
       7.090000       1.638046       1.352600       0.302316
       7.100000       1.656211       1.347948       0.302552
       7.110000       1.674972       1.340212       0.303232
       7.120000       1.693723       1.329982       0.304355
       7.130000       1.711985       1.318307       0.305892
       7.140000       1.729564       1.306571       0.307808
       7.150000       1.746643       1.296326       0.310064
       7.160000       1.763756       1.289103       0.312629
       7.170000       1.781634       1.286236       0.315485
       7.180000       1.800960       1.288733       0.318628
       7.190000       1.822150       1.297197       0.322075
       7.200000       1.845234       1.311786       0.325858
       7.210000       1.869883       1.332232       0.330020
       7.220000       1.895586       1.357896       0.334601
       7.230000       1.921900       1.387883       0.339626
       7.240000       1.948650       1.421182       0.345094
       7.250000       1.975956       1.456783       0.350977
       7.260000       2.004031       1.493718       0.357214
       7.270000       2.032817       1.530999       0.363716
       7.280000       2.061617       1.567497       0.370367
       7.290000       2.088915       1.601856       0.377036
       7.300000       2.112517       1.632543       0.383586
       7.310000       2.130001       1.658061       0.389886
       7.320000       2.139351       1.677271       0.395830
       7.330000       2.139537       1.689683       0.401334
       7.340000       2.130842       1.695617       0.406342
       7.350000       2.114842       1.696144       0.410816
       7.360000       2.094088       1.692864       0.414742
       7.370000       2.071640       1.687597       0.418125
       7.380000       2.050564       1.682080       0.421008
       7.390000       2.033529       1.677737       0.423469
       7.400000       2.022539       1.675559       0.425624
       7.410000       2.018815       1.676108       0.427619
       7.420000       2.022822       1.679603       0.429621
       7.430000       2.034370       1.686037       0.431812
       7.440000       2.052768       1.695228       0.434380
       7.450000       2.077003       1.706798       0.437524
       7.460000       2.105929       1.720102       0.441446
       7.470000       2.138442       1.734168       0.446358
       7.480000       2.173593       1.747738       0.452473
       7.490000       2.210595       1.759427       0.459996
       7.500000       2.248739       1.767981       0.469112
       7.510000       2.287291       1.772544       0.479969
       7.520000       2.325427       1.772855       0.492664
       7.530000       2.362258       1.769299       0.507236
       7.540000       2.396925       1.762793       0.523656
       7.550000       2.428688       1.754555       0.541824
       7.560000       2.456996       1.745843       0.561563
       7.570000       2.481478       1.737766       0.582632
       7.580000       2.501907       1.731187       0.604726
       7.590000       2.518143       1.726712       0.627508
       7.600000       2.530075       1.724665       0.650628
       7.610000       2.537587       1.725042       0.673766
       7.620000       2.540532       1.727446       0.696661
       7.630000       2.538742       1.731093       0.719133
       7.640000       2.532113       1.734959       0.741095
       7.650000       2.520793       1.738063       0.762539
       7.660000       2.505403       1.739791       0.783503
       7.670000       2.487199       1.740144       0.804039
       7.680000       2.468052       1.739775       0.824185
       7.690000       2.450230       1.739842       0.843951
       7.700000       2.436059       1.741736       0.863331
       7.710000       2.427574       1.746823       0.882311
       7.720000       2.426285       1.756267       0.900878
       7.730000       2.433065       1.770954       0.919008
       7.740000       2.448171       1.791504       0.936629
       7.750000       2.471312       1.818329       0.953587
       7.760000       2.501707       1.851697       0.969635
       7.770000       2.538110       1.891739       0.984456
       7.780000       2.578811       1.938372       0.997716
       7.790000       2.621667       1.991133       1.009145
       7.800000       2.664226       2.048981       1.018595
       7.810000       2.703938       2.110144       1.026089
       7.820000       2.738429       2.172110       1.031826
       7.830000       2.765781       2.231785       1.036170
       7.840000       2.784740       2.285835       1.039606
       7.850000       2.794830       2.331116       1.042680
       7.860000       2.796316       2.365120       1.045926
       7.870000       2.790049       2.386306       1.049788
       7.880000       2.777195       2.394264       1.054557
       7.890000       2.758935       2.389680       1.060358
       7.900000       2.736217       2.374087       1.067163
       7.910000       2.709626       2.349492       1.074840
       7.920000       2.679430       2.317957       1.083202
       7.930000       2.645726       2.281270       1.092045
       7.940000       2.608620       2.240775       1.101173
       7.950000       2.568351       2.197402       1.110417
       7.960000       2.525336       2.151842       1.119639
       7.970000       2.480159       2.104777       1.128745
       7.980000       2.433536       2.057055       1.137666
       7.990000       2.386252       2.009745       1.146346
       8.000000       2.339075       1.964060       1.154719
       8.010000       2.292667       1.921197       1.162719
       8.020000       2.247514       1.882170       1.170292
       8.030000       2.203902       1.847670       1.177420
       8.040000       2.161948       1.818005       1.184117
       8.050000       2.121660       1.793096       1.190412
       8.060000       2.083017       1.772554       1.196305
       8.070000       2.046029       1.755782       1.201741
       8.080000       2.010769       1.742084       1.206594
       8.090000       1.977346       1.730724       1.210684
       8.100000       1.945854       1.720954       1.213808
       8.110000       1.916305       1.712011       1.215787
       8.120000       1.888572       1.703136       1.216507
       8.130000       1.862361       1.693628       1.215969
       8.140000       1.837216       1.682928       1.214315
       8.150000       1.812557       1.670704       1.211827
       8.160000       1.787728       1.656883       1.208887
       8.170000       1.762072       1.641607       1.205916
       8.180000       1.735015       1.625116       1.203306
       8.190000       1.706169       1.607608       1.201364
       8.200000       1.675435       1.589153       1.200275
       8.210000       1.643052       1.569697       1.200118
       8.220000       1.609581       1.549136       1.200912
       8.230000       1.575837       1.527440       1.202687
       8.240000       1.542786       1.504750       1.205556
       8.250000       1.511441       1.481429       1.209736
       8.260000       1.482757       1.458025       1.215534
       8.270000       1.457534       1.435187       1.223288
       8.280000       1.436325       1.413539       1.233298
       8.290000       1.419367       1.393578       1.245775
       8.300000       1.406535       1.375612       1.260823
       8.310000       1.397339       1.359749       1.278443
       8.320000       1.390954       1.345911       1.298533
       8.330000       1.386302       1.333866       1.320890
       8.340000       1.382176       1.323255       1.345190
       8.350000       1.377409       1.313622       1.370991
       8.360000       1.371066       1.304461       1.397755
       8.370000       1.362600       1.295301       1.424896
       8.380000       1.351915       1.285798       1.451838
       8.390000       1.339303       1.275805       1.478047
       8.400000       1.325288       1.265363       1.503041
       8.410000       1.310445       1.254608       1.526382
       8.420000       1.295256       1.243638       1.547684
       8.430000       1.280028       1.232400       1.566656
       8.440000       1.264873       1.220628       1.583160
       8.450000       1.249702       1.207855       1.597248
       8.460000       1.234276       1.193494       1.609153
       8.470000       1.218284       1.176966       1.619227
       8.480000       1.201469       1.157864       1.627854
       8.490000       1.183758       1.136106       1.635370
       8.500000       1.165337       1.112018       1.642031
       8.510000       1.146645       1.086309       1.648021
       8.520000       1.128281       1.059957       1.653493
       8.530000       1.110857       1.034040       1.658601
       8.540000       1.094847       1.009581       1.663488
       8.550000       1.080486       0.987436       1.668248
       8.560000       1.067749       0.968234       1.672874
       8.570000       1.056409       0.952373       1.677227
       8.580000       1.046166       0.940044       1.681053
       8.590000       1.036777       0.931271       1.684044
       8.600000       1.028152       0.925952       1.685935
       8.610000       1.020372       0.923893       1.686600
       8.620000       1.013643       0.924830       1.686109
       8.630000       1.008201       0.928437       1.684723
       8.640000       1.004204       0.934315       1.682861
       8.650000       1.001635       0.941988       1.681057
       8.660000       1.000257       0.950904       1.679924
       8.670000       0.999631       0.960477       1.680132
       8.680000       0.999180       0.970142       1.682345
       8.690000       0.998291       0.979404       1.687135
       8.700000       0.996402       0.987862       1.694881
       8.710000       0.993071       0.995211       1.705709
       8.720000       0.988003       1.001221       1.719505
       8.730000       0.981064       1.005736       1.736009
       8.740000       0.972268       1.008663       1.754964
       8.750000       0.961770       1.009985       1.776264
       8.760000       0.949859       1.009770       1.800070
       8.770000       0.936972       1.008206       1.826846
       8.780000       0.923695       1.005634       1.857327
       8.790000       0.910721       1.002548       1.892440
       8.800000       0.898778       0.999548       1.933201
       8.810000       0.888518       0.997225       1.980641
       8.820000       0.880426       0.996032       2.035763
       8.830000       0.874748       0.996182       2.099529
       8.840000       0.871467       0.997610       2.172871
       8.850000       0.870304       0.999985       2.256694
       8.860000       0.870746       1.002775       2.351877
       8.870000       0.872119       1.005315       2.459253
       8.880000       0.873694       1.006906       2.579557
       8.890000       0.874840       1.006919       2.713313
       8.900000       0.875162       1.004914       2.860638
       8.910000       0.874573       1.000734       3.020968
       8.920000       0.873245       0.994524       3.192745
       8.930000       0.871460       0.986666       3.373145
       8.940000       0.869408       0.977636       3.557969
       8.950000       0.867046       0.967859       3.741782
       8.960000       0.864055       0.957612       3.918352
       8.970000       0.859925       0.947000       4.081316
       8.980000       0.854109       0.936024       4.224908
       8.990000       0.846193       0.924677       4.344572
       9.000000       0.836013       0.913037       4.437308
       9.010000       0.823694       0.901312       4.501723
       9.020000       0.809614       0.889837       4.537898
       9.030000       0.794332       0.879043       4.547162
       9.040000       0.778502       0.869420       4.531872
       9.050000       0.762801       0.861468       4.495226
       9.060000       0.747868       0.855669       4.441075
       9.070000       0.734254       0.852446       4.373696
       9.080000       0.722377       0.852131       4.297505
       9.090000       0.712495       0.854937       4.216706
       9.100000       0.704697       0.860935       4.134949
       9.110000       0.698916       0.870041       4.055030
       9.120000       0.694957       0.882017       3.978721
       9.130000       0.692532       0.896487       3.906779
       9.140000       0.691277       0.912971       3.839126
       9.150000       0.690798       0.930947       3.775149
       9.160000       0.690711       0.949933       3.714002
       9.170000       0.690719       0.969569       3.654804
       9.180000       0.690664       0.989693       3.596724
       9.190000       0.690561       1.010373       3.538989
       9.200000       0.690566       1.031901       3.480896
       9.210000       0.690916       1.054740       3.421863
       9.220000       0.691841       1.079437       3.361493
       9.230000       0.693490       1.106518       3.299628
       9.240000       0.695898       1.136397       3.236345
       9.250000       0.698977       1.169295       3.171922
       9.260000       0.702523       1.205214       3.106787
       9.270000       0.706233       1.243957       3.041459
       9.280000       0.709724       1.285205       2.976509
       9.290000       0.712571       1.328615       2.912488
       9.300000       0.714377       1.373906       2.849853
       9.310000       0.714840       1.420874       2.788871
       9.320000       0.713805       1.469323       2.729560
       9.330000       0.711258       1.518933       2.671708
       9.340000       0.707277       1.569128       2.614987
       9.350000       0.701970       1.619021       2.559144
       9.360000       0.695448       1.667475       2.504183
       9.370000       0.687841       1.713267       2.450471
       9.380000       0.679338       1.755328       2.398730
       9.390000       0.670233       1.792955       2.349922
       9.400000       0.660921       1.825954       2.305076
       9.410000       0.651856       1.854643       2.265111
       9.420000       0.643493       1.879732       2.230688
       9.430000       0.636223       1.902141       2.202134
       9.440000       0.630338       1.922834       2.179429
       9.450000       0.626027       1.942741       2.162231
       9.460000       0.623388       1.962728       2.149935
       9.470000       0.622443       1.983557       2.141735
       9.480000       0.623150       2.005813       2.136685
       9.490000       0.625404       2.029791       2.133755
       9.500000       0.629044       2.055425       2.131867
       9.510000       0.633870       2.082308       2.129919
       9.520000       0.639676       2.109811       2.126814
       9.530000       0.646289       2.137267       2.121544
       9.540000       0.653606       2.164140       2.113310
       9.550000       0.661613       2.190111       2.101660
       9.560000       0.670383       2.215061       2.086581
       9.570000       0.680044       2.238981       2.068493
       9.580000       0.690735       2.261892       2.048151
       9.590000       0.702548       2.283819       2.026492
       9.600000       0.715492       2.304855       2.004477
       9.610000       0.729474       2.325239       1.982972
       9.620000       0.744307       2.345410       1.962684
       9.630000       0.759754       2.365958       1.944134
       9.640000       0.775565       2.387463       1.927648
       9.650000       0.791520       2.410281       1.913364
       9.660000       0.807459       2.434347       1.901258
       9.670000       0.823307       2.459081       1.891196
       9.680000       0.839089       2.483426       1.883006
       9.690000       0.854942       2.506002       1.876564
       9.700000       0.871101       2.525350       1.871848
       9.710000       0.887874       2.540161       1.868957
       9.720000       0.905598       2.549431       1.868077
       9.730000       0.924589       2.552476       1.869436
       9.740000       0.945070       2.548856       1.873257
       9.750000       0.967106       2.538264       1.879740
       9.760000       0.990558       2.520475       1.889045
       9.770000       1.015070       2.495357       1.901303
       9.780000       1.040114       2.462929       1.916599
       9.790000       1.065056       2.423429       1.934945
       9.800000       1.089252       2.377373       1.956234
       9.810000       1.112142       2.325603       1.980178
       9.820000       1.133339       2.269333       2.006277
       9.830000       1.152701       2.210158       2.033814
       9.840000       1.170341       2.150021       2.061915
       9.850000       1.186577       2.091096       2.089669
       9.860000       1.201805       2.035579       2.116278
       9.870000       1.216357       1.985434       2.141188
       9.880000       1.230386       1.942156       2.164164
       9.890000       1.243823       1.906629       2.185290
       9.900000       1.256410       1.879098       2.204909
       9.910000       1.267793       1.859256       2.223553
       9.920000       1.277624       1.846384       2.241871
       9.930000       1.285628       1.839510       2.260576
       9.940000       1.291626       1.837530       2.280392
       9.950000       1.295500       1.839285       2.302002
       9.960000       1.297128       1.843585       2.325980
       9.970000       1.296351       1.849217       2.352712
       9.980000       1.292974       1.854944       2.382321
       9.990000       1.286844       1.859501       2.414618
      10.000000       1.277959       1.861583       2.449096
      10.010000       1.266575       1.859870       2.484950
      10.020000       1.253265       1.853125       2.521136
      10.030000       1.238884       1.840409       2.556461
      10.040000       1.224444       1.821357       2.589725
      10.050000       1.210922       1.796387       2.619908
      10.060000       1.199071       1.766721       2.646347
      10.070000       1.189303       1.734179       2.668851
      10.080000       1.181673       1.700833       2.687703
      10.090000       1.175983       1.668660       2.703538
      10.100000       1.171938       1.639274       2.717132
      10.110000       1.169301       1.613776       2.729147
      10.120000       1.167957       1.592683       2.739894
      10.130000       1.167891       1.575930       2.749178
      10.140000       1.169079       1.562938       2.756274
      10.150000       1.171369       1.552772       2.760088
      10.160000       1.174414       1.544348       2.759490
      10.170000       1.177695       1.536672       2.753718
      10.180000       1.180633       1.529032       2.742699
      10.190000       1.182747       1.521101       2.727153
      10.200000       1.183791       1.512926       2.708445
      10.210000       1.183802       1.504834       2.688248
      10.220000       1.183069       1.497311       2.668160
      10.230000       1.182022       1.490895       2.649385
      10.240000       1.181111       1.486113       2.632553
      10.250000       1.180708       1.483429       2.617683
      10.260000       1.181052       1.483189       2.604282
      10.270000       1.182227       1.485544       2.591543
      10.280000       1.184158       1.490347       2.578588
      10.290000       1.186622       1.497081       2.564680
      10.300000       1.189275       1.504843       2.549350
      10.310000       1.191715       1.512442       2.532396
      10.320000       1.193578       1.518583       2.513796
      10.330000       1.194629       1.522116       2.493573
      10.340000       1.194807       1.522246       2.471692
      10.350000       1.194189       1.518615       2.448031
      10.360000       1.192875       1.511235       2.422436
      10.370000       1.190871       1.500297       2.394837
      10.380000       1.188001       1.485971       2.365396
      10.390000       1.183923       1.468295       2.334604
      10.400000       1.178219       1.447204       2.303277
      10.410000       1.170534       1.422666       2.272437
      10.420000       1.160698       1.394828       2.243116
      10.430000       1.148803       1.364092       2.216160
      10.440000       1.135212       1.331107       2.192090
      10.450000       1.120509       1.296678       2.171051
      10.460000       1.105397       1.261677       2.152849
      10.470000       1.090586       1.226963       2.137037
      10.480000       1.076664       1.193339       2.123034
      10.490000       1.063994       1.161525       2.110238
      10.500000       1.052669       1.132138       2.098121
      10.510000       1.042528       1.105661       2.086291
      10.520000       1.033261       1.082416       2.074526
      10.530000       1.024552       1.062528       2.062746
      10.540000       1.016211       1.045904       2.050958
      10.550000       1.008244       1.032220       2.039174
      10.560000       1.000828       1.020945       2.027334
      10.570000       0.994217       1.011401       2.015285
      10.580000       0.988638       1.002856       2.002808
      10.590000       0.984224       0.994641       1.989690
      10.600000       0.981026       0.986258       1.975817
      10.610000       0.979059       0.977455       1.961247
      10.620000       0.978360       0.968253       1.946255
      10.630000       0.978994       0.958919       1.931332
      10.640000       0.981002       0.949901       1.917156
      10.650000       0.984310       0.941761       1.904539
      10.660000       0.988634       0.935083       1.894354
      10.670000       0.993431       0.930397       1.887439
      10.680000       0.997929       0.928112       1.884502
      10.690000       1.001251       0.928467       1.886017
      10.700000       1.002596       0.931524       1.892164
      10.710000       1.001430       0.937183       1.902831
      10.720000       0.997596       0.945223       1.917681
      10.730000       0.991318       0.955321       1.936288
      10.740000       0.983089       0.967064       1.958270
      10.750000       0.973490       0.979952       1.983390
      10.760000       0.963002       0.993417       2.011582
      10.770000       0.951893       1.006861       2.042905
      10.780000       0.940190       1.019729       2.077434
      10.790000       0.927756       1.031580       2.115153
      10.800000       0.914407       1.042122       2.155868
      10.810000       0.900042       1.051191       2.199199
      10.820000       0.884737       1.058677       2.244653
      10.830000       0.868785       1.064410       2.291732
      10.840000       0.852682       1.068046       2.340051
      10.850000       0.837080       1.069004       2.389370
      10.860000       0.822702       1.066486       2.439545
      10.870000       0.810259       1.059600       2.490413
      10.880000       0.800372       1.047580       2.541669
      10.890000       0.793519       1.030026       2.592777
      10.900000       0.790028       1.007097       2.642950
      10.910000       0.790080       0.979575       2.691215
      10.920000       0.793743       0.948766       2.736561
      10.930000       0.801002       0.916282       2.778139
      10.940000       0.811786       0.883770       2.815461
      10.950000       0.825998       0.852682       2.848519
      10.960000       0.843550       0.824133       2.877766
      10.970000       0.864391       0.798852       2.903961
      10.980000       0.888534       0.777207       2.927922
      10.990000       0.916055       0.759260       2.950272
      11.000000       0.947073       0.744843       2.971239
      11.010000       0.981695       0.733615       2.990557
      11.020000       1.019941       0.725112       3.007449
      11.030000       1.061667       0.718789       3.020704
      11.040000       1.106506       0.714067       3.028813
      11.050000       1.153841       0.710376       3.030158
      11.060000       1.202804       0.707209       3.023215
      11.070000       1.252305       0.704148       3.006764
      11.080000       1.301066       0.700887       2.980066
      11.090000       1.347695       0.697237       2.942990
      11.100000       1.390796       0.693128       2.896074
      11.110000       1.429143       0.688612       2.840513
      11.120000       1.461880       0.683849       2.778042
      11.130000       1.488690       0.679084       2.710741
      11.140000       1.509877       0.674591       2.640770
      11.150000       1.526316       0.670615       2.570113
      11.160000       1.539293       0.667319       2.500391
      11.170000       1.550249       0.664758       2.432786
      11.180000       1.560492       0.662896       2.368073
      11.190000       1.570900       0.661639       2.306716
      11.200000       1.581685       0.660905       2.248974
      11.210000       1.592281       0.660662       2.194984
      11.220000       1.601398       0.660958       2.144810
      11.230000       1.607289       0.661899       2.098475
      11.240000       1.608152       0.663620       2.055986
      11.250000       1.602577       0.666251       2.017329
      11.260000       1.589879       0.669899       1.982458
      11.270000       1.570237       0.674650       1.951254
      11.280000       1.544583       0.680571       1.923490
      11.290000       1.514341       0.687713       1.898819
      11.300000       1.481094       0.696092       1.876806
      11.310000       1.446319       0.705677       1.856983
      11.320000       1.411244       0.716397       1.838930
      11.330000       1.376845       0.728183       1.822339
      11.340000       1.343919       0.741025       1.807048
      11.350000       1.313169       0.755033       1.793036
      11.360000       1.285228       0.770460       1.780389
      11.370000       1.260634       0.787677       1.769256
      11.380000       1.239770       0.807106       1.759806
      11.390000       1.222798       0.829135       1.752199
      11.400000       1.209640       0.854035       1.746572
      11.410000       1.199984       0.881918       1.743023
      11.420000       1.193333       0.912706       1.741573
      11.430000       1.189064       0.946146       1.742104
      11.440000       1.186491       0.981820       1.744303
      11.450000       1.184910       1.019170       1.747623
      11.460000       1.183638       1.057533       1.751335
      11.470000       1.182043       1.096185       1.754647
      11.480000       1.179585       1.134398       1.756892
      11.490000       1.175859       1.171484       1.757688
      11.500000       1.170644       1.206820       1.757015
      11.510000       1.163953       1.239831       1.755169
      11.520000       1.156062       1.269941       1.752635
      11.530000       1.147508       1.296546       1.749935
      11.540000       1.139042       1.319007       1.747513
      11.550000       1.131539       1.336720       1.745669
      11.560000       1.125881       1.349216       1.744543
      11.570000       1.122835       1.356290       1.744109
      11.580000       1.122964       1.358085       1.744176
      11.590000       1.126570       1.355121       1.744389
      11.600000       1.133678       1.348237       1.744236
      11.610000       1.144028       1.338450       1.743078
      11.620000       1.157074       1.326775       1.740187
      11.630000       1.171994       1.314051       1.734827
      11.640000       1.187748       1.300832       1.726356
      11.650000       1.203211       1.287363       1.714346
      11.660000       1.217358       1.273633       1.698698
      11.670000       1.229444       1.259487       1.679699
      11.680000       1.239077       1.244735       1.657996
      11.690000       1.246181       1.229253       1.634480
      11.700000       1.250840       1.213029       1.610111
      11.710000       1.253116       1.196162       1.585760
      11.720000       1.252930       1.178818       1.562087
      11.730000       1.250054       1.161169       1.539502
      11.740000       1.244202       1.143350       1.518175
      11.750000       1.235167       1.125454       1.498083
      11.760000       1.222931       1.107556       1.479064
      11.770000       1.207700       1.089744       1.460866
      11.780000       1.189863       1.072113       1.443183
      11.790000       1.169928       1.054746       1.425673
      11.800000       1.148456       1.037678       1.407982
      11.810000       1.126037       1.020890       1.389756
      11.820000       1.103271       1.004338       1.370678
      11.830000       1.080757       0.987986       1.350503
      11.840000       1.059034       0.971845       1.329097
      11.850000       1.038517       0.955971       1.306467
      11.860000       1.019425       0.940447       1.282764
      11.870000       1.001746       0.925337       1.258252
      11.880000       0.985251       0.910645       1.233275
      11.890000       0.969547       0.896276       1.208214
      11.900000       0.954169       0.882036       1.183432
      11.910000       0.938673       0.867670       1.159234
      11.920000       0.922723       0.852933       1.135803
      11.930000       0.906137       0.837672       1.113176
      11.940000       0.888893       0.821878       1.091227
      11.950000       0.871102       0.805690       1.069713
      11.960000       0.852972       0.789346       1.048338
      11.970000       0.834769       0.773121       1.026840
      11.980000       0.816783       0.757270       1.005062
      11.990000       0.799295       0.742008       0.982987
      12.000000       0.782551       0.727515       0.960723
      12.010000       0.766752       0.713951       0.938443
      12.020000       0.752083       0.701462       0.916319
      12.030000       0.738744       0.690169       0.894470
      12.040000       0.726986       0.680144       0.872946
      12.050000       0.717117       0.671399       0.851768
      12.060000       0.709488       0.663885       0.830980
      12.070000       0.704455       0.657521       0.810697
      12.080000       0.702353       0.652220       0.791122
      12.090000       0.703457       0.647917       0.772524
      12.100000       0.707955       0.644581       0.755192
      12.110000       0.715930       0.642200       0.739390
      12.120000       0.727332       0.640747       0.725323
      12.130000       0.741960       0.640154       0.713126
      12.140000       0.759446       0.640286       0.702859
      12.150000       0.779245       0.640964       0.694500
      12.160000       0.800632       0.642002       0.687937
      12.170000       0.822721       0.643264       0.682965
      12.180000       0.844498       0.644705       0.679302
      12.190000       0.864884       0.646379       0.676610
      12.200000       0.882846       0.648418       0.674523
      12.210000       0.897519       0.650987       0.672668
      12.220000       0.908328       0.654236       0.670676
      12.230000       0.915053       0.658265       0.668188
      12.240000       0.917823       0.663108       0.664874
      12.250000       0.917040       0.668755       0.660449
      12.260000       0.913292       0.675175       0.654707
      12.270000       0.907252       0.682355       0.647552
      12.280000       0.899608       0.690318       0.639030
      12.290000       0.891013       0.699124       0.629334
      12.300000       0.882048       0.708857       0.618785
      12.310000       0.873190       0.719595       0.607786
      12.320000       0.864792       0.731389       0.596769
      12.330000       0.857062       0.744231       0.586146
      12.340000       0.850057       0.758033       0.576271
      12.350000       0.843699       0.772601       0.567417
      12.360000       0.837816       0.787625       0.559760
      12.370000       0.832199       0.802677       0.553377
      12.380000       0.826648       0.817227       0.548256
      12.390000       0.821016       0.830687       0.544320
      12.400000       0.815225       0.842487       0.541444
      12.410000       0.809265       0.852169       0.539469
      12.420000       0.803188       0.859472       0.538201
      12.430000       0.797101       0.864396       0.537412
      12.440000       0.791156       0.867195       0.536844
      12.450000       0.785530       0.868306       0.536241
      12.460000       0.780399       0.868235       0.535372
      12.470000       0.775900       0.867443       0.534067
      12.480000       0.772116       0.866257       0.532241
      12.490000       0.769082       0.864846       0.529895
      12.500000       0.766805       0.863237       0.527115
      12.510000       0.765284       0.861372       0.524051
      12.520000       0.764510       0.859168       0.520897
      12.530000       0.764448       0.856568       0.517870
      12.540000       0.765004       0.853577       0.515182
      12.550000       0.765997       0.850283       0.513028
      12.560000       0.767164       0.846850       0.511572
      12.570000       0.768204       0.843490       0.510943
      12.580000       0.768844       0.840418       0.511234
      12.590000       0.768914       0.837808       0.512506
      12.600000       0.768386       0.835769       0.514786
      12.610000       0.767360       0.834355       0.518060
      12.620000       0.766031       0.833604       0.522266
      12.630000       0.764640       0.833570       0.527267
      12.640000       0.763447       0.834350       0.532842
      12.650000       0.762722       0.836081       0.538670
      12.660000       0.762744       0.838921       0.544353
      12.670000       0.763786       0.843018       0.549454
      12.680000       0.766078       0.848456       0.553566
      12.690000       0.769771       0.855202       0.556367
      12.700000       0.774923       0.863047       0.557678
      12.710000       0.781512       0.871568       0.557485
      12.720000       0.789465       0.880131       0.555934
      12.730000       0.798680       0.887962       0.553304
      12.740000       0.809009       0.894259       0.549954
      12.750000       0.820212       0.898322       0.546269
      12.760000       0.831887       0.899651       0.542608
      12.770000       0.843435       0.897985       0.539270
      12.780000       0.854064       0.893279       0.536471
      12.790000       0.862844       0.885651       0.534347
      12.800000       0.868823       0.875333       0.532949
      12.810000       0.871172       0.862642       0.532240
      12.820000       0.869336       0.847963       0.532091
      12.830000       0.863155       0.831715       0.532277
      12.840000       0.852907       0.814332       0.532482
      12.850000       0.839267       0.796245       0.532325
      12.860000       0.823191       0.777887       0.531401
      12.870000       0.805766       0.759721       0.529329
      12.880000       0.788047       0.742250       0.525805
      12.890000       0.770917       0.726003       0.520649
      12.900000       0.754997       0.711484       0.513833
      12.910000       0.740611       0.699104       0.505494
      12.920000       0.727815       0.689120       0.495919
      12.930000       0.716479       0.681590       0.485511
      12.940000       0.706376       0.676367       0.474741
      12.950000       0.697268       0.673132       0.464090
      12.960000       0.688951       0.671445       0.454000
      12.970000       0.681260       0.670815       0.444836
      12.980000       0.674059       0.670767       0.436858
      12.990000       0.667220       0.670889       0.430215
      13.000000       0.660619       0.670866       0.424944
      13.010000       0.654157       0.670502       0.420991
      13.020000       0.647797       0.669734       0.418235
      13.030000       0.641603       0.668635       0.416520
      13.040000       0.635750       0.667406       0.415670
      13.050000       0.630506       0.666332       0.415496
      13.060000       0.626184       0.665733       0.415785
      13.070000       0.623085       0.665897       0.416286
      13.080000       0.621459       0.667039       0.416712
      13.090000       0.621476       0.669251       0.416760
      13.100000       0.623229       0.672479       0.416147
      13.110000       0.626731       0.676510       0.414653
      13.120000       0.631919       0.680970       0.412157
      13.130000       0.638654       0.685371       0.408666
      13.140000       0.646716       0.689168       0.404323
      13.150000       0.655815       0.691846       0.399391
      13.160000       0.665605       0.692985       0.394220
      13.170000       0.675709       0.692303       0.389189
      13.180000       0.685735       0.689664       0.384642
      13.190000       0.695287       0.685069       0.380834
      13.200000       0.703975       0.678655       0.377907
      13.210000       0.711441       0.670683       0.375882
      13.220000       0.717399       0.661523       0.374683
      13.230000       0.721697       0.651623       0.374174
      13.240000       0.724363       0.641454       0.374205
      13.250000       0.725627       0.631469       0.374636
      13.260000       0.725887       0.622061       0.375359
      13.270000       0.725642       0.613561       0.376294
      13.280000       0.725386       0.606240       0.377381
      13.290000       0.725525       0.600321       0.378566
      13.300000       0.726304       0.595980       0.379787
      13.310000       0.727778       0.593331       0.380974
      13.320000       0.729813       0.592404       0.382049
      13.330000       0.732128       0.593115       0.382945
      13.340000       0.734366       0.595254       0.383617
      13.350000       0.736200       0.598476       0.384054
      13.360000       0.737428       0.602326       0.384285
      13.370000       0.738052       0.606276       0.384377
      13.380000       0.738281       0.609796       0.384419
      13.390000       0.738478       0.612438       0.384501
      13.400000       0.739041       0.613899       0.384686
      13.410000       0.740267       0.614053       0.385000
      13.420000       0.742238       0.612933       0.385432
      13.430000       0.744744       0.610672       0.385950
      13.440000       0.747286       0.607447       0.386526
      13.450000       0.749150       0.603448       0.387149
      13.460000       0.749550       0.598878       0.387820
      13.470000       0.747807       0.593968       0.388537
      13.480000       0.743513       0.588958       0.389271
      13.490000       0.736634       0.584056       0.389964
      13.500000       0.727510       0.579363       0.390522
      13.510000       0.716756       0.574815       0.390831
      13.520000       0.705100       0.570169       0.390771
      13.530000       0.693220       0.565054       0.390229
      13.540000       0.681634       0.559071       0.389119
      13.550000       0.670672       0.551908       0.387386
      13.560000       0.660501       0.543442       0.385002
      13.570000       0.651195       0.533777       0.381962
      13.580000       0.642789       0.523222       0.378275
      13.590000       0.635305       0.512216       0.373959
      13.600000       0.628744       0.501233       0.369045
      13.610000       0.623055       0.490702       0.363582
      13.620000       0.618107       0.480963       0.357639
      13.630000       0.613676       0.472241       0.351313
      13.640000       0.609459       0.464660       0.344726
      13.650000       0.605116       0.458246       0.338030
      13.660000       0.600325       0.452938       0.331399
      13.670000       0.594830       0.448598       0.325011
      13.680000       0.588485       0.445021       0.319026
      13.690000       0.581256       0.441950       0.313565
      13.700000       0.573221       0.439121       0.308690
      13.710000       0.564537       0.436302       0.304403
      13.720000       0.555410       0.433333       0.300651
      13.730000       0.546052       0.430143       0.297338
      13.740000       0.536659       0.426729       0.294343
      13.750000       0.527401       0.423127       0.291542
      13.760000       0.518425       0.419366       0.288824
      13.770000       0.509873       0.415459       0.286104
      13.780000       0.501886       0.411401       0.283333
      13.790000       0.494602       0.407188       0.280501
      13.800000       0.488143       0.402844       0.277626
      13.810000       0.482603       0.398439       0.274749
      13.820000       0.478047       0.394082       0.271921
      13.830000       0.474513       0.389914       0.269196
      13.840000       0.472028       0.386086       0.266620
      13.850000       0.470610       0.382744       0.264231
      13.860000       0.470268       0.380014       0.262060
      13.870000       0.471004       0.377998       0.260131
      13.880000       0.472792       0.376761       0.258470
      13.890000       0.475572       0.376321       0.257104
      13.900000       0.479230       0.376643       0.256058
      13.910000       0.483596       0.377642       0.255357
      13.920000       0.488436       0.379205       0.255017
      13.930000       0.493465       0.381203       0.255043
      13.940000       0.498361       0.383521       0.255433
      13.950000       0.502795       0.386060       0.256178
      13.960000       0.506474       0.388730       0.257270
      13.970000       0.509192       0.391442       0.258707
      13.980000       0.510877       0.394094       0.260497
      13.990000       0.511623       0.396577       0.262655
      14.000000       0.511681       0.398775       0.265203
      14.010000       0.511430       0.400584       0.268159
      14.020000       0.511304       0.401923       0.271534
      14.030000       0.511709       0.402752       0.275329
      14.040000       0.512942       0.403085       0.279528
      14.050000       0.515132       0.402999       0.284095
      14.060000       0.518224       0.402620       0.288975
      14.070000       0.521995       0.402106       0.294098
      14.080000       0.526111       0.401623       0.299386
      14.090000       0.530194       0.401326       0.304764
      14.100000       0.533893       0.401345       0.310170
      14.110000       0.536915       0.401774       0.315568
      14.120000       0.539039       0.402658       0.320957
      14.130000       0.540105       0.403974       0.326386
      14.140000       0.540012       0.405622       0.331946
      14.150000       0.538738       0.407416       0.337764
      14.160000       0.536383       0.409104       0.343972
      14.170000       0.533197       0.410387       0.350673
      14.180000       0.529558       0.410968       0.357915
      14.190000       0.525906       0.410597       0.365677
      14.200000       0.522638       0.409115       0.373862
      14.210000       0.520006       0.406476       0.382314
      14.220000       0.518048       0.402748       0.390836
      14.230000       0.516579       0.398092       0.399215
      14.240000       0.515235       0.392719       0.407251
      14.250000       0.513573       0.386851       0.414769
      14.260000       0.511176       0.380690       0.421619
      14.270000       0.507762       0.374405       0.427668
      14.280000       0.503227       0.368129       0.432780
      14.290000       0.497658       0.361975       0.436814
      14.300000       0.491289       0.356042       0.439646
      14.310000       0.484441       0.350430       0.441211
      14.320000       0.477454       0.345229       0.441551
      14.330000       0.470626       0.340521       0.440843
      14.340000       0.464179       0.336367       0.439400
      14.350000       0.458226       0.332810       0.437620
      14.360000       0.452773       0.329874       0.435933
      14.370000       0.447714       0.327561       0.434725
      14.380000       0.442849       0.325842       0.434288
      14.390000       0.437916       0.324647       0.434785
      14.400000       0.432650       0.323863       0.436250
      14.410000       0.426853       0.323342       0.438607
      14.420000       0.420452       0.322931       0.441718
      14.430000       0.413532       0.322496       0.445427
      14.440000       0.406323       0.321950       0.449601
      14.450000       0.399152       0.321266       0.454136
      14.460000       0.392382       0.320475       0.458944
      14.470000       0.386349       0.319658       0.463919
      14.480000       0.381326       0.318920       0.468900
      14.490000       0.377506       0.318372       0.473657
      14.500000       0.374996       0.318109       0.477898
      14.510000       0.373820       0.318201       0.481306
      14.520000       0.373920       0.318685       0.483583
      14.530000       0.375152       0.319573       0.484493
      14.540000       0.377284       0.320857       0.483895
      14.550000       0.380010       0.322509       0.481756
      14.560000       0.382978       0.324482       0.478151
      14.570000       0.385838       0.326709       0.473251
      14.580000       0.388305       0.329087       0.467287
      14.590000       0.390197       0.331484       0.460507
      14.600000       0.391462       0.333736       0.453136
      14.610000       0.392163       0.335678       0.445338
      14.620000       0.392444       0.337174       0.437208
      14.630000       0.392488       0.338151       0.428797
      14.640000       0.392480       0.338619       0.420145
      14.650000       0.392582       0.338664       0.411326
      14.660000       0.392915       0.338427       0.402472
      14.670000       0.393551       0.338071       0.393768
      14.680000       0.394506       0.337763       0.385419
      14.690000       0.395752       0.337659       0.377610
      14.700000       0.397223       0.337907       0.370456
      14.710000       0.398824       0.338643       0.363988
      14.720000       0.400423       0.339987       0.358153
      14.730000       0.401851       0.342034       0.352844
      14.740000       0.402906       0.344847       0.347925
      14.750000       0.403374       0.348456       0.343276
      14.760000       0.403077       0.352860       0.338807
      14.770000       0.401921       0.358036       0.334468
      14.780000       0.399933       0.363941       0.330244
      14.790000       0.397272       0.370514       0.326137
      14.800000       0.394192       0.377667       0.322155
      14.810000       0.390993       0.385279       0.318298
      14.820000       0.387952       0.393190       0.314563
      14.830000       0.385277       0.401213       0.310952
      14.840000       0.383078       0.409151       0.307483
      14.850000       0.381360       0.416818       0.304197
      14.860000       0.380040       0.424065       0.301161
      14.870000       0.378973       0.430790       0.298463
      14.880000       0.377997       0.436945       0.296194
      14.890000       0.376974       0.442527       0.294442
      14.900000       0.375822       0.447573       0.293271
      14.910000       0.374539       0.452130       0.292713
      14.920000       0.373190       0.456232       0.292758
      14.930000       0.371885       0.459883       0.293362
      14.940000       0.370742       0.463043       0.294452
      14.950000       0.369857       0.465647       0.295950
      14.960000       0.369292       0.467632       0.297784
      14.970000       0.369068       0.468971       0.299899
      14.980000       0.369168       0.469696       0.302253
      14.990000       0.369548       0.469906       0.304808
      15.000000       0.370141       0.469746       0.307527
      15.010000       0.370870       0.469375       0.310375
      15.020000       0.371660       0.468935       0.313335
      15.030000       0.372441       0.468527       0.316422
      15.040000       0.373156       0.468208       0.319695
      15.050000       0.373759       0.468015       0.323254
      15.060000       0.374225       0.467992       0.327220
      15.070000       0.374558       0.468217       0.331700
      15.080000       0.374801       0.468797       0.336746
      15.090000       0.375035       0.469853       0.342327
      15.100000       0.375368       0.471480       0.348304
      15.110000       0.375912       0.473712       0.354441
      15.120000       0.376762       0.476498       0.360431
      15.130000       0.377980       0.479703       0.365955
      15.140000       0.379592       0.483133       0.370749
      15.150000       0.381598       0.486583       0.374663
      15.160000       0.383971       0.489885       0.377697
      15.170000       0.386674       0.492950       0.379986
      15.180000       0.389668       0.495779       0.381764
      15.190000       0.392924       0.498445       0.383294
      15.200000       0.396434       0.501052       0.384816
      15.210000       0.400220       0.503681       0.386516
      15.220000       0.404316       0.506356       0.388518
      15.230000       0.408743       0.509029       0.390893
      15.240000       0.413474       0.511602       0.393681
      15.250000       0.418412       0.513967       0.396907
      15.260000       0.423381       0.516043       0.400594
      15.270000       0.428143       0.517799       0.404761
      15.280000       0.432437       0.519265       0.409418
      15.290000       0.436030       0.520522       0.414552
      15.300000       0.438773       0.521685       0.420121
      15.310000       0.440633       0.522871       0.426054
      15.320000       0.441705       0.524166       0.432276
      15.330000       0.442177       0.525600       0.438731
      15.340000       0.442284       0.527145       0.445418
      15.350000       0.442232       0.528741       0.452411
      15.360000       0.442140       0.530331       0.459864
      15.370000       0.442007       0.531898       0.467985
      15.380000       0.441721       0.533467       0.477002
      15.390000       0.441092       0.535100       0.487116
      15.400000       0.439913       0.536872       0.498454
      15.410000       0.437998       0.538849       0.511041
      15.420000       0.435225       0.541076       0.524793
      15.430000       0.431541       0.543567       0.539533
      15.440000       0.426965       0.546295       0.555023
      15.450000       0.421568       0.549177       0.570978
      15.460000       0.415458       0.552071       0.587085
      15.470000       0.408770       0.554792       0.602988
      15.480000       0.401653       0.557143       0.618287
      15.490000       0.394272       0.558965       0.632537
      15.500000       0.386811       0.560172       0.645282
      15.510000       0.379456       0.560770       0.656092
      15.520000       0.372395       0.560858       0.664612
      15.530000       0.365797       0.560603       0.670599
      15.540000       0.359801       0.560213       0.673946
      15.550000       0.354501       0.559904       0.674684
      15.560000       0.349940       0.559880       0.672972
      15.570000       0.346107       0.560307       0.669069
      15.580000       0.342941       0.561300       0.663303
      15.590000       0.340345       0.562901       0.656045
      15.600000       0.338194       0.565070       0.647680
      15.610000       0.336353       0.567671       0.638588
      15.620000       0.334691       0.570480       0.629117
      15.630000       0.333087       0.573194       0.619557
      15.640000       0.331433       0.575466       0.610119
      15.650000       0.329633       0.576937       0.600919
      15.660000       0.327614       0.577295       0.591975
      15.670000       0.325332       0.576313       0.583237
      15.680000       0.322791       0.573895       0.574613
      15.690000       0.320040       0.570085       0.566014
      15.700000       0.317175       0.565062       0.557385
      15.710000       0.314327       0.559101       0.548723
      15.720000       0.311641       0.552525       0.540069
      15.730000       0.309266       0.545651       0.531492
      15.740000       0.307338       0.538759       0.523062
      15.750000       0.305968       0.532070       0.514837
      15.760000       0.305232       0.525740       0.506848
      15.770000       0.305169       0.519861       0.499104
      15.780000       0.305782       0.514465       0.491590
      15.790000       0.307050       0.509523       0.484288
      15.800000       0.308940       0.504955       0.477190
      15.810000       0.311420       0.500649       0.470313
      15.820000       0.314465       0.496483       0.463696
      15.830000       0.318048       0.492365       0.457395
      15.840000       0.322131       0.488245       0.451469
      15.850000       0.326641       0.484124       0.445961
      15.860000       0.331459       0.480042       0.440901
      15.870000       0.336413       0.476054       0.436295
      15.880000       0.341285       0.472227       0.432124
      15.890000       0.345827       0.468637       0.428332
      15.900000       0.349788       0.465366       0.424820
      15.910000       0.352944       0.462493       0.421440
      15.920000       0.355123       0.460077       0.418003
      15.930000       0.356233       0.458134       0.414298
      15.940000       0.356275       0.456628       0.410117
      15.950000       0.355354       0.455471       0.405278
      15.960000       0.353668       0.454547       0.399657
      15.970000       0.351494       0.453727       0.393197
      15.980000       0.349149       0.452893       0.385915
      15.990000       0.346953       0.451940       0.377885
      16.000000       0.345201       0.450777       0.369222
      16.010000       0.344121       0.449322       0.360045
      16.020000       0.343861       0.447506       0.350463
      16.030000       0.344465       0.445275       0.340563
      16.040000       0.345880       0.442608       0.330424
      16.050000       0.347958       0.439532       0.320131
      16.060000       0.350488       0.436130       0.309791
      16.070000       0.353215       0.432544       0.299532
      16.080000       0.355876       0.428944       0.289487
      16.090000       0.358227       0.425501       0.279774
      16.100000       0.360077       0.422354       0.270484
      16.110000       0.361316       0.419590       0.261675
      16.120000       0.361936       0.417245       0.253373
      16.130000       0.362036       0.415307       0.245592
      16.140000       0.361798       0.413735       0.238337
      16.150000       0.361450       0.412474       0.231614
      16.160000       0.361228       0.411470       0.225429
      16.170000       0.361334       0.410668       0.219782
      16.180000       0.361914       0.410007       0.214662
      16.190000       0.363034       0.409402       0.210044
      16.200000       0.364673       0.408741       0.205883
      16.210000       0.366722       0.407895       0.202121
      16.220000       0.368986       0.406746       0.198695
      16.230000       0.371205       0.405215       0.195536
      16.240000       0.373075       0.403291       0.192586
      16.250000       0.374303       0.401036       0.189797
      16.260000       0.374659       0.398570       0.187137
      16.270000       0.374026       0.396040       0.184583
      16.280000       0.372424       0.393577       0.182123
      16.290000       0.370006       0.391264       0.179749
      16.300000       0.367007       0.389113       0.177460
      16.310000       0.363702       0.387066       0.175258
      16.320000       0.360345       0.385011       0.173159
      16.330000       0.357133       0.382809       0.171181
      16.340000       0.354180       0.380322       0.169346
      16.350000       0.351502       0.377435       0.167667
      16.360000       0.349033       0.374073       0.166144
      16.370000       0.346647       0.370219       0.164754
      16.380000       0.344206       0.365926       0.163461
      16.390000       0.341595       0.361314       0.162218
      16.400000       0.338759       0.356558       0.160980
      16.410000       0.335714       0.351866       0.159709
      16.420000       0.332531       0.347443       0.158384
      16.430000       0.329308       0.343465       0.157005
      16.440000       0.326132       0.340053       0.155590
      16.450000       0.323055       0.337264       0.154183
      16.460000       0.320087       0.335082       0.152838
      16.470000       0.317197       0.333423       0.151617
      16.480000       0.314333       0.332148       0.150577
      16.490000       0.311436       0.331077       0.149757
      16.500000       0.308462       0.330025       0.149177
      16.510000       0.305388       0.328835       0.148836
      16.520000       0.302223       0.327408       0.148721
      16.530000       0.299003       0.325715       0.148816
      16.540000       0.295786       0.323796       0.149109
      16.550000       0.292642       0.321732       0.149596
      16.560000       0.289648       0.319622       0.150282
      16.570000       0.286892       0.317554       0.151174
      16.580000       0.284471       0.315591       0.152274
      16.590000       0.282489       0.313773       0.153575
      16.600000       0.281041       0.312123       0.155052
      16.610000       0.280196       0.310662       0.156673
      16.620000       0.279970       0.309406       0.158397
      16.630000       0.280319       0.308364       0.160184
      16.640000       0.281135       0.307523       0.162000
      16.650000       0.282260       0.306836       0.163820
      16.660000       0.283517       0.306222       0.165624
      16.670000       0.284732       0.305573       0.167399
      16.680000       0.285771       0.304772       0.169137
      16.690000       0.286565       0.303712       0.170826
      16.700000       0.287124       0.302313       0.172451
      16.710000       0.287542       0.300538       0.173988
      16.720000       0.287984       0.298393       0.175407
      16.730000       0.288663       0.295926       0.176666
      16.740000       0.289806       0.293222       0.177720
      16.750000       0.291622       0.290379       0.178528
      16.760000       0.294268       0.287497       0.179059
      16.770000       0.297822       0.284643       0.179307
      16.780000       0.302256       0.281848       0.179284
      16.790000       0.307428       0.279098       0.179030
      16.800000       0.313074       0.276347       0.178594
      16.810000       0.318829       0.273541       0.178027
      16.820000       0.324263       0.270642       0.177370
      16.830000       0.328933       0.267643       0.176641
      16.840000       0.332456       0.264574       0.175839
      16.850000       0.334565       0.261495       0.174944
      16.860000       0.335150       0.258471       0.173928
      16.870000       0.334263       0.255558       0.172766
      16.880000       0.332097       0.252781       0.171444
      16.890000       0.328929       0.250137       0.169960
      16.900000       0.325068       0.247596       0.168324
      16.910000       0.320805       0.245117       0.166548
      16.920000       0.316381       0.242658       0.164648
      16.930000       0.311983       0.240186       0.162635
      16.940000       0.307745       0.237675       0.160527
      16.950000       0.303763       0.235108       0.158343
      16.960000       0.300107       0.232470       0.156113
      16.970000       0.296836       0.229755       0.153875
      16.980000       0.294002       0.226964       0.151668
      16.990000       0.291642       0.224109       0.149528
      17.000000       0.289773       0.221206       0.147476
      17.010000       0.288378       0.218275       0.145520
      17.020000       0.287411       0.215335       0.143646
      17.030000       0.286804       0.212405       0.141828
      17.040000       0.286490       0.209509       0.140037
      17.050000       0.286415       0.206677       0.138255
      17.060000       0.286553       0.203948       0.136479
      17.070000       0.286909       0.201362       0.134731
      17.080000       0.287521       0.198952       0.133048
      17.090000       0.288456       0.196742       0.131474
      17.100000       0.289795       0.194741       0.130054
      17.110000       0.291617       0.192947       0.128815
      17.120000       0.293983       0.191348       0.127769
      17.130000       0.296918       0.189930       0.126909
      17.140000       0.300395       0.188676       0.126214
      17.150000       0.304336       0.187566       0.125655
      17.160000       0.308608       0.186571       0.125202
      17.170000       0.313028       0.185658       0.124833
      17.180000       0.317374       0.184783       0.124534
      17.190000       0.321404       0.183902       0.124298
      17.200000       0.324875       0.182975       0.124120
      17.210000       0.327575       0.181981       0.123996
      17.220000       0.329345       0.180915       0.123913
      17.230000       0.330092       0.179793       0.123845
      17.240000       0.329792       0.178640       0.123760
      17.250000       0.328481       0.177486       0.123619
      17.260000       0.326248       0.176357       0.123384
      17.270000       0.323222       0.175277       0.123030
      17.280000       0.319568       0.174268       0.122552
      17.290000       0.315472       0.173346       0.121964
      17.300000       0.311124       0.172522       0.121295
      17.310000       0.306702       0.171799       0.120588
      17.320000       0.302360       0.171177       0.119886
      17.330000       0.298223       0.170648       0.119231
      17.340000       0.294392       0.170200       0.118656
      17.350000       0.290948       0.169817       0.118186
      17.360000       0.287952       0.169481       0.117835
      17.370000       0.285432       0.169167       0.117605
      17.380000       0.283367       0.168852       0.117485
      17.390000       0.281682       0.168508       0.117452
      17.400000       0.280259       0.168116       0.117472
      17.410000       0.278952       0.167657       0.117496
      17.420000       0.277627       0.167125       0.117474
      17.430000       0.276191       0.166519       0.117353
      17.440000       0.274611       0.165855       0.117094
      17.450000       0.272922       0.165158       0.116674
      17.460000       0.271206       0.164457       0.116090
      17.470000       0.269566       0.163785       0.115353
      17.480000       0.268099       0.163164       0.114488
      17.490000       0.266880       0.162603       0.113518
      17.500000       0.265967       0.162098       0.112467
      17.510000       0.265403       0.161638       0.111348
      17.520000       0.265237       0.161211       0.110172
      17.530000       0.265513       0.160809       0.108944
      17.540000       0.266270       0.160437       0.107667
      17.550000       0.267517       0.160104       0.106346
      17.560000       0.269218       0.159825       0.104995
      17.570000       0.271279       0.159617       0.103638
      17.580000       0.273549       0.159495       0.102307
      17.590000       0.275824       0.159469       0.101042
      17.600000       0.277867       0.159544       0.099879
      17.610000       0.279431       0.159723       0.098845
      17.620000       0.280293       0.160001       0.097952
      17.630000       0.280291       0.160372       0.097201
      17.640000       0.279353       0.160827       0.096579
      17.650000       0.277515       0.161354       0.096065
      17.660000       0.274915       0.161942       0.095633
      17.670000       0.271759       0.162573       0.095253
      17.680000       0.268284       0.163226       0.094899
      17.690000       0.264708       0.163874       0.094549
      17.700000       0.261207       0.164491       0.094191
      17.710000       0.257904       0.165054       0.093822
      17.720000       0.254872       0.165546       0.093451
      17.730000       0.252150       0.165960       0.093089
      17.740000       0.249757       0.166290       0.092749
      17.750000       0.247700       0.166531       0.092445
      17.760000       0.245969       0.166668       0.092181
      17.770000       0.244535       0.166677       0.091959
      17.780000       0.243349       0.166529       0.091775
      17.790000       0.242336       0.166193       0.091621
      17.800000       0.241409       0.165645       0.091484
      17.810000       0.240476       0.164872       0.091351
      17.820000       0.239452       0.163873       0.091206
      17.830000       0.238271       0.162664       0.091033
      17.840000       0.236896       0.161274       0.090822
      17.850000       0.235313       0.159742       0.090567
      17.860000       0.233528       0.158114       0.090265
      17.870000       0.231549       0.156438       0.089917
      17.880000       0.229371       0.154757       0.089525
      17.890000       0.226975       0.153108       0.089090
      17.900000       0.224329       0.151521       0.088611
      17.910000       0.221409       0.150020       0.088089
      17.920000       0.218213       0.148624       0.087527
      17.930000       0.214771       0.147349       0.086930
      17.940000       0.211148       0.146209       0.086310
      17.950000       0.207437       0.145215       0.085681
      17.960000       0.203743       0.144369       0.085058
      17.970000       0.200170       0.143662       0.084458
      17.980000       0.196803       0.143076       0.083897
      17.990000       0.193707       0.142582       0.083387
      18.000000       0.190915       0.142154       0.082934
      18.010000       0.188437       0.141769       0.082543
      18.020000       0.186269       0.141412       0.082214
      18.030000       0.184406       0.141077       0.081948
      18.040000       0.182854       0.140761       0.081744
      18.050000       0.181637       0.140462       0.081605
      18.060000       0.180792       0.140177       0.081535
      18.070000       0.180366       0.139900       0.081539
      18.080000       0.180396       0.139625       0.081620
      18.090000       0.180909       0.139344       0.081783
      18.100000       0.181910       0.139055       0.082027
      18.110000       0.183389       0.138762       0.082349
      18.120000       0.185316       0.138480       0.082740
      18.130000       0.187644       0.138226       0.083187
      18.140000       0.190304       0.138023       0.083668
      18.150000       0.193207       0.137886       0.084158
      18.160000       0.196239       0.137829       0.084629
      18.170000       0.199273       0.137859       0.085054
      18.180000       0.202180       0.137985       0.085416
      18.190000       0.204841       0.138217       0.085705
      18.200000       0.207162       0.138568       0.085922
      18.210000       0.209082       0.139048       0.086073
      18.220000       0.210581       0.139660       0.086163
      18.230000       0.211681       0.140394       0.086199
      18.240000       0.212444       0.141221       0.086182
      18.250000       0.212959       0.142094       0.086113
      18.260000       0.213325       0.142956       0.085997
      18.270000       0.213624       0.143745       0.085840
      18.280000       0.213905       0.144409       0.085655
      18.290000       0.214170       0.144909       0.085461
      18.300000       0.214384       0.145225       0.085282
      18.310000       0.214486       0.145355       0.085141
      18.320000       0.214406       0.145305       0.085060
      18.330000       0.214076       0.145089       0.085052
      18.340000       0.213433       0.144712       0.085124
      18.350000       0.212412       0.144178       0.085275
      18.360000       0.210934       0.143492       0.085503
      18.370000       0.208910       0.142670       0.085805
      18.380000       0.206257       0.141746       0.086184
      18.390000       0.202931       0.140777       0.086648
      18.400000       0.198952       0.139840       0.087207
      18.410000       0.194416       0.139020       0.087872
      18.420000       0.189486       0.138393       0.088650
      18.430000       0.184357       0.138014       0.089540
      18.440000       0.179220       0.137904       0.090533
      18.450000       0.174237       0.138051       0.091609
      18.460000       0.169524       0.138411       0.092745
      18.470000       0.165149       0.138920       0.093917
      18.480000       0.161143       0.139503       0.095100
      18.490000       0.157504       0.140084       0.096269
      18.500000       0.154216       0.140593       0.097405
      18.510000       0.151253       0.140972       0.098492
      18.520000       0.148588       0.141186       0.099520
      18.530000       0.146205       0.141220       0.100489
      18.540000       0.144094       0.141091       0.101409
      18.550000       0.142253       0.140839       0.102300
      18.560000       0.140686       0.140520       0.103188
      18.570000       0.139391       0.140192       0.104104
      18.580000       0.138362       0.139910       0.105076
      18.590000       0.137585       0.139708       0.106128
      18.600000       0.137032       0.139600       0.107276
      18.610000       0.136669       0.139578       0.108531
      18.620000       0.136452       0.139611       0.109896
      18.630000       0.136328       0.139656       0.111370
      18.640000       0.136237       0.139665       0.112945
      18.650000       0.136118       0.139600       0.114607
      18.660000       0.135912       0.139438       0.116334
      18.670000       0.135574       0.139179       0.118100
      18.680000       0.135075       0.138841       0.119876
      18.690000       0.134404       0.138452       0.121637
      18.700000       0.133571       0.138043       0.123366
      18.710000       0.132602       0.137645       0.125066
      18.720000       0.131538       0.137279       0.126753
      18.730000       0.130427       0.136964       0.128459
      18.740000       0.129323       0.136705       0.130224
      18.750000       0.128283       0.136503       0.132085
      18.760000       0.127358       0.136346       0.134074
      18.770000       0.126599       0.136212       0.136213
      18.780000       0.126046       0.136072       0.138509
      18.790000       0.125736       0.135890       0.140960
      18.800000       0.125698       0.135632       0.143549
      18.810000       0.125950       0.135264       0.146250
      18.820000       0.126503       0.134762       0.149024
      18.830000       0.127358       0.134108       0.151829
      18.840000       0.128509       0.133299       0.154624
      18.850000       0.129942       0.132346       0.157385
      18.860000       0.131637       0.131271       0.160106
      18.870000       0.133567       0.130098       0.162798
      18.880000       0.135698       0.128851       0.165489
      18.890000       0.137985       0.127545       0.168215
      18.900000       0.140375       0.126183       0.171010
      18.910000       0.142802       0.124765       0.173906
      18.920000       0.145198       0.123286       0.176917
      18.930000       0.147499       0.121746       0.180041
      18.940000       0.149656       0.120157       0.183248
      18.950000       0.151644       0.118543       0.186489
      18.960000       0.153464       0.116939       0.189698
      18.970000       0.155133       0.115389       0.192810
      18.980000       0.156672       0.113934       0.195761
      18.990000       0.158083       0.112610       0.198503
      19.000000       0.159343       0.111438       0.201004
      19.010000       0.160395       0.110427       0.203246
      19.020000       0.161162       0.109574       0.205222
      19.030000       0.161562       0.108869       0.206934
      19.040000       0.161528       0.108301       0.208390
      19.050000       0.161023       0.107860       0.209601
      19.060000       0.160053       0.107541       0.210591
      19.070000       0.158663       0.107340       0.211395
      19.080000       0.156924       0.107251       0.212066
      19.090000       0.154929       0.107266       0.212672
      19.100000       0.152773       0.107370       0.213287
      19.110000       0.150547       0.107545       0.213989
      19.120000       0.148334       0.107767       0.214854
      19.130000       0.146203       0.108009       0.215954
      19.140000       0.144212       0.108240       0.217354
      19.150000       0.142406       0.108430       0.219112
      19.160000       0.140810       0.108557       0.221268
      19.170000       0.139429       0.108603       0.223836
      19.180000       0.138239       0.108566       0.226788
      19.190000       0.137189       0.108454       0.230045
      19.200000       0.136204       0.108286       0.233480
      19.210000       0.135201       0.108083       0.236930
      19.220000       0.134104       0.107870       0.240221
      19.230000       0.132863       0.107666       0.243186
      19.240000       0.131461       0.107485       0.245687
      19.250000       0.129922       0.107332       0.247621
      19.260000       0.128292       0.107203       0.248929
      19.270000       0.126629       0.107092       0.249588
      19.280000       0.124992       0.106993       0.249616
      19.290000       0.123431       0.106906       0.249072
      19.300000       0.121983       0.106837       0.248043
      19.310000       0.120673       0.106803       0.246645
      19.320000       0.119515       0.106819       0.245015
      19.330000       0.118514       0.106904       0.243298
      19.340000       0.117668       0.107072       0.241650
      19.350000       0.116974       0.107332       0.240223
      19.360000       0.116429       0.107692       0.239152
      19.370000       0.116029       0.108156       0.238537
      19.380000       0.115770       0.108725       0.238436
      19.390000       0.115644       0.109397       0.238852
      19.400000       0.115639       0.110167       0.239741
      19.410000       0.115742       0.111025       0.241029
      19.420000       0.115937       0.111960       0.242627
      19.430000       0.116210       0.112959       0.244448
      19.440000       0.116542       0.114004       0.246411
      19.450000       0.116911       0.115071       0.248444
      19.460000       0.117287       0.116131       0.250484
      19.470000       0.117629       0.117147       0.252468
      19.480000       0.117899       0.118078       0.254329
      19.490000       0.118061       0.118882       0.255990
      19.500000       0.118095       0.119518       0.257367
      19.510000       0.118000       0.119954       0.258371
      19.520000       0.117797       0.120172       0.258918
      19.530000       0.117524       0.120167       0.258955
      19.540000       0.117230       0.119958       0.258476
      19.550000       0.116969       0.119581       0.257534
      19.560000       0.116784       0.119088       0.256252
      19.570000       0.116711       0.118535       0.254797
      19.580000       0.116764       0.117974       0.253362
      19.590000       0.116942       0.117438       0.252137
      19.600000       0.117223       0.116937       0.251282
      19.610000       0.117572       0.116457       0.250920
      19.620000       0.117948       0.115977       0.251131
      19.630000       0.118307       0.115478       0.251958
      19.640000       0.118607       0.114955       0.253414
      19.650000       0.118814       0.114421       0.255490
      19.660000       0.118899       0.113905       0.258154
      19.670000       0.118842       0.113437       0.261347
      19.680000       0.118638       0.113045       0.264975
      19.690000       0.118295       0.112743       0.268894
      19.700000       0.117839       0.112531       0.272919
      19.710000       0.117307       0.112394       0.276833
      19.720000       0.116740       0.112304       0.280417
      19.730000       0.116178       0.112227       0.283479
      19.740000       0.115653       0.112127       0.285882
      19.750000       0.115189       0.111982       0.287548
      19.760000       0.114799       0.111781       0.288467
      19.770000       0.114484       0.111522       0.288681
      19.780000       0.114238       0.111205       0.288273
      19.790000       0.114053       0.110824       0.287350
      19.800000       0.113925       0.110365       0.286022
      19.810000       0.113852       0.109811       0.284396
      19.820000       0.113839       0.109150       0.282570
      19.830000       0.113889       0.108387       0.280637
      19.840000       0.114000       0.107542       0.278686
      19.850000       0.114160       0.106652       0.276809
      19.860000       0.114348       0.105759       0.275091
      19.870000       0.114536       0.104912       0.273611
      19.880000       0.114695       0.104149       0.272426
      19.890000       0.114798       0.103501       0.271560
      19.900000       0.114822       0.102985       0.270996
      19.910000       0.114749       0.102605       0.270674
      19.920000       0.114560       0.102349       0.270492
      19.930000       0.114240       0.102196       0.270324
      19.940000       0.113776       0.102114       0.270038
      19.950000       0.113162       0.102069       0.269511
      19.960000       0.112398       0.102027       0.268653
      19.970000       0.111497       0.101957       0.267414
      19.980000       0.110481       0.101834       0.265792
      19.990000       0.109378       0.101643       0.263822
      20.000000       0.108221       0.101382       0.261572
