  # energy grid [eV]     epsr_x  epsr_y  epsr_z
       0.000000            NaN            NaN            NaN
       0.010000 -152826.204494 -303406.695286       4.352774
       0.020000  -38203.354050  -75849.052569       3.763468
       0.030000  -16976.899660  -33708.747979       3.239539
       0.040000   -9547.639908  -18959.640921       2.824267
       0.050000   -6108.953180  -12132.910869       2.508867
       0.060000   -4241.023751   -8424.563151       2.268082
       0.070000   -3114.720347   -6188.545883       2.080902
       0.080000   -2383.705216   -4737.284100       1.933295
       0.090000   -1882.522722   -3742.303208       1.816621
       0.100000   -1524.028886   -3030.598623       1.725579
       0.110000   -1258.783025   -2504.017098       1.656580
       0.120000   -1057.040814   -2103.508031       1.606693
       0.130000    -900.036939   -1791.817155       1.573143
       0.140000    -775.458162   -1544.499330       1.553189
       0.150000    -674.953340   -1344.975261       1.544194
       0.160000    -592.696475   -1181.678752       1.543736
       0.170000    -524.522955   -1046.341911       1.549698
       0.180000    -467.391829    -932.927621       1.560296
       0.190000    -419.040701    -836.944400       1.574070
       0.200000    -377.758225    -754.994761       1.589846
       0.210000    -342.230560    -684.470359       1.606690
       0.220000    -311.435504    -623.341837       1.623861
       0.230000    -284.568126    -570.011178       1.640770
       0.240000    -260.987618    -523.206188       1.656948
       0.250000    -240.178714    -481.903915       1.672030
       0.260000    -221.723292    -445.274265       1.685742
       0.270000    -205.279198    -412.637965       1.697899
       0.280000    -190.564264    -383.434837       1.708409
       0.290000    -177.344112    -357.199596       1.717282
       0.300000    -165.422764    -333.543189       1.724648
       0.310000    -154.635327    -312.138292       1.730762
       0.320000    -144.842257    -292.707911       1.735991
       0.330000    -135.924815    -275.016378       1.740772
       0.340000    -127.781454    -258.862163       1.745538
       0.350000    -120.324908    -244.072116       1.750640
       0.360000    -113.479855    -230.496814       1.756300
       0.370000    -107.181019    -218.006772       1.762588
       0.380000    -101.371609    -206.489357       1.769449
       0.390000     -96.002046    -195.846229       1.776738
       0.400000     -91.028898    -185.991233       1.784258
       0.410000     -86.413994    -176.848622       1.791792
       0.420000     -82.123682    -168.351575       1.799127
       0.430000     -78.128201    -160.440942       1.806069
       0.440000     -74.401152    -153.064189       1.812460
       0.450000     -70.919037    -146.174503       1.818189
       0.460000     -67.660865    -139.730038       1.823207
       0.470000     -64.607804    -133.693288       1.827535
       0.480000     -61.742880    -128.030541       1.831268
       0.490000     -59.050733    -122.711433       1.834562
       0.500000     -56.517418    -117.708585       1.837605
       0.510000     -54.130271    -112.997302       1.840582
       0.520000     -51.877814    -108.555338       1.843635
       0.530000     -49.749669    -104.362659       1.846842
       0.540000     -47.736478    -100.401208       1.850209
       0.550000     -45.829796     -96.654636       1.853677
       0.560000     -44.021990     -93.108024       1.857145
       0.570000     -42.306122     -89.747615       1.860491
       0.580000     -40.675858     -86.560602       1.863590
       0.590000     -39.125390     -83.534988       1.866339
       0.600000     -37.649384     -80.659538       1.868673
       0.610000     -36.242931     -77.923805       1.870581
       0.620000     -34.901520     -75.318180       1.872106
       0.630000     -33.621004     -72.833943       1.873327
       0.640000     -32.397571     -70.463277       1.874332
       0.650000     -31.227720     -68.199244       1.875186
       0.660000     -30.108231     -66.035718       1.875916
       0.670000     -29.036148     -63.967294       1.876507
       0.680000     -28.008758     -61.989192       1.876915
       0.690000     -27.023574     -60.097160       1.877080
       0.700000     -26.078314     -58.287370       1.876942
       0.710000     -25.170881     -56.556304       1.876446
       0.720000     -24.299323     -54.900615       1.875562
       0.730000     -23.461786     -53.316946       1.874297
       0.740000     -22.656449     -51.801748       1.872707
       0.750000     -21.881462     -50.351125       1.870903
       0.760000     -21.134888     -48.960790       1.869030
       0.770000     -20.414691     -47.626165       1.867239
       0.780000     -19.718779     -46.342629       1.865658
       0.790000     -19.045100     -45.105834       1.864374
       0.800000     -18.391749     -43.911986       1.863441
       0.810000     -17.757060     -42.758016       1.862895
       0.820000     -17.139644     -41.641599       1.862767
       0.830000     -16.538368     -40.561063       1.863094
       0.840000     -15.952306     -39.515238       1.863912
       0.850000     -15.380686     -38.503287       1.865244
       0.860000     -14.822842     -37.524582       1.867086
       0.870000     -14.278192     -36.578589       1.869401
       0.880000     -13.746226     -35.664786       1.872119
       0.890000     -13.226523     -34.782569       1.875148
       0.900000     -12.718770     -33.931153       1.878381
       0.910000     -12.222797     -33.109466       1.881703
       0.920000     -11.738620     -32.316063       1.884997
       0.930000     -11.266493     -31.549129       1.888146
       0.940000     -10.806967     -30.806580       1.891037
       0.950000     -10.360948     -30.086264       1.893566
       0.960000      -9.929761     -29.386209       1.895647
       0.970000      -9.515211     -28.704804       1.897223
       0.980000      -9.119647     -28.040883       1.898285
       0.990000      -8.746032     -27.393698       1.898876
       1.000000      -8.398040     -26.762826       1.899092
       1.010000      -8.080145     -26.148063       1.899074
       1.020000      -7.797653     -25.549324       1.898973
       1.030000      -7.556526     -24.966575       1.898924
       1.040000      -7.362859     -24.399783       1.899018
       1.050000      -7.221914     -23.848871       1.899279
       1.060000      -7.136825     -23.313678       1.899670
       1.070000      -7.107328     -22.793919       1.900107
       1.080000      -7.129050     -22.289156       1.900478
       1.090000      -7.193773     -21.798799       1.900682
       1.100000      -7.290679     -21.322129       1.900651
       1.110000      -7.408075     -20.858347       1.900374
       1.120000      -7.534934     -20.406632       1.899901
       1.130000      -7.661920     -19.966188       1.899330
       1.140000      -7.782019     -19.536302       1.898780
       1.150000      -7.891025     -19.116405       1.898352
       1.160000      -7.987774     -18.706126       1.898095
       1.170000      -8.073798     -18.305324       1.897995
       1.180000      -8.152182     -17.914077       1.897977
       1.190000      -8.225952     -17.532644       1.897929
       1.200000      -8.296714     -17.161404       1.897725
       1.210000      -8.364260     -16.800801       1.897264
       1.220000      -8.427292     -16.451298       1.896493
       1.230000      -8.484728     -16.113287       1.895426
       1.240000      -8.536647     -15.786967       1.894154
       1.250000      -8.584214     -15.472166       1.892825
       1.260000      -8.628547     -15.168173       1.891630
       1.270000      -8.669198     -14.873680       1.890755
       1.280000      -8.703147     -14.586912       1.890354
       1.290000      -8.724948     -14.305958       1.890518
       1.300000      -8.728029     -14.029206       1.891268
       1.310000      -8.706504     -13.755723       1.892566
       1.320000      -8.656640     -13.485450       1.894325
       1.330000      -8.577456     -13.219193       1.896432
       1.340000      -8.470472     -12.958444       1.898762
       1.350000      -8.338965     -12.705105       1.901185
       1.360000      -8.187149     -12.461178       1.903574
       1.370000      -8.019515     -12.228420       1.905807
       1.380000      -7.840393     -12.008018       1.907778
       1.390000      -7.653714     -11.800330       1.909400
       1.400000      -7.462905     -11.604776       1.910623
       1.410000      -7.270879     -11.419939       1.911444
       1.420000      -7.080062     -11.243839       1.911916
       1.430000      -6.892435     -11.074242       1.912145
       1.440000      -6.709559     -10.908869       1.912269
       1.450000      -6.532565     -10.745486       1.912428
       1.460000      -6.362102     -10.581965       1.912731
       1.470000      -6.198277     -10.416457       1.913232
       1.480000      -6.040632     -10.247683       1.913927
       1.490000      -5.888206     -10.075243       1.914765
       1.500000      -5.739711      -9.899773       1.915667
       1.510000      -5.593801      -9.722893       1.916552
       1.520000      -5.449327      -9.546957       1.917352
       1.530000      -5.305507      -9.374660       1.918030
       1.540000      -5.161971      -9.208589       1.918581
       1.550000      -5.018697      -9.050738       1.919037
       1.560000      -4.875896      -8.902070       1.919454
       1.570000      -4.733899      -8.762233       1.919903
       1.580000      -4.593067      -8.629570       1.920445
       1.590000      -4.453741      -8.501524       1.921116
       1.600000      -4.316217      -8.375353       1.921910
       1.610000      -4.180742      -8.248923       1.922773
       1.620000      -4.047520      -8.121295       1.923618
       1.630000      -3.916728      -7.992924       1.924335
       1.640000      -3.788531      -7.865475       1.924825
       1.650000      -3.663105      -7.741390       1.925017
       1.660000      -3.540658      -7.623350       1.924892
       1.670000      -3.421432      -7.513729       1.924490
       1.680000      -3.305686      -7.414134       1.923903
       1.690000      -3.193649      -7.325085       1.923251
       1.700000      -3.085452      -7.245859       1.922648
       1.710000      -2.981065      -7.174541       1.922178
       1.720000      -2.880281      -7.108234       1.921881
       1.730000      -2.782747      -7.043459       1.921759
       1.740000      -2.688082      -6.976724       1.921792
       1.750000      -2.596000      -6.905170       1.921962
       1.760000      -2.506402      -6.827095       1.922273
       1.770000      -2.419375      -6.742195       1.922752
       1.780000      -2.335096      -6.651430       1.923447
       1.790000      -2.253710      -6.556643       1.924411
       1.800000      -2.175243      -6.460124       1.925675
       1.810000      -2.099622      -6.364260       1.927238
       1.820000      -2.026807      -6.271351       1.929058
       1.830000      -1.956964      -6.183512       1.931061
       1.840000      -1.890580      -6.102583       1.933146
       1.850000      -1.828439      -6.029982       1.935208
       1.860000      -1.771448      -5.966540       1.937147
       1.870000      -1.720392      -5.912388       1.938886
       1.880000      -1.675695      -5.866977       1.940380
       1.890000      -1.637321      -5.829209       1.941624
       1.900000      -1.604820      -5.797629       1.942650
       1.910000      -1.577495      -5.770607       1.943520
       1.920000      -1.554598      -5.746449       1.944312
       1.930000      -1.535460      -5.723451       1.945103
       1.940000      -1.519529      -5.699961       1.945956
       1.950000      -1.506324      -5.674477       1.946912
       1.960000      -1.495395      -5.645784       1.947990
       1.970000      -1.486335      -5.613042       1.949186
       1.980000      -1.478869      -5.575814       1.950478
       1.990000      -1.472961      -5.534066       1.951837
       2.000000      -1.468866      -5.488192       1.953232
       2.010000      -1.467084      -5.439028       1.954633
       2.020000      -1.468276      -5.387768       1.956022
       2.030000      -1.473206      -5.335724       1.957391
       2.040000      -1.482764      -5.283977       1.958743
       2.050000      -1.498006      -5.233067       1.960088
       2.060000      -1.520144      -5.182882       1.961428
       2.070000      -1.550433      -5.132825       1.962742
       2.080000      -1.590008      -5.082164       1.963979
       2.090000      -1.639707      -5.030383       1.965055
       2.100000      -1.699905      -4.977332       1.965867
       2.110000      -1.770313      -4.923136       1.966306
       2.120000      -1.849738      -4.867964       1.966271
       2.130000      -1.935867      -4.811835       1.965680
       2.140000      -2.025188      -4.754590       1.964466
       2.150000      -2.113154      -4.696024       1.962586
       2.160000      -2.194659      -4.636085       1.960031
       2.170000      -2.264755      -4.575003       1.956833
       2.180000      -2.319433      -4.513303       1.953081
       2.190000      -2.356209      -4.451719       1.948912
       2.200000      -2.374331      -4.391079       1.944494
       2.210000      -2.374587      -4.332200       1.939992
       2.220000      -2.358864      -4.275822       1.935560
       2.230000      -2.329631      -4.222549       1.931337
       2.240000      -2.289510      -4.172758       1.927461
       2.250000      -2.240968      -4.126478       1.924082
       2.260000      -2.186154      -4.083265       1.921353
       2.270000      -2.126852      -4.042182       1.919414
       2.280000      -2.064508      -4.001916       1.918360
       2.290000      -2.000304      -3.961021       1.918219
       2.300000      -1.935230      -3.918191       1.918943
       2.310000      -1.870146      -3.872477       1.920417
       2.320000      -1.805810      -3.823393       1.922477
       2.330000      -1.742878      -3.770926       1.924930
       2.340000      -1.681882      -3.715447       1.927577
       2.350000      -1.623181      -3.657540       1.930230
       2.360000      -1.566917      -3.597796       1.932733
       2.370000      -1.512982      -3.536622       1.934975
       2.380000      -1.461016      -3.474141       1.936902
       2.390000      -1.410480      -3.410216       1.938512
       2.400000      -1.360762      -3.344579       1.939849
       2.410000      -1.311306      -3.277002       1.940974
       2.420000      -1.261701      -3.207421       1.941939
       2.430000      -1.211725      -3.135989       1.942774
       2.440000      -1.161323      -3.063069       1.943487
       2.450000      -1.110573      -2.989181       1.944064
       2.460000      -1.059633      -2.914968       1.944487
       2.470000      -1.008709      -2.841166       1.944736
       2.480000      -0.958031      -2.768589       1.944784
       2.490000      -0.907837      -2.698107       1.944591
       2.500000      -0.858371      -2.630621       1.944097
       2.510000      -0.809873      -2.567012       1.943223
       2.520000      -0.762579      -2.508055       1.941869
       2.530000      -0.716708      -2.454299       1.939939
       2.540000      -0.672451      -2.405922       1.937357
       2.550000      -0.629950      -2.362608       1.934094
       2.560000      -0.589277      -2.323519       1.930184
       2.570000      -0.550406      -2.287391       1.925726
       2.580000      -0.513196      -2.252764       1.920882
       2.590000      -0.477378      -2.218278       1.915864
       2.600000      -0.442569      -2.182923       1.910919
       2.610000      -0.408312      -2.146176       1.906305
       2.620000      -0.374153      -2.107988       1.902256
       2.630000      -0.339717      -2.068651       1.898943
       2.640000      -0.304776      -2.028578       1.896450
       2.650000      -0.269282      -1.988080       1.894766
       2.660000      -0.233366      -1.947203       1.893802
       2.670000      -0.197313      -1.905700       1.893425
       2.680000      -0.161515      -1.863157       1.893494
       2.690000      -0.126428      -1.819217       1.893900
       2.700000      -0.092517      -1.773820       1.894583
       2.710000      -0.060206      -1.727350       1.895531
       2.720000      -0.029827      -1.680671       1.896764
       2.730000      -0.001589      -1.635068       1.898303
       2.740000       0.024422      -1.592146       1.900150
       2.750000       0.048190      -1.553733       1.902279
       2.760000       0.069703      -1.521790       1.904641
       2.770000       0.088878      -1.498328       1.907182
       2.780000       0.105543      -1.485278       1.909850
       2.790000       0.119468      -1.484302       1.912612
       2.800000       0.130439      -1.496480       1.915444
       2.810000       0.138328      -1.521918       1.918327
       2.820000       0.143119      -1.559343       1.921232
       2.830000       0.144883      -1.605894       1.924118
       2.840000       0.143712      -1.657299       1.926929
       2.850000       0.139664      -1.708509       1.929597
       2.860000       0.132758      -1.754621       1.932053
       2.870000       0.123028      -1.791762       1.934236
       2.880000       0.110625      -1.817603       1.936107
       2.890000       0.095921      -1.831394       1.937651
       2.900000       0.079582      -1.833618       1.938884
       2.910000       0.062580      -1.825507       1.939849
       2.920000       0.046156      -1.808613       1.940605
       2.930000       0.031702      -1.784542       1.941219
       2.940000       0.020584      -1.754819       1.941742
       2.950000       0.013933      -1.720845       1.942195
       2.960000       0.012471      -1.683871       1.942550
       2.970000       0.016425      -1.644977       1.942731
       2.980000       0.025549      -1.605063       1.942626
       2.990000       0.039239      -1.564861       1.942110
       3.000000       0.056685      -1.524952       1.941078
       3.010000       0.077024      -1.485773       1.939463
       3.020000       0.099466      -1.447600       1.937253
       3.030000       0.123363      -1.410512       1.934489
       3.040000       0.148247      -1.374398       1.931258
       3.050000       0.173812      -1.339004       1.927684
       3.060000       0.199880      -1.304023       1.923930
       3.070000       0.226353      -1.269190       1.920194
       3.080000       0.253172      -1.234315       1.916697
       3.090000       0.280294      -1.199258       1.913661
       3.100000       0.307679      -1.163862       1.911275
       3.110000       0.335287      -1.127908       1.909662
       3.120000       0.363078      -1.091124       1.908870
       3.130000       0.391001      -1.053244       1.908871
       3.140000       0.418991      -1.014100       1.909589
       3.150000       0.446957      -0.973689       1.910919
       3.160000       0.474781      -0.932190       1.912751
       3.170000       0.502319      -0.889931       1.914985
       3.180000       0.529409      -0.847336       1.917531
       3.190000       0.555876      -0.804865       1.920306
       3.200000       0.581547      -0.762972       1.923235
       3.210000       0.606266      -0.722069       1.926244
       3.220000       0.629920      -0.682499       1.929260
       3.230000       0.652463      -0.644495       1.932223
       3.240000       0.673940      -0.608150       1.935089
       3.250000       0.694496      -0.573392       1.937829
       3.260000       0.714370      -0.539991       1.940427
       3.270000       0.733853      -0.507599       1.942864
       3.280000       0.753244      -0.475820       1.945114
       3.290000       0.772797      -0.444296       1.947133
       3.300000       0.792691      -0.412782       1.948870
       3.310000       0.813014      -0.381193       1.950283
       3.320000       0.833782      -0.349602       1.951361
       3.330000       0.854968      -0.318184       1.952149
       3.340000       0.876530      -0.287145       1.952750
       3.350000       0.898440      -0.256643       1.953312
       3.360000       0.920683      -0.226750       1.953993
       3.370000       0.943251      -0.197447       1.954923
       3.380000       0.966128      -0.168668       1.956174
       3.390000       0.989273      -0.140357       1.957750
       3.400000       1.012618      -0.112518       1.959594
       3.410000       1.036073      -0.085228       1.961611
       3.420000       1.059535      -0.058599       1.963687
       3.430000       1.082904      -0.032697       1.965710
       3.440000       1.106086      -0.007478       1.967582
       3.450000       1.129010       0.017240       1.969230
       3.460000       1.151630       0.041735       1.970608
       3.470000       1.173936       0.066298       1.971695
       3.480000       1.195966       0.091132       1.972494
       3.490000       1.217804       0.116272       1.973025
       3.500000       1.239569       0.141543       1.973311
       3.510000       1.261393       0.166562       1.973364
       3.520000       1.283381       0.190768       1.973183
       3.530000       1.305578       0.213465       1.972741
       3.540000       1.327952       0.233862       1.972007
       3.550000       1.350391       0.251117       1.970964
       3.560000       1.372715       0.264387       1.969640
       3.570000       1.394696       0.272897       1.968125
       3.580000       1.416088       0.276007       1.966567
       3.590000       1.436661       0.273272       1.965147
       3.600000       1.456232       0.264490       1.964036
       3.610000       1.474704       0.249711       1.963364
       3.620000       1.492084       0.229230       1.963191
       3.630000       1.508482       0.203528       1.963510
       3.640000       1.524081       0.173187       1.964257
       3.650000       1.539083       0.138829       1.965333
       3.660000       1.553651       0.101136       1.966623
       3.670000       1.567873       0.060960       1.968020
       3.680000       1.581770       0.019481       1.969439
       3.690000       1.595338      -0.021683       1.970837
       3.700000       1.608602      -0.060506       1.972214
       3.710000       1.621662      -0.094765       1.973619
       3.720000       1.634719      -0.122389       1.975129
       3.730000       1.648064      -0.141831       1.976830
       3.740000       1.662053      -0.152323       1.978789
       3.750000       1.677061      -0.153938       1.981041
       3.760000       1.693423      -0.147443       1.983586
       3.770000       1.711372      -0.134042       1.986390
       3.780000       1.731003      -0.115085       1.989402
       3.790000       1.752265      -0.091847       1.992573
       3.800000       1.774991      -0.065401       1.995858
       3.810000       1.798947      -0.036586       1.999230
       3.820000       1.823869      -0.006051       2.002669
       3.830000       1.849485       0.025689       2.006163
       3.840000       1.875504       0.058192       2.009696
       3.850000       1.901597       0.091054       2.013241
       3.860000       1.927375       0.123894       2.016755
       3.870000       1.952395       0.156368       2.020180
       3.880000       1.976194       0.188202       2.023445
       3.890000       1.998346       0.219240       2.026472
       3.900000       2.018549       0.249473       2.029187
       3.910000       2.036693       0.279020       2.031523
       3.920000       2.052905       0.308073       2.033429
       3.930000       2.067515       0.336814       2.034870
       3.940000       2.080959       0.365346       2.035831
       3.950000       2.093610       0.393670       2.036316
       3.960000       2.105626       0.421695       2.036344
       3.970000       2.116830       0.449281       2.035946
       3.980000       2.126698       0.476267       2.035160
       3.990000       2.134438       0.502488       2.034033
       4.000000       2.139160       0.527773       2.032635
       4.010000       2.140096       0.551939       2.031062
       4.020000       2.136813       0.574803       2.029441
       4.030000       2.129368       0.596211       2.027910
       4.040000       2.118348       0.616082       2.026592
       4.050000       2.104781       0.634452       2.025573
       4.060000       2.089959       0.651501       2.024893
       4.070000       2.075209       0.667561       2.024558
       4.080000       2.061645       0.683086       2.024569
       4.090000       2.049946       0.698621       2.024940
       4.100000       2.040204       0.714757       2.025702
       4.110000       2.031894       0.732086       2.026895
       4.120000       2.024008       0.751132       2.028545
       4.130000       2.015339       0.772273       2.030648
       4.140000       2.004840       0.795668       2.033159
       4.150000       1.991982       0.821235       2.035987
       4.160000       1.976985       0.848665       2.039004
       4.170000       1.960836       0.877486       2.042052
       4.180000       1.945065       0.907149       2.044954
       4.190000       1.931354       0.937096       2.047531
       4.200000       1.921133       0.966796       2.049615
       4.210000       1.915305       0.995764       2.051071
       4.220000       1.914169       1.023544       2.051806
       4.230000       1.917491       1.049716       2.051785
       4.240000       1.924671       1.073917       2.051032
       4.250000       1.934938       1.095902       2.049636
       4.260000       1.947546       1.115636       2.047735
       4.270000       1.961955       1.133390       2.045511
       4.280000       1.977944       1.149810       2.043161
       4.290000       1.995631       1.165895       2.040873
       4.300000       2.015356       1.182859       2.038798
       4.310000       2.037457       1.201886       2.037035
       4.320000       2.062029       1.223888       2.035634
       4.330000       2.088750       1.249323       2.034610
       4.340000       2.116830       1.278156       2.033965
       4.350000       2.145069       1.309932       2.033700
       4.360000       2.172007       1.343924       2.033820
       4.370000       2.196108       1.379295       2.034310
       4.380000       2.215980       1.415242       2.035123
       4.390000       2.230608       1.451088       2.036167
       4.400000       2.239581       1.486312       2.037305
       4.410000       2.243243       1.520524       2.038368
       4.420000       2.242706       1.553381       2.039186
       4.430000       2.239667       1.584499       2.039613
       4.440000       2.236063       1.613366       2.039566
       4.450000       2.233678       1.639312       2.039036
       4.460000       2.233831       1.661537       2.038092
       4.470000       2.237200       1.679203       2.036864
       4.480000       2.243768       1.691543       2.035502
       4.490000       2.252847       1.697953       2.034142
       4.500000       2.263162       1.698036       2.032873
       4.510000       2.273018       1.691587       2.031727
       4.520000       2.280541       1.678553       2.030690
       4.530000       2.283987       1.659024       2.029730
       4.540000       2.282028       1.633250       2.028817
       4.550000       2.273934       1.601668       2.027940
       4.560000       2.259552       1.564880       2.027120
       4.570000       2.239074       1.523550       2.026396
       4.580000       2.212725       1.478233       2.025822
       4.590000       2.180525       1.429245       2.025450
       4.600000       2.142336       1.376690       2.025309
       4.610000       2.098191       1.320672       2.025385
       4.620000       2.048781       1.261626       2.025615
       4.630000       1.995815       1.200597       2.025883
       4.640000       1.942006       1.139300       2.026044
       4.650000       1.890604       1.079897       2.025945
       4.660000       1.844628       1.024612       2.025465
       4.670000       1.806120       0.975345       2.024536
       4.680000       1.775711       0.933438       2.023160
       4.690000       1.752624       0.899596       2.021411
       4.700000       1.735043       0.873920       2.019419
       4.710000       1.720647       0.856015       2.017343
       4.720000       1.707133       0.845145       2.015344
       4.730000       1.692595       0.840437       2.013553
       4.740000       1.675750       0.841038       2.012052
       4.750000       1.656031       0.846181       2.010871
       4.760000       1.633628       0.855128       2.009988
       4.770000       1.609465       0.867058       2.009348
       4.780000       1.585070       0.880959       2.008879
       4.790000       1.562306       0.895640       2.008512
       4.800000       1.542982       0.909870       2.008199
       4.810000       1.528462       0.922617       2.007911
       4.820000       1.519401       0.933291       2.007638
       4.830000       1.515690       0.941873       2.007376
       4.840000       1.516646       0.948849       2.007119
       4.850000       1.521346       0.954977       2.006853
       4.860000       1.529008       0.960981       2.006559
       4.870000       1.539291       0.967311       2.006225
       4.880000       1.552414       0.974058       2.005848
       4.890000       1.569063       0.981027       2.005438
       4.900000       1.590113       0.987880       2.005017
       4.910000       1.616278       0.994266       2.004609
       4.920000       1.647822       0.999882       2.004230
       4.930000       1.684421       1.004431       2.003889
       4.940000       1.725175       1.007536       2.003587
       4.950000       1.768727       1.008668       2.003332
       4.960000       1.813412       1.007159       2.003149
       4.970000       1.857392       1.002315       2.003087
       4.980000       1.898767       0.993581       2.003219
       4.990000       1.935696       0.980695       2.003628
       5.000000       1.966522       0.963766       2.004399
       5.010000       1.989940       0.943249       2.005596
       5.020000       2.005164       0.919832       2.007258
       5.030000       2.012033       0.894278       2.009386
       5.040000       2.011022       0.867284       2.011950
       5.050000       2.003121       0.839402       2.014889
       5.060000       1.989635       0.811035       2.018124
       5.070000       1.971970       0.782496       2.021579
       5.080000       1.951441       0.754085       2.025185
       5.090000       1.929122       0.726158       2.028896
       5.100000       1.905762       0.699162       2.032691
       5.110000       1.881747       0.673613       2.036570
       5.120000       1.857127       0.650067       2.040544
       5.130000       1.831665       0.629075       2.044623
       5.140000       1.804885       0.611163       2.048802
       5.150000       1.776114       0.596806       2.053058
       5.160000       1.744559       0.586431       2.057348
       5.170000       1.709433       0.580407       2.061617
       5.180000       1.670145       0.579035       2.065807
       5.190000       1.626503       0.582513       2.069860
       5.200000       1.578895       0.590877       2.073720
       5.210000       1.528379       0.603945       2.077334
       5.220000       1.476616       0.621297       2.080662
       5.230000       1.425626       0.642284       2.083674
       5.240000       1.377400       0.666053       2.086361
       5.250000       1.333507       0.691587       2.088731
       5.260000       1.294861       0.717741       2.090799
       5.270000       1.261729       0.743345       2.092577
       5.280000       1.233949       0.767347       2.094057
       5.290000       1.211248       0.789007       2.095205
       5.300000       1.193514       0.808035       2.095964
       5.310000       1.180949       0.824636       2.096274
       5.320000       1.174056       0.839413       2.096090
       5.330000       1.173474       0.853174       2.095410
       5.340000       1.179742       0.866712       2.094286
       5.350000       1.193055       0.880646       2.092828
       5.360000       1.213112       0.895329       2.091189
       5.370000       1.239108       0.910852       2.089546
       5.380000       1.269868       0.927078       2.088070
       5.390000       1.304056       0.943678       2.086909
       5.400000       1.340404       0.960148       2.086177
       5.410000       1.377855       0.975796       2.085948
       5.420000       1.415587       0.989729       2.086258
       5.430000       1.452896       1.000841       2.087112
       5.440000       1.489014       1.007828       2.088491
       5.450000       1.522922       1.009259       2.090361
       5.460000       1.553280       1.003730       2.092683
       5.470000       1.578497       0.990098       2.095413
       5.480000       1.596948       0.967714       2.098505
       5.490000       1.607299       0.936555       2.101904
       5.500000       1.608848       0.897168       2.105551
       5.510000       1.601798       0.850449       2.109384
       5.520000       1.587336       0.797398       2.113346
       5.530000       1.567505       0.738976       2.117391
       5.540000       1.544858       0.676172       2.121490
       5.550000       1.522021       0.610247       2.125633
       5.560000       1.501250       0.542996       2.129824
       5.570000       1.484090       0.476884       2.134078
       5.580000       1.471183       0.414905       2.138412
       5.590000       1.462258       0.360185       2.142843
       5.600000       1.456315       0.315430       2.147379
       5.610000       1.451967       0.282457       2.152015
       5.620000       1.447846       0.261947       2.156730
       5.630000       1.442972       0.253477       2.161497
       5.640000       1.436971       0.255763       2.166282
       5.650000       1.430097       0.266984       2.171057
       5.660000       1.423093       0.285097       2.175804
       5.670000       1.416962       0.308099       2.180518
       5.680000       1.412749       0.334211       2.185199
       5.690000       1.411357       0.361991       2.189847
       5.700000       1.413406       0.390348       2.194441
       5.710000       1.419130       0.418471       2.198927
       5.720000       1.428310       0.445707       2.203213
       5.730000       1.440279       0.471440       2.207168
       5.740000       1.454017       0.495041       2.210644
       5.750000       1.468318       0.515903       2.213494
       5.760000       1.481981       0.533549       2.215602
       5.770000       1.493938       0.547769       2.216905
       5.780000       1.503301       0.558723       2.217411
       5.790000       1.509307       0.566969       2.217202
       5.800000       1.511210       0.573399       2.216424
       5.810000       1.508173       0.579067       2.215265
       5.820000       1.499204       0.584958       2.213927
       5.830000       1.483207       0.591760       2.212601
       5.840000       1.459178       0.599733       2.211446
       5.850000       1.426540       0.608751       2.210580
       5.860000       1.385497       0.618490       2.210072
       5.870000       1.337285       0.628716       2.209948
       5.880000       1.284190       0.639523       2.210196
       5.890000       1.229294       0.651439       2.210779
       5.900000       1.175996       0.665327       2.211647
       5.910000       1.127455       0.682138       2.212751
       5.920000       1.086090       0.702612       2.214052
       5.930000       1.053267       0.727058       2.215529
       5.940000       1.029211       0.755277       2.217191
       5.950000       1.013109       0.786596       2.219080
       5.960000       1.003340       0.819999       2.221263
       5.970000       0.997781       0.854267       2.223826
       5.980000       0.994155       0.888133       2.226848
       5.990000       0.990392       0.920435       2.230382
       6.000000       0.984972       0.950246       2.234440
       6.010000       0.977194       0.976952       2.238982
       6.020000       0.967295       1.000240       2.243929
       6.030000       0.956359       1.019989       2.249171
       6.040000       0.946016       1.036085       2.254586
       6.050000       0.938011       1.048261       2.260061
       6.060000       0.933790       1.056041       2.265493
       6.070000       0.934226       1.058828       2.270801
       6.080000       0.939515       1.056123       2.275915
       6.090000       0.949247       1.047775       2.280775
       6.100000       0.962576       1.034190       2.285333
       6.110000       0.978447       1.016436       2.289551
       6.120000       0.995839       0.996194       2.293410
       6.130000       1.013973       0.975559       2.296916
       6.140000       1.032437       0.956695       2.300100
       6.150000       1.051174       0.941400       2.303019
       6.160000       1.070335       0.930721       2.305736
       6.170000       1.090056       0.924725       2.308304
       6.180000       1.110225       0.922506       2.310751
       6.190000       1.130368       0.922419       2.313064
       6.200000       1.149662       0.922443       2.315197
       6.210000       1.167102       0.920581       2.317072
       6.220000       1.181714       0.915209       2.318596
       6.230000       1.192757       0.905277       2.319669
       6.240000       1.199839       0.890346       2.320197
       6.250000       1.202934       0.870479       2.320103
       6.260000       1.202321       0.846076       2.319339
       6.270000       1.198509       0.817770       2.317898
       6.280000       1.192183       0.786438       2.315821
       6.290000       1.184171       0.753320       2.313194
       6.300000       1.175432       0.720113       2.310151
       6.310000       1.167011       0.688961       2.306852
       6.320000       1.159936       0.662228       2.303480
       6.330000       1.155083       0.642133       2.300232
       6.340000       1.153047       0.630347       2.297308
       6.350000       1.154082       0.627732       2.294914
       6.360000       1.158148       0.634278       2.293243
       6.370000       1.165069       0.649240       2.292472
       6.380000       1.174713       0.671385       2.292743
       6.390000       1.187125       0.699226       2.294150
       6.400000       1.202530       0.731207       2.296737
       6.410000       1.221231       0.765800       2.300490
       6.420000       1.243453       0.801536       2.305344
       6.430000       1.269204       0.837013       2.311193
       6.440000       1.298193       0.870885       2.317896
       6.450000       1.329803       0.901879       2.325294
       6.460000       1.363134       0.928835       2.333212
       6.470000       1.397070       0.950785       2.341471
       6.480000       1.430401       0.967069       2.349891
       6.490000       1.461941       0.977460       2.358298
       6.500000       1.490636       0.982255       2.366529
       6.510000       1.515621       0.982288       2.374438
       6.520000       1.536200       0.978810       2.381903
       6.530000       1.551747       0.973260       2.388838
       6.540000       1.561567       0.966986       2.395194
       6.550000       1.564801       0.961025       2.400959
       6.560000       1.560457       0.956040       2.406149
       6.570000       1.547605       0.952413       2.410798
       6.580000       1.525710       0.950417       2.414939
       6.590000       1.494989       0.950375       2.418592
       6.600000       1.456660       0.952724       2.421756
       6.610000       1.412966       0.957988       2.424411
       6.620000       1.366951       0.966697       2.426528
       6.630000       1.322014       0.979270       2.428080
       6.640000       1.281385       0.995900       2.429065
       6.650000       1.247647       1.016444       2.429510
       6.660000       1.222436       1.040363       2.429481
       6.670000       1.206356       1.066726       2.429082
       6.680000       1.199101       1.094297       2.428446
       6.690000       1.199710       1.121678       2.427730
       6.700000       1.206882       1.147471       2.427103
       6.710000       1.219269       1.170429       2.426729
       6.720000       1.235667       1.189538       2.426760
       6.730000       1.255083       1.204039       2.427317
       6.740000       1.276679       1.213397       2.428486
       6.750000       1.299681       1.217274       2.430306
       6.760000       1.323299       1.215536       2.432767
       6.770000       1.346715       1.208301       2.435820
       6.780000       1.369117       1.195972       2.439385
       6.790000       1.389759       1.179191       2.443363
       6.800000       1.407994       1.158701       2.447655
       6.810000       1.423283       1.135135       2.452172
       6.820000       1.435201       1.108852       2.456850
       6.830000       1.443460       1.079914       2.461646
       6.840000       1.447995       1.048293       2.466542
       6.850000       1.449101       1.014217       2.471524
       6.860000       1.447523       0.978526       2.476573
       6.870000       1.444428       0.942810       2.481649
       6.880000       1.441200       0.909240       2.486697
       6.890000       1.439124       0.880100       2.491658
       6.900000       1.439089       0.857256       2.496481
       6.910000       1.441425       0.841753       2.501136
       6.920000       1.445925       0.833699       2.505624
       6.930000       1.451996       0.832427       2.509969
       6.940000       1.458875       0.836811       2.514219
       6.950000       1.465841       0.845597       2.518434
       6.960000       1.472394       0.857654       2.522669
       6.970000       1.478381       0.872072       2.526969
       6.980000       1.484026       0.888137       2.531360
       6.990000       1.489849       0.905239       2.535850
       7.000000       1.496506       0.922776       2.540447
       7.010000       1.504584       0.940105       2.545168
       7.020000       1.514432       0.956549       2.550057
       7.030000       1.526058       0.971438       2.555188
       7.040000       1.539127       0.984171       2.560659
       7.050000       1.553049       0.994304       2.566573
       7.060000       1.567109       1.001655       2.573013
       7.070000       1.580607       1.006401       2.580021
       7.080000       1.592947       1.009139       2.587583
       7.090000       1.603682       1.010852       2.595638
       7.100000       1.612532       1.012812       2.604089
       7.110000       1.619422       1.016406       2.612832
       7.120000       1.624529       1.022954       2.621772
       7.130000       1.628300       1.033518       2.630834
       7.140000       1.631375       1.048750       2.639971
       7.150000       1.634420       1.068801       2.649159
       7.160000       1.637899       1.093302       2.658389
       7.170000       1.641906       1.121415       2.667666
       7.180000       1.646112       1.151944       2.677002
       7.190000       1.649868       1.183460       2.686409
       7.200000       1.652415       1.214451       2.695883
       7.210000       1.653123       1.243458       2.705400
       7.220000       1.651661       1.269212       2.714912
       7.230000       1.648008       1.290721       2.724346
       7.240000       1.642285       1.307302       2.733613
       7.250000       1.634465       1.318520       2.742619
       7.260000       1.624123       1.324082       2.751274
       7.270000       1.610370       1.323750       2.759505
       7.280000       1.592074       1.317353       2.767261
       7.290000       1.568307       1.304929       2.774524
       7.300000       1.538869       1.286934       2.781315
       7.310000       1.504669       1.264413       2.787693
       7.320000       1.467797       1.239007       2.793752
       7.330000       1.431213       1.212768       2.799602
       7.340000       1.398178       1.187813       2.805366
       7.350000       1.371616       1.165958       2.811177
       7.360000       1.353613       1.148439       2.817175
       7.370000       1.345138       1.135787       2.823512
       7.380000       1.346023       1.127854       2.830347
       7.390000       1.355125       1.123972       2.837836
       7.400000       1.370622       1.123160       2.846120
       7.410000       1.390334       1.124336       2.855314
       7.420000       1.412021       1.126459       2.865503
       7.430000       1.433613       1.128573       2.876742
       7.440000       1.453373       1.129772       2.889058
       7.450000       1.469988       1.129174       2.902450
       7.460000       1.482595       1.125947       2.916888
       7.470000       1.490716       1.119436       2.932309
       7.480000       1.494131       1.109341       2.948609
       7.490000       1.492720       1.095882       2.965636
       7.500000       1.486369       1.079851       2.983188
       7.510000       1.474959       1.062528       3.001017
       7.520000       1.458452       1.045448       3.018835
       7.530000       1.436978       1.030099       3.036331
       7.540000       1.410890       1.017642       3.053178
       7.550000       1.380733       1.008736       3.069057
       7.560000       1.347173       1.003523       3.083667
       7.570000       1.310906       1.001721       3.096752
       7.580000       1.272595       1.002767       3.108123
       7.590000       1.232855       1.005919       3.117673
       7.600000       1.192255       1.010310       3.125392
       7.610000       1.151355       1.015013       3.131363
       7.620000       1.110763       1.019165       3.135748
       7.630000       1.071223       1.022168       3.138756
       7.640000       1.033718       1.023905       3.140605
       7.650000       0.999512       1.024852       3.141482
       7.660000       0.970059       1.026005       3.141516
       7.670000       0.946745       1.028618       3.140780
       7.680000       0.930552       1.033849       3.139297
       7.690000       0.921765       1.042457       3.137068
       7.700000       0.919844       1.054662       3.134090
       7.710000       0.923490       1.070150       3.130360
       7.720000       0.930846       1.088200       3.125854
       7.730000       0.939750       1.107828       3.120521
       7.740000       0.947953       1.127923       3.114270
       7.750000       0.953261       1.147305       3.107007
       7.760000       0.953616       1.164721       3.098682
       7.770000       0.947157       1.178780       3.089349
       7.780000       0.932317       1.187872       3.079208
       7.790000       0.907977       1.190157       3.068606
       7.800000       0.873633       1.183665       3.058004
       7.810000       0.829525       1.166541       3.047916
       7.820000       0.776655       1.137377       3.038839
       7.830000       0.716692       1.095558       3.031184
       7.840000       0.651751       1.041507       3.025222
       7.850000       0.584105       0.976763       3.021043
       7.860000       0.515877       0.903841       3.018543
       7.870000       0.448768       0.825911       3.017446
       7.880000       0.383902       0.746370       3.017366
       7.890000       0.321813       0.668376       3.017879
       7.900000       0.262594       0.594466       3.018597
       7.910000       0.206131       0.526334       3.019212
       7.920000       0.152348       0.464826       3.019511
       7.930000       0.101352       0.410126       3.019365
       7.940000       0.053453       0.362060       3.018717
       7.950000       0.009084       0.320395       3.017564
       7.960000      -0.031300       0.285039       3.015941
       7.970000      -0.067318       0.256082       3.013898
       7.980000      -0.098731       0.233687       3.011479
       7.990000      -0.125498       0.217898       3.008716
       8.000000      -0.147795       0.208479       3.005641
       8.010000      -0.165998       0.204824       3.002301
       8.020000      -0.180611       0.205981       2.998764
       8.030000      -0.192178       0.210746       2.995110
       8.040000      -0.201193       0.217806       2.991396
       8.050000      -0.208053       0.225892       2.987637
       8.060000      -0.213042       0.233902       2.983801
       8.070000      -0.216373       0.240964       2.979834
       8.080000      -0.218247       0.246446       2.975704
       8.090000      -0.218916       0.249913       2.971438
       8.100000      -0.218727       0.251097       2.967156
       8.110000      -0.218109       0.249889       2.963075
       8.120000      -0.217539       0.246365       2.959509
       8.130000      -0.217471       0.240805       2.956835
       8.140000      -0.218268       0.233684       2.955439
       8.150000      -0.220137       0.225604       2.955650
       8.160000      -0.223082       0.217171       2.957683
       8.170000      -0.226871       0.208871       2.961610
       8.180000      -0.231022       0.200991       2.967358
       8.190000      -0.234828       0.193638       2.974750
       8.200000      -0.237435       0.186841       2.983569
       8.210000      -0.237971       0.180669       2.993623
       8.220000      -0.235682       0.175327       3.004805
       8.230000      -0.230046       0.171167       3.017100
       8.240000      -0.220838       0.168629       3.030552
       8.250000      -0.208159       0.168126       3.045194
       8.260000      -0.192433       0.169920       3.060972
       8.270000      -0.174383       0.174044       3.077708
       8.280000      -0.154967       0.180276       3.095090
       8.290000      -0.135296       0.188190       3.112711
       8.300000      -0.116523       0.197231       3.130109
       8.310000      -0.099727       0.206802       3.146801
       8.320000      -0.085781       0.216331       3.162300
       8.330000      -0.075243       0.225316       3.176126
       8.340000      -0.068263       0.233355       3.187830
       8.350000      -0.064543       0.240189       3.197033
       8.360000      -0.063389       0.245729       3.203478
       8.370000      -0.063844       0.250085       3.207053
       8.380000      -0.064911       0.253522       3.207790
       8.390000      -0.065759       0.256368       3.205839
       8.400000      -0.065857       0.258882       3.201433
       8.410000      -0.065000       0.261160       3.194886
       8.420000      -0.063245       0.263113       3.186607
       8.430000      -0.060817       0.264530       3.177111
       8.440000      -0.057999       0.265197       3.166993
       8.450000      -0.055044       0.265031       3.156855
       8.460000      -0.052078       0.264186       3.147219
       8.470000      -0.049029       0.263123       3.138459
       8.480000      -0.045604       0.262607       3.130778
       8.490000      -0.041346       0.263608       3.124241
       8.500000      -0.035755       0.267125       3.118838
       8.510000      -0.028448       0.273994       3.114544
       8.520000      -0.019274       0.284741       3.111341
       8.530000      -0.008372       0.299510       3.109196
       8.540000       0.003869       0.318091       3.108035
       8.550000       0.016924       0.339998       3.107718
       8.560000       0.030277       0.364570       3.108071
       8.570000       0.043552       0.391069       3.108948
       8.580000       0.056587       0.418753       3.110307
       8.590000       0.069408       0.446923       3.112277
       8.600000       0.082149       0.474945       3.115180
       8.610000       0.094926       0.502252       3.119490
       8.620000       0.107741       0.528344       3.125748
       8.630000       0.120419       0.552772       3.134478
       8.640000       0.132609       0.575143       3.146114
       8.650000       0.143849       0.595137       3.160978
       8.660000       0.153665       0.612540       3.179259
       8.670000       0.161687       0.627288       3.200980
       8.680000       0.167731       0.639463       3.225973
       8.690000       0.171837       0.649276       3.253866
       8.700000       0.174249       0.657020       3.284147
       8.710000       0.175372       0.663029       3.316269
       8.720000       0.175713       0.667664       3.349801
       8.730000       0.175827       0.671302       3.384539
       8.740000       0.176273       0.674337       3.420564
       8.750000       0.177592       0.677180       3.458202
       8.760000       0.180288       0.680260       3.497919
       8.770000       0.184792       0.684008       3.540183
       8.780000       0.191411       0.688815       3.585328
       8.790000       0.200257       0.694946       3.633468
       8.800000       0.211194       0.702454       3.684464
       8.810000       0.223831       0.711127       3.737938
       8.820000       0.237567       0.720510       3.793309
       8.830000       0.251669       0.729988       3.849816
       8.840000       0.265368       0.738911       3.906531
       8.850000       0.277949       0.746710       3.962338
       8.860000       0.288847       0.752987       4.015895
       8.870000       0.297733       0.757573       4.065576
       8.880000       0.304572       0.760568       4.109391
       8.890000       0.309629       0.762345       4.144890
       8.900000       0.313372       0.763510       4.169107
       8.910000       0.316313       0.764787       4.178574
       8.920000       0.318817       0.766871       4.169490
       8.930000       0.320988       0.770281       4.138069
       8.940000       0.322667       0.775289       4.081054
       8.950000       0.323559       0.781939       3.996305
       8.960000       0.323421       0.790141       3.883316
       8.970000       0.322220       0.799805       3.743488
       8.980000       0.320222       0.810936       3.580068
       8.990000       0.317964       0.823675       3.397769
       9.000000       0.316147       0.838263       3.202196
       9.010000       0.315502       0.854972       2.999273
       9.020000       0.316662       0.874036       2.794774
       9.030000       0.320088       0.895595       2.594020
       9.040000       0.326030       0.919676       2.401683
       9.050000       0.334531       0.946173       2.221638
       9.060000       0.345443       0.974856       2.056823
       9.070000       0.358447       1.005374       1.909105
       9.080000       0.373097       1.037274       1.779186
       9.090000       0.388867       1.070028       1.666602
       9.100000       0.405213       1.103067       1.569852
       9.110000       0.421624       1.135824       1.486661
       9.120000       0.437659       1.167783       1.414349
       9.130000       0.452970       1.198530       1.350241
       9.140000       0.467328       1.227805       1.292013
       9.150000       0.480635       1.255543       1.237886
       9.160000       0.492947       1.281883       1.186642
       9.170000       0.504456       1.307146       1.137515
       9.180000       0.515444       1.331768       1.090066
       9.190000       0.526196       1.356210       1.044105
       9.200000       0.536916       1.380851       0.999677
       9.210000       0.547667       1.405904       0.957051
       9.220000       0.558356       1.431356       0.916673
       9.230000       0.568771       1.456955       0.879093
       9.240000       0.578635       1.482238       0.844858
       9.250000       0.587659       1.506612       0.814443
       9.260000       0.595585       1.529440       0.788198
       9.270000       0.602223       1.550154       0.766321
       9.280000       0.607486       1.568314       0.748840
       9.290000       0.611426       1.583629       0.735599
       9.300000       0.614254       1.595893       0.726258
       9.310000       0.616313       1.604880       0.720355
       9.320000       0.618014       1.610254       0.717417
       9.330000       0.619758       1.611544       0.717115
       9.340000       0.621879       1.608237       0.719396
       9.350000       0.624651       1.599938       0.724516
       9.360000       0.628324       1.586569       0.732964
       9.370000       0.633160       1.568501       0.745279
       9.380000       0.639445       1.546580       0.761850
       9.390000       0.647447       1.522029       0.782750
       9.400000       0.657357       1.496235       0.807649
       9.410000       0.669238       1.470505       0.835836
       9.420000       0.683006       1.445867       0.866298
       9.430000       0.698451       1.422982       0.897854
       9.440000       0.715279       1.402168       0.929283
       9.450000       0.733166       1.383463       0.959436
       9.460000       0.751781       1.366668       0.987306
       9.470000       0.770812       1.351349       1.012083
       9.480000       0.789965       1.336838       1.033179
       9.490000       0.808983       1.322297       1.050229
       9.500000       0.827661       1.306857       1.063094
       9.510000       0.845866       1.289797       1.071867
       9.520000       0.863552       1.270683       1.076907
       9.530000       0.880759       1.249425       1.078885
       9.540000       0.897583       1.226205       1.078777
       9.550000       0.914140       1.201344       1.077796
       9.560000       0.930513       1.175155       1.077231
       9.570000       0.946710       1.147878       1.078259
       9.580000       0.962647       1.119691       1.081784
       9.590000       0.978151       1.090772       1.088356
       9.600000       0.992999       1.061342       1.098171
       9.610000       1.006966       1.031634       1.111129
       9.620000       1.019875       1.001773       1.126922
       9.630000       1.031639       0.971625       1.145111
       9.640000       1.042266       0.940687       1.165198
       9.650000       1.051858       0.908088       1.186688
       9.660000       1.060587       0.872729       1.209152
       9.670000       1.068678       0.833504       1.232286
       9.680000       1.076371       0.789553       1.255939
       9.690000       1.083881       0.740456       1.280089
       9.700000       1.091358       0.686323       1.304794
       9.710000       1.098843       0.627733       1.330114
       9.720000       1.106240       0.565580       1.356046
       9.730000       1.113299       0.500878       1.382502
       9.740000       1.119619       0.434640       1.409305
       9.750000       1.124692       0.367853       1.436210
       9.760000       1.127972       0.301530       1.462920
       9.770000       1.128970       0.236768       1.489083
       9.780000       1.127342       0.174773       1.514283
       9.790000       1.122951       0.116848       1.538028
       9.800000       1.115896       0.064347       1.559755
       9.810000       1.106498       0.018608       1.578866
       9.820000       1.095255      -0.019134       1.594806
       9.830000       1.082744      -0.047873       1.607165
       9.840000       1.069501      -0.066991       1.615785
       9.850000       1.055889      -0.076413       1.620830
       9.860000       1.042026      -0.076716       1.622792
       9.870000       1.027786      -0.069120       1.622407
       9.880000       1.012887      -0.055369       1.620530
       9.890000       0.997012      -0.037500       1.617996
       9.900000       0.979939      -0.017597       1.615516
       9.910000       0.961605       0.002416       1.613615
       9.920000       0.942113       0.020913       1.612616
       9.930000       0.921679       0.036607       1.612622
       9.940000       0.900558       0.048533       1.613512
       9.950000       0.878990       0.055995       1.614935
       9.960000       0.857194       0.058524       1.616308
       9.970000       0.835414       0.055847       1.616846
       9.980000       0.813994       0.047890       1.615623
       9.990000       0.793434       0.034779       1.611666
      10.000000       0.774396       0.016882       1.604062
      10.010000       0.757623      -0.005111       1.592064
      10.020000       0.743805      -0.030076       1.575192
      10.030000       0.733408      -0.056398       1.553322
      10.040000       0.726543      -0.082073       1.526752
      10.050000       0.722921      -0.104980       1.496195
      10.060000       0.721919      -0.123274       1.462673
      10.070000       0.722739      -0.135729       1.427327
      10.080000       0.724605      -0.141910       1.391175
      10.090000       0.726921      -0.142158       1.354906
      10.100000       0.729325      -0.137425       1.318746
      10.110000       0.731653      -0.129073       1.282454
      10.120000       0.733807      -0.118646       1.245440
      10.130000       0.735635      -0.107659       1.206997
      10.140000       0.736868      -0.097385       1.166614
      10.150000       0.737149      -0.088685       1.124275
      10.160000       0.736144      -0.081919       1.080638
      10.170000       0.733678      -0.076956       1.036995
      10.180000       0.729837      -0.073299       0.994989
      10.190000       0.724973      -0.070280       0.956192
      10.200000       0.719615      -0.067255       0.921702
      10.210000       0.714320      -0.063750       0.891898
      10.220000       0.709524      -0.059522       0.866419
      10.230000       0.705451      -0.054566       0.844319
      10.240000       0.702093      -0.049090       0.824336
      10.250000       0.699253      -0.043509       0.805187
      10.260000       0.696606      -0.038438       0.785831
      10.270000       0.693770      -0.034677       0.765637
      10.280000       0.690358      -0.033148       0.744435
      10.290000       0.686039      -0.034776       0.722437
      10.300000       0.680597      -0.040307       0.700068
      10.310000       0.673982      -0.050125       0.677787
      10.320000       0.666323      -0.064134       0.655959
      10.330000       0.657871      -0.081757       0.634822
      10.340000       0.648901      -0.102078       0.614549
      10.350000       0.639586      -0.124077       0.595348
      10.360000       0.629946      -0.146868       0.577574
      10.370000       0.619865      -0.169814       0.561769
      10.380000       0.609202      -0.192504       0.548620
      10.390000       0.597928      -0.214604       0.538816
      10.400000       0.586224      -0.235688       0.532862
      10.410000       0.574509      -0.255159       0.530910
      10.420000       0.563382      -0.272287       0.532694
      10.430000       0.553515      -0.286323       0.537571
      10.440000       0.545518      -0.296642       0.544660
      10.450000       0.539831      -0.302828       0.553007
      10.460000       0.536636      -0.304698       0.561748
      10.470000       0.535836      -0.302285       0.570217
      10.480000       0.537076      -0.295805       0.578006
      10.490000       0.539833      -0.285633       0.584963
      10.500000       0.543537      -0.272282       0.591154
      10.510000       0.547718      -0.256386       0.596792
      10.520000       0.552113      -0.238676       0.602155
      10.530000       0.556698      -0.219943       0.607493
      10.540000       0.561632      -0.200982       0.612975
      10.550000       0.567135      -0.182520       0.618671
      10.560000       0.573350      -0.165134       0.624600
      10.570000       0.580278      -0.149177       0.630805
      10.580000       0.587775      -0.134721       0.637432
      10.590000       0.595623      -0.121562       0.644782
      10.600000       0.603604      -0.109260       0.653307
      10.610000       0.611533      -0.097241       0.663555
      10.620000       0.619235      -0.084906       0.676099
      10.630000       0.626482      -0.071736       0.691442
      10.640000       0.632939      -0.057377       0.709943
      10.650000       0.638152      -0.041677       0.731753
      10.660000       0.641612      -0.024711       0.756771
      10.670000       0.642875      -0.006764       0.784624
      10.680000       0.641716       0.011709       0.814681
      10.690000       0.638244       0.030143       0.846122
      10.700000       0.632944       0.047940       0.878048
      10.710000       0.626598       0.064520       0.909616
      10.720000       0.620118       0.079357       0.940163
      10.730000       0.614334       0.091988       0.969268
      10.740000       0.609827       0.102019       0.996733
      10.750000       0.606853       0.109144       1.022496
      10.760000       0.605382       0.113180       1.046502
      10.770000       0.605229       0.114101       1.068595
      10.780000       0.606215       0.112039       1.088459
      10.790000       0.608299       0.107249       1.105632
      10.800000       0.611647       0.100023       1.119595
      10.810000       0.616615       0.090600       1.129884
      10.820000       0.623681       0.079096       1.136192
      10.830000       0.633339       0.065490       1.138392
      10.840000       0.646001       0.049691       1.136484
      10.850000       0.661917       0.031665       1.130477
      10.860000       0.681127       0.011607       1.120274
      10.870000       0.703457      -0.009904       1.105621
      10.880000       0.728547      -0.031839       1.086141
      10.890000       0.755912      -0.052778       1.061431
      10.900000       0.785009      -0.071106       1.031209
      10.910000       0.815288      -0.085299       0.995463
      10.920000       0.846235      -0.094196       0.954551
      10.930000       0.877389      -0.097192       0.909214
      10.940000       0.908353      -0.094277       0.860472
      10.950000       0.938801      -0.085952       0.809408
      10.960000       0.968466      -0.073073       0.756910
      10.970000       0.997129      -0.056677       0.703456
      10.980000       1.024573      -0.037834       0.649017
      10.990000       1.050543      -0.017552       0.593090
      11.000000       1.074683       0.003284       0.534846
      11.010000       1.096504       0.023935       0.473340
      11.020000       1.115368       0.043823       0.407729
      11.030000       1.130520       0.062541       0.337474
      11.040000       1.141147       0.079861       0.262495
      11.050000       1.146462       0.095725       0.183268
      11.060000       1.145788       0.110230       0.100853
      11.070000       1.138636       0.123590       0.016837
      11.080000       1.124784       0.136098      -0.066783
      11.090000       1.104360       0.148098      -0.147777
      11.100000       1.077914       0.159944      -0.223901
      11.110000       1.046454       0.171978      -0.293130
      11.120000       1.011382       0.184480      -0.353882
      11.130000       0.974329       0.197634      -0.405189
      11.140000       0.936909       0.211498      -0.446761
      11.150000       0.900451       0.226012      -0.478923
      11.160000       0.865774       0.241030      -0.502452
      11.170000       0.833048       0.256379      -0.518364
      11.180000       0.801772       0.271923      -0.527720
      11.190000       0.770882       0.287602      -0.531512
      11.200000       0.738981       0.303444      -0.530609
      11.210000       0.704687       0.319536      -0.525762
      11.220000       0.667018       0.335980      -0.517622
      11.230000       0.625715       0.352843      -0.506767
      11.240000       0.581410       0.370137      -0.493721
      11.250000       0.535547       0.387825      -0.478994
      11.260000       0.490090       0.405836      -0.463101
      11.270000       0.447108       0.424087      -0.446572
      11.280000       0.408377       0.442481      -0.429919
      11.290000       0.375117       0.460908      -0.413584
      11.300000       0.347926       0.479248      -0.397879
      11.310000       0.326875       0.497394      -0.382947
      11.320000       0.311696       0.515290      -0.368769
      11.330000       0.301964       0.532960      -0.355198
      11.340000       0.297198       0.550511      -0.342033
      11.350000       0.296879       0.568090      -0.329084
      11.360000       0.300402       0.585806      -0.316228
      11.370000       0.307041       0.603650      -0.303435
      11.380000       0.315947       0.621434      -0.290767
      11.390000       0.326198       0.638783      -0.278372
      11.400000       0.336871       0.655159      -0.266477
      11.410000       0.347124       0.669921      -0.255392
      11.420000       0.356268       0.682388      -0.245521
      11.430000       0.363794       0.691895      -0.237345
      11.440000       0.369391       0.697842      -0.231364
      11.450000       0.372937       0.699731      -0.227989
      11.460000       0.374488       0.697200      -0.227411
      11.470000       0.374274       0.690046      -0.229498
      11.480000       0.372688       0.678228      -0.233785
      11.490000       0.370274       0.661839      -0.239583
      11.500000       0.367693       0.641061      -0.246152
      11.510000       0.365672       0.616117      -0.252895
      11.520000       0.364919       0.587271      -0.259471
      11.530000       0.366029       0.554854      -0.265819
      11.540000       0.369383       0.519342      -0.272111
      11.550000       0.375069       0.481414      -0.278676
      11.560000       0.382854       0.441977      -0.285933
      11.570000       0.392204       0.402120      -0.294332
      11.580000       0.402352       0.363003      -0.304322
      11.590000       0.412382       0.325691      -0.316295
      11.600000       0.421315       0.291001      -0.330546
      11.610000       0.428178       0.259378      -0.347212
      11.620000       0.432079       0.230865      -0.366216
      11.630000       0.432303       0.205163      -0.387223
      11.640000       0.428430       0.181772      -0.409621
      11.650000       0.420423       0.160151      -0.432548
      11.660000       0.408639       0.139854      -0.454994
      11.670000       0.393731       0.120613      -0.475946
      11.680000       0.376450       0.102350      -0.494573
      11.690000       0.357451       0.085135      -0.510361
      11.700000       0.337172       0.069107      -0.523176
      11.710000       0.315842       0.054397      -0.533229
      11.720000       0.293588       0.041071      -0.540979
      11.730000       0.270597       0.029114      -0.547007
      11.740000       0.247226       0.018466      -0.551914
      11.750000       0.224018       0.009059      -0.556242
      11.760000       0.201631       0.000843      -0.560441
      11.770000       0.180721      -0.006229      -0.564854
      11.780000       0.161849      -0.012223      -0.569717
      11.790000       0.145430      -0.017244      -0.575170
      11.800000       0.131735      -0.021415      -0.581247
      11.810000       0.120902      -0.024845      -0.587875
      11.820000       0.112939      -0.027595      -0.594871
      11.830000       0.107702      -0.029674      -0.601947
      11.840000       0.104879      -0.031065      -0.608735
      11.850000       0.104000      -0.031770      -0.614839
      11.860000       0.104487      -0.031840      -0.619892
      11.870000       0.105750      -0.031389      -0.623604
      11.880000       0.107279      -0.030584      -0.625798
      11.890000       0.108730      -0.029596      -0.626428
      11.900000       0.109972      -0.028542      -0.625581
      11.910000       0.111087      -0.027426      -0.623474
      11.920000       0.112325      -0.026106      -0.620419
      11.930000       0.114039      -0.024321      -0.616764
      11.940000       0.116600      -0.021752      -0.612821
      11.950000       0.120342      -0.018111      -0.608791
      11.960000       0.125531      -0.013201      -0.604720
      11.970000       0.132348      -0.006940      -0.600497
      11.980000       0.140886       0.000663      -0.595902
      11.990000       0.151160       0.009543      -0.590678
      12.000000       0.163130       0.019609      -0.584612
      12.010000       0.176740       0.030753      -0.577584
      12.020000       0.191947       0.042840      -0.569572
      12.030000       0.208731       0.055698      -0.560611
      12.040000       0.227065       0.069127      -0.550736
      12.050000       0.246879       0.082920      -0.539931
      12.060000       0.268026       0.096894      -0.528118
      12.070000       0.290255       0.110913      -0.515190
      12.080000       0.313206       0.124894      -0.501062
      12.090000       0.336422       0.138787      -0.485726
      12.100000       0.359352       0.152549      -0.469276
      12.110000       0.381376       0.166112      -0.451902
      12.120000       0.401823       0.179377      -0.433869
      12.130000       0.419996       0.192224      -0.415494
      12.140000       0.435210       0.204549      -0.397124
      12.150000       0.446833       0.216314      -0.379122
      12.160000       0.454336       0.227568      -0.361850
      12.170000       0.457355       0.238445      -0.345639
      12.180000       0.455748       0.249125      -0.330757
      12.190000       0.449661       0.259776      -0.317396
      12.200000       0.439565       0.270510      -0.305659
      12.210000       0.426239       0.281351      -0.295571
      12.220000       0.410694       0.292241      -0.287079
      12.230000       0.394033       0.303068      -0.280051
      12.240000       0.377311       0.313705      -0.274275
      12.250000       0.361424       0.324047      -0.269454
      12.260000       0.347046       0.334028      -0.265207
      12.270000       0.334615       0.343618      -0.261093
      12.280000       0.324357       0.352792      -0.256644
      12.290000       0.316308       0.361508      -0.251431
      12.300000       0.310346       0.369675      -0.245108
      12.310000       0.306223       0.377143      -0.237461
      12.320000       0.303600       0.383701      -0.228417
      12.330000       0.302088       0.389083      -0.218035
      12.340000       0.301298       0.392988      -0.206485
      12.350000       0.300899       0.395100      -0.194019
      12.360000       0.300659       0.395133      -0.180939
      12.370000       0.300465       0.392870      -0.167559
      12.380000       0.300314       0.388220      -0.154177
      12.390000       0.300284       0.381270      -0.141053
      12.400000       0.300501       0.372311      -0.128409
      12.410000       0.301104       0.361842      -0.116426
      12.420000       0.302228       0.350507      -0.105248
      12.430000       0.303978       0.339000      -0.094971
      12.440000       0.306422       0.327936      -0.085625
      12.450000       0.309565       0.317745      -0.077159
      12.460000       0.313341       0.308626      -0.069435
      12.470000       0.317629       0.300558      -0.062251
      12.480000       0.322278       0.293372      -0.055359
      12.490000       0.327140       0.286848      -0.048508
      12.500000       0.332082       0.280796      -0.041468
      12.510000       0.336978       0.275105      -0.034056
      12.520000       0.341694       0.269767      -0.026154
      12.530000       0.346066       0.264853      -0.017710
      12.540000       0.349913       0.260493      -0.008740
      12.550000       0.353073       0.256826       0.000684
      12.560000       0.355455       0.253957       0.010444
      12.570000       0.357092       0.251923       0.020390
      12.580000       0.358155       0.250675       0.030350
      12.590000       0.358924       0.250094       0.040132
      12.600000       0.359719       0.250037       0.049530
      12.610000       0.360834       0.250372       0.058314
      12.620000       0.362488       0.251007       0.066240
      12.630000       0.364814       0.251875       0.073052
      12.640000       0.367874       0.252910       0.078508
      12.650000       0.371665       0.254007       0.082422
      12.660000       0.376113       0.254986       0.084710
      12.670000       0.381059       0.255575       0.085429
      12.680000       0.386255       0.255397       0.084790
      12.690000       0.391382       0.253979       0.083142
      12.700000       0.396094       0.250804       0.080925
      12.710000       0.400051       0.245382       0.078610
      12.720000       0.402929       0.237364       0.076631
      12.730000       0.404405       0.226630       0.075331
      12.740000       0.404117       0.213350       0.074919
      12.750000       0.401655       0.197964       0.075467
      12.760000       0.396595       0.181107       0.076913
      12.770000       0.388571       0.163494       0.079097
      12.780000       0.377384       0.145828       0.081790
      12.790000       0.363098       0.128745       0.084719
      12.800000       0.346114       0.112795       0.087591
      12.810000       0.327187       0.098443       0.090106
      12.820000       0.307370       0.086062       0.091973
      12.830000       0.287884       0.075928       0.092943
      12.840000       0.269943       0.068228       0.092839
      12.850000       0.254576       0.063085       0.091596
      12.860000       0.242492       0.060571       0.089281
      12.870000       0.234011       0.060713       0.086105
      12.880000       0.229065       0.063459       0.082411
      12.890000       0.227264       0.068633       0.078637
      12.900000       0.228004       0.075909       0.075274
      12.910000       0.230606       0.084804       0.072803
      12.920000       0.234437       0.094722       0.071638
      12.930000       0.238999       0.105016       0.072081
      12.940000       0.243954       0.115069       0.074285
      12.950000       0.249113       0.124367       0.078254
      12.960000       0.254386       0.132549       0.083849
      12.970000       0.259736       0.139434       0.090820
      12.980000       0.265153       0.145007       0.098840
      12.990000       0.270655       0.149397       0.107545
      13.000000       0.276301       0.152836       0.116575
      13.010000       0.282212       0.155628       0.125601
      13.020000       0.288566       0.158105       0.134350
      13.030000       0.295571       0.160579       0.142604
      13.040000       0.303410       0.163292       0.150192
      13.050000       0.312182       0.166369       0.156974
      13.060000       0.321875       0.169791       0.162835
      13.070000       0.332354       0.173395       0.167697
      13.080000       0.343388       0.176899       0.171545
      13.090000       0.354685       0.179932       0.174452
      13.100000       0.365914       0.182083       0.176594
      13.110000       0.376733       0.182952       0.178241
      13.120000       0.386795       0.182220       0.179738
      13.130000       0.395769       0.179712       0.181458
      13.140000       0.403350       0.175433       0.183757
      13.150000       0.409292       0.169584       0.186915
      13.160000       0.413416       0.162518       0.191096
      13.170000       0.415629       0.154693       0.196317
      13.180000       0.415918       0.146613       0.202456
      13.190000       0.414357       0.138792       0.209282
      13.200000       0.411109       0.131719       0.216507
      13.210000       0.406451       0.125830       0.223843
      13.220000       0.400774       0.121472       0.231045
      13.230000       0.394567       0.118865       0.237942
      13.240000       0.388363       0.118092       0.244434
      13.250000       0.382654       0.119108       0.250486
      13.260000       0.377800       0.121767       0.256095
      13.270000       0.373965       0.125859       0.261275
      13.280000       0.371096       0.131132       0.266034
      13.290000       0.368950       0.137299       0.270376
      13.300000       0.367158       0.144029       0.274301
      13.310000       0.365305       0.150946       0.277820
      13.320000       0.363018       0.157628       0.280966
      13.330000       0.360045       0.163634       0.283799
      13.340000       0.356314       0.168537       0.286402
      13.350000       0.351948       0.171970       0.288874
      13.360000       0.347226       0.173683       0.291307
      13.370000       0.342493       0.173583       0.293772
      13.380000       0.338034       0.171767       0.296299
      13.390000       0.333962       0.168505       0.298874
      13.400000       0.330150       0.164192       0.301441
      13.410000       0.326238       0.159263       0.303928
      13.420000       0.321701       0.154112       0.306271
      13.430000       0.315978       0.149047       0.308430
      13.440000       0.308622       0.144283       0.310387
      13.450000       0.299444       0.139968       0.312135
      13.460000       0.288598       0.136202       0.313648
      13.470000       0.276598       0.133024       0.314884
      13.480000       0.264227       0.130384       0.315780
      13.490000       0.252378       0.128116       0.316273
      13.500000       0.241858       0.125953       0.316320
      13.510000       0.233232       0.123590       0.315906
      13.520000       0.226742       0.120786       0.315058
      13.530000       0.222333       0.117454       0.313841
      13.540000       0.219741       0.113726       0.312352
      13.550000       0.218620       0.109937       0.310699
      13.560000       0.218631       0.106559       0.308998
      13.570000       0.219487       0.104086       0.307356
      13.580000       0.220949       0.102923       0.305877
      13.590000       0.222793       0.103309       0.304660
      13.600000       0.224785       0.105293       0.303809
      13.610000       0.226666       0.108756       0.303428
      13.620000       0.228180       0.113463       0.303620
      13.630000       0.229107       0.119114       0.304481
      13.640000       0.229314       0.125381       0.306092
      13.650000       0.228789       0.131942       0.308506
      13.660000       0.227646       0.138492       0.311735
      13.670000       0.226112       0.144767       0.315738
      13.680000       0.224483       0.150563       0.320416
      13.690000       0.223073       0.155761       0.325625
      13.700000       0.222176       0.160345       0.331194
      13.710000       0.222023       0.164393       0.336947
      13.720000       0.222767       0.168052       0.342731
      13.730000       0.224486       0.171487       0.348428
      13.740000       0.227201       0.174838       0.353970
      13.750000       0.230896       0.178199       0.359336
      13.760000       0.235545       0.181622       0.364553
      13.770000       0.241108       0.185146       0.369681
      13.780000       0.247530       0.188816       0.374799
      13.790000       0.254731       0.192706       0.379991
      13.800000       0.262598       0.196912       0.385330
      13.810000       0.271002       0.201534       0.390870
      13.820000       0.279801       0.206649       0.396646
      13.830000       0.288857       0.212295       0.402668
      13.840000       0.298039       0.218464       0.408935
      13.850000       0.307213       0.225102       0.415433
      13.860000       0.316240       0.232114       0.422149
      13.870000       0.324965       0.239374       0.429067
      13.880000       0.333212       0.246725       0.436174
      13.890000       0.340793       0.253995       0.443454
      13.900000       0.347511       0.261012       0.450883
      13.910000       0.353187       0.267628       0.458432
      13.920000       0.357675       0.273737       0.466067
      13.930000       0.360892       0.279275       0.473751
      13.940000       0.362839       0.284214       0.481451
      13.950000       0.363625       0.288546       0.489144
      13.960000       0.363475       0.292265       0.496813
      13.970000       0.362717       0.295367       0.504452
      13.980000       0.361753       0.297855       0.512051
      13.990000       0.360987       0.299756       0.519599
      14.000000       0.360764       0.301122       0.527070
      14.010000       0.361291       0.302043       0.534431
      14.020000       0.362599       0.302644       0.541633
      14.030000       0.364525       0.303079       0.548621
      14.040000       0.366751       0.303513       0.555334
      14.050000       0.368862       0.304099       0.561713
      14.060000       0.370433       0.304951       0.567709
      14.070000       0.371109       0.306128       0.573291
      14.080000       0.370660       0.307629       0.578455
      14.090000       0.369010       0.309397       0.583222
      14.100000       0.366214       0.311326       0.587643
      14.110000       0.362429       0.313268       0.591790
      14.120000       0.357866       0.315036       0.595751
      14.130000       0.352775       0.316423       0.599610
      14.140000       0.347444       0.317221       0.603424
      14.150000       0.342206       0.317257       0.607198
      14.160000       0.337412       0.316422       0.610873
      14.170000       0.333376       0.314707       0.614321
      14.180000       0.330289       0.312214       0.617369
      14.190000       0.328151       0.309155       0.619823
      14.200000       0.326753       0.305821       0.621500
      14.210000       0.325724       0.302538       0.622255
      14.220000       0.324613       0.299615       0.622001
      14.230000       0.323011       0.297302       0.620713
      14.240000       0.320652       0.295769       0.618425
      14.250000       0.317480       0.295099       0.615213
      14.260000       0.313659       0.295311       0.611173
      14.270000       0.309520       0.296381       0.606411
      14.280000       0.305475       0.298266       0.601052
      14.290000       0.301924       0.300922       0.595260
      14.300000       0.299178       0.304300       0.589264
      14.310000       0.297410       0.308345       0.583367
      14.320000       0.296651       0.312986       0.577922
      14.330000       0.296800       0.318135       0.573276
      14.340000       0.297663       0.323693       0.569705
      14.350000       0.298992       0.329548       0.567355
      14.360000       0.300526       0.335586       0.566218
      14.370000       0.302034       0.341682       0.566133
      14.380000       0.303356       0.347704       0.566824
      14.390000       0.304447       0.353526       0.567952
      14.400000       0.305399       0.359048       0.569173
      14.410000       0.306438       0.364216       0.570192
      14.420000       0.307877       0.369041       0.570791
      14.430000       0.310047       0.373591       0.570832
      14.440000       0.313219       0.377981       0.570228
      14.450000       0.317546       0.382343       0.568910
      14.460000       0.323046       0.386804       0.566794
      14.470000       0.329605       0.391456       0.563766
      14.480000       0.337016       0.396345       0.559701
      14.490000       0.345005       0.401469       0.554499
      14.500000       0.353266       0.406786       0.548128
      14.510000       0.361479       0.412221       0.540655
      14.520000       0.369327       0.417692       0.532256
      14.530000       0.376511       0.423108       0.523200
      14.540000       0.382780       0.428384       0.513818
      14.550000       0.387962       0.433436       0.504464
      14.560000       0.391998       0.438184       0.495479
      14.570000       0.394959       0.442550       0.487145
      14.580000       0.397037       0.446465       0.479660
      14.590000       0.398504       0.449891       0.473125
      14.600000       0.399656       0.452835       0.467550
      14.610000       0.400756       0.455371       0.462892
      14.620000       0.401997       0.457645       0.459099
      14.630000       0.403482       0.459851       0.456146
      14.640000       0.405236       0.462201       0.454059
      14.650000       0.407212       0.464884       0.452898
      14.660000       0.409314       0.468039       0.452727
      14.670000       0.411415       0.471745       0.453565
      14.680000       0.413378       0.476035       0.455357
      14.690000       0.415073       0.480898       0.457966
      14.700000       0.416386       0.486298       0.461194
      14.710000       0.417217       0.492166       0.464825
      14.720000       0.417491       0.498405       0.468662
      14.730000       0.417164       0.504893       0.472565
      14.740000       0.416252       0.511490       0.476464
      14.750000       0.414854       0.518048       0.480349
      14.760000       0.413165       0.524422       0.484254
      14.770000       0.411459       0.530476       0.488231
      14.780000       0.410041       0.536076       0.492327
      14.790000       0.409185       0.541094       0.496575
      14.800000       0.409070       0.545400       0.500994
      14.810000       0.409752       0.548877       0.505597
      14.820000       0.411161       0.551433       0.510403
      14.830000       0.413130       0.553019       0.515446
      14.840000       0.415441       0.553645       0.520766
      14.850000       0.417871       0.553375       0.526409
      14.860000       0.420238       0.552323       0.532405
      14.870000       0.422430       0.550629       0.538761
      14.880000       0.424424       0.548444       0.545451
      14.890000       0.426276       0.545902       0.552413
      14.900000       0.428101       0.543107       0.559556
      14.910000       0.430032       0.540121       0.566769
      14.920000       0.432177       0.536966       0.573937
      14.930000       0.434591       0.533642       0.580959
      14.940000       0.437269       0.530158       0.587762
      14.950000       0.440155       0.526559       0.594310
      14.960000       0.443161       0.522939       0.600591
      14.970000       0.446189       0.519439       0.606612
      14.980000       0.449147       0.516221       0.612384
      14.990000       0.451955       0.513426       0.617917
      15.000000       0.454561       0.511152       0.623230
      15.010000       0.456936       0.509431       0.628355
      15.020000       0.459083       0.508239       0.633346
      15.030000       0.461023       0.507519       0.638267
      15.040000       0.462799       0.507214       0.643174
      15.050000       0.464468       0.507294       0.648087
      15.060000       0.466108       0.507749       0.652964
      15.070000       0.467806       0.508578       0.657692
      15.080000       0.469653       0.509752       0.662092
      15.090000       0.471715       0.511185       0.665946
      15.100000       0.474023       0.512734       0.669044
      15.110000       0.476558       0.514205       0.671236
      15.120000       0.479262       0.515396       0.672476
      15.130000       0.482049       0.516139       0.672856
      15.140000       0.484827       0.516344       0.672602
      15.150000       0.487507       0.516015       0.672035
      15.160000       0.490016       0.515245       0.671506
      15.170000       0.492301       0.514182       0.671321
      15.180000       0.494328       0.512975       0.671689
      15.190000       0.496084       0.511729       0.672699
      15.200000       0.497565       0.510472       0.674340
      15.210000       0.498750       0.509158       0.676531
      15.220000       0.499584       0.507700       0.679167
      15.230000       0.499966       0.506016       0.682139
      15.240000       0.499753       0.504067       0.685358
      15.250000       0.498792       0.501882       0.688748
      15.260000       0.496959       0.499548       0.692243
      15.270000       0.494202       0.497181       0.695776
      15.280000       0.490568       0.494902       0.699271
      15.290000       0.486216       0.492803       0.702648
      15.300000       0.481389       0.490927       0.705835
      15.310000       0.476369       0.489256       0.708793
      15.320000       0.471414       0.487721       0.711528
      15.330000       0.466696       0.486225       0.714100
      15.340000       0.462267       0.484686       0.716609
      15.350000       0.458051       0.483070       0.719161
      15.360000       0.453881       0.481393       0.721825
      15.370000       0.449560       0.479703       0.724598
      15.380000       0.444924       0.478052       0.727375
      15.390000       0.439893       0.476463       0.729947
      15.400000       0.434489       0.474921       0.732020
      15.410000       0.428827       0.473371       0.733252
      15.420000       0.423084       0.471729       0.733298
      15.430000       0.417470       0.469890       0.731847
      15.440000       0.412191       0.467729       0.728644
      15.450000       0.407431       0.465126       0.723487
      15.460000       0.403344       0.461990       0.716216
      15.470000       0.400052       0.458296       0.706719
      15.480000       0.397649       0.454101       0.694942
      15.490000       0.396199       0.449551       0.680916
      15.500000       0.395733       0.444851       0.664791
      15.510000       0.396242       0.440224       0.646839
      15.520000       0.397672       0.435872       0.627452
      15.530000       0.399923       0.431941       0.607107
      15.540000       0.402852       0.428499       0.586329
      15.550000       0.406287       0.425537       0.565639
      15.560000       0.410040       0.422971       0.545514
      15.570000       0.413927       0.420651       0.526358
      15.580000       0.417780       0.418370       0.508482
      15.590000       0.421466       0.415882       0.492101
      15.600000       0.424890       0.412925       0.477327
      15.610000       0.428002       0.409246       0.464177
      15.620000       0.430789       0.404637       0.452575
      15.630000       0.433272       0.398967       0.442363
      15.640000       0.435496       0.392211       0.433328
      15.650000       0.437533       0.384469       0.425231
      15.660000       0.439481       0.375967       0.417849
      15.670000       0.441464       0.367034       0.411010
      15.680000       0.443621       0.358065       0.404615
      15.690000       0.446084       0.349459       0.398637
      15.700000       0.448965       0.341570       0.393105
      15.710000       0.452336       0.334651       0.388067
      15.720000       0.456226       0.328842       0.383562
      15.730000       0.460618       0.324166       0.379601
      15.740000       0.465451       0.320553       0.376157
      15.750000       0.470627       0.317872       0.373181
      15.760000       0.476026       0.315955       0.370606
      15.770000       0.481518       0.314615       0.368371
      15.780000       0.486979       0.313667       0.366429
      15.790000       0.492299       0.312939       0.364755
      15.800000       0.497389       0.312297       0.363347
      15.810000       0.502173       0.311660       0.362214
      15.820000       0.506575       0.311011       0.361353
      15.830000       0.510506       0.310391       0.360741
      15.840000       0.513858       0.309872       0.360326
      15.850000       0.516509       0.309529       0.360030
      15.860000       0.518332       0.309422       0.359758
      15.870000       0.519224       0.309584       0.359401
      15.880000       0.519128       0.310028       0.358834
      15.890000       0.518056       0.310747       0.357926
      15.900000       0.516098       0.311709       0.356551
      15.910000       0.513425       0.312844       0.354603
      15.920000       0.510275       0.314048       0.352024
      15.930000       0.506943       0.315187       0.348817
      15.940000       0.503745       0.316125       0.345052
      15.950000       0.500988       0.316746       0.340871
      15.960000       0.498934       0.316978       0.336463
      15.970000       0.497763       0.316791       0.332045
      15.980000       0.497558       0.316193       0.327832
      15.990000       0.498295       0.315218       0.324005
      16.000000       0.499845       0.313916       0.320697
      16.010000       0.502000       0.312355       0.317990
      16.020000       0.504488       0.310621       0.315933
      16.030000       0.507012       0.308823       0.314556
      16.040000       0.509284       0.307098       0.313895
      16.050000       0.511059       0.305594       0.313990
      16.060000       0.512161       0.304452       0.314879
      16.070000       0.512500       0.303774       0.316573
      16.080000       0.512076       0.303599       0.319045
      16.090000       0.510983       0.303896       0.322233
      16.100000       0.509394       0.304575       0.326048
      16.110000       0.507544       0.305510       0.330392
      16.120000       0.505690       0.306566       0.335174
      16.130000       0.504064       0.307619       0.340316
      16.140000       0.502833       0.308569       0.345750
      16.150000       0.502074       0.309345       0.351418
      16.160000       0.501762       0.309893       0.357256
      16.170000       0.501785       0.310166       0.363198
      16.180000       0.501960       0.310114       0.369174
      16.190000       0.502062       0.309694       0.375111
      16.200000       0.501850       0.308887       0.380945
      16.210000       0.501096       0.307715       0.386626
      16.220000       0.499618       0.306261       0.392121
      16.230000       0.497310       0.304655       0.397421
      16.240000       0.494171       0.303053       0.402532
      16.250000       0.490322       0.301600       0.407472
      16.260000       0.486000       0.300389       0.412268
      16.270000       0.481521       0.299443       0.416945
      16.280000       0.477215       0.298708       0.421526
      16.290000       0.473367       0.298073       0.426033
      16.300000       0.470165       0.297403       0.430487
      16.310000       0.467679       0.296575       0.434906
      16.320000       0.465870       0.295512       0.439305
      16.330000       0.464608       0.294194       0.443688
      16.340000       0.463711       0.292665       0.448046
      16.350000       0.462988       0.291023       0.452354
      16.360000       0.462280       0.289412       0.456580
      16.370000       0.461494       0.288005       0.460691
      16.380000       0.460617       0.286980       0.464665
      16.390000       0.459713       0.286490       0.468500
      16.400000       0.458889       0.286638       0.472213
      16.410000       0.458260       0.287456       0.475840
      16.420000       0.457907       0.288898       0.479429
      16.430000       0.457856       0.290848       0.483036
      16.440000       0.458080       0.293137       0.486714
      16.450000       0.458517       0.295568       0.490507
      16.460000       0.459094       0.297941       0.494438
      16.470000       0.459756       0.300077       0.498509
      16.480000       0.460475       0.301841       0.502696
      16.490000       0.461260       0.303162       0.506958
      16.500000       0.462149       0.304049       0.511245
      16.510000       0.463205       0.304581       0.515513
      16.520000       0.464497       0.304890       0.519726
      16.530000       0.466088       0.305127       0.523863
      16.540000       0.468027       0.305420       0.527916
      16.550000       0.470346       0.305858       0.531877
      16.560000       0.473061       0.306474       0.535735
      16.570000       0.476173       0.307261       0.539469
      16.580000       0.479661       0.308183       0.543050
      16.590000       0.483475       0.309194       0.546440
      16.600000       0.487523       0.310253       0.549604
      16.610000       0.491672       0.311319       0.552515
      16.620000       0.495760       0.312342       0.555155
      16.630000       0.499622       0.313259       0.557524
      16.640000       0.503117       0.313993       0.559627
      16.650000       0.506156       0.314465       0.561476
      16.660000       0.508719       0.314612       0.563084
      16.670000       0.510859       0.314404       0.564460
      16.680000       0.512697       0.313854       0.565609
      16.690000       0.514404       0.313018       0.566531
      16.700000       0.516166       0.311991       0.567220
      16.710000       0.518151       0.310888       0.567670
      16.720000       0.520478       0.309829       0.567878
      16.730000       0.523191       0.308918       0.567850
      16.740000       0.526243       0.308230       0.567606
      16.750000       0.529494       0.307797       0.567184
      16.760000       0.532722       0.307605       0.566639
      16.770000       0.535641       0.307601       0.566034
      16.780000       0.537929       0.307713       0.565433
      16.790000       0.539266       0.307875       0.564887
      16.800000       0.539378       0.308052       0.564423
      16.810000       0.538082       0.308244       0.564046
      16.820000       0.535330       0.308490       0.563737
      16.830000       0.531231       0.308846       0.563466
      16.840000       0.526051       0.309365       0.563202
      16.850000       0.520176       0.310076       0.562927
      16.860000       0.514055       0.310973       0.562639
      16.870000       0.508130       0.312016       0.562353
      16.880000       0.502770       0.313146       0.562096
      16.890000       0.498233       0.314304       0.561898
      16.900000       0.494656       0.315443       0.561786
      16.910000       0.492068       0.316538       0.561782
      16.920000       0.490425       0.317583       0.561900
      16.930000       0.489640       0.318589       0.562155
      16.940000       0.489613       0.319571       0.562567
      16.950000       0.490243       0.320551       0.563151
      16.960000       0.491440       0.321550       0.563923
      16.970000       0.493116       0.322597       0.564889
      16.980000       0.495185       0.323720       0.566042
      16.990000       0.497546       0.324944       0.567359
      17.000000       0.500094       0.326292       0.568806
      17.010000       0.502723       0.327778       0.570345
      17.020000       0.505345       0.329412       0.571943
      17.030000       0.507904       0.331206       0.573582
      17.040000       0.510382       0.333170       0.575263
      17.050000       0.512789       0.335311       0.577008
      17.060000       0.515159       0.337629       0.578849
      17.070000       0.517530       0.340109       0.580815
      17.080000       0.519932       0.342722       0.582922
      17.090000       0.522370       0.345429       0.585170
      17.100000       0.524815       0.348188       0.587533
      17.110000       0.527195       0.350960       0.589971
      17.120000       0.529395       0.353710       0.592438
      17.130000       0.531267       0.356411       0.594888
      17.140000       0.532647       0.359038       0.597282
      17.150000       0.533368       0.361565       0.599599
      17.160000       0.533281       0.363973       0.601828
      17.170000       0.532273       0.366242       0.603969
      17.180000       0.530281       0.368370       0.606027
      17.190000       0.527307       0.370366       0.608003
      17.200000       0.523429       0.372260       0.609892
      17.210000       0.518796       0.374092       0.611684
      17.220000       0.513612       0.375908       0.613365
      17.230000       0.508112       0.377747       0.614919
      17.240000       0.502540       0.379633       0.616340
      17.250000       0.497125       0.381581       0.617639
      17.260000       0.492076       0.383592       0.618839
      17.270000       0.487567       0.385661       0.619982
      17.280000       0.483729       0.387777       0.621118
      17.290000       0.480647       0.389924       0.622293
      17.300000       0.478349       0.392083       0.623545
      17.310000       0.476819       0.394232       0.624895
      17.320000       0.475999       0.396349       0.626349
      17.330000       0.475810       0.398415       0.627896
      17.340000       0.476162       0.400412       0.629513
      17.350000       0.476949       0.402325       0.631167
      17.360000       0.478048       0.404144       0.632823
      17.370000       0.479318       0.405862       0.634440
      17.380000       0.480611       0.407481       0.635977
      17.390000       0.481797       0.409010       0.637398
      17.400000       0.482784       0.410465       0.638671
      17.410000       0.483544       0.411869       0.639778
      17.420000       0.484117       0.413252       0.640720
      17.430000       0.484599       0.414645       0.641514
      17.440000       0.485115       0.416076       0.642197
      17.450000       0.485780       0.417569       0.642817
      17.460000       0.486675       0.419132       0.643421
      17.470000       0.487829       0.420760       0.644052
      17.480000       0.489231       0.422435       0.644740
      17.490000       0.490837       0.424135       0.645500
      17.500000       0.492596       0.425839       0.646340
      17.510000       0.494454       0.427535       0.647261
      17.520000       0.496353       0.429226       0.648262
      17.530000       0.498214       0.430919       0.649348
      17.540000       0.499932       0.432625       0.650525
      17.550000       0.501370       0.434353       0.651808
      17.560000       0.502375       0.436105       0.653214
      17.570000       0.502790       0.437876       0.654760
      17.580000       0.502486       0.439654       0.656455
      17.590000       0.501377       0.441426       0.658293
      17.600000       0.499447       0.443171       0.660255
      17.610000       0.496762       0.444871       0.662309
      17.620000       0.493475       0.446507       0.664416
      17.630000       0.489817       0.448061       0.666538
      17.640000       0.486069       0.449519       0.668641
      17.650000       0.482518       0.450866       0.670697
      17.660000       0.479412       0.452088       0.672690
      17.670000       0.476919       0.453170       0.674613
      17.680000       0.475116       0.454102       0.676470
      17.690000       0.473989       0.454878       0.678274
      17.700000       0.473464       0.455501       0.680044
      17.710000       0.473434       0.455982       0.681799
      17.720000       0.473789       0.456336       0.683555
      17.730000       0.474422       0.456577       0.685321
      17.740000       0.475241       0.456711       0.687097
      17.750000       0.476155       0.456739       0.688877
      17.760000       0.477076       0.456660       0.690650
      17.770000       0.477918       0.456475       0.692402
      17.780000       0.478602       0.456194       0.694122
      17.790000       0.479068       0.455841       0.695799
      17.800000       0.479281       0.455453       0.697426
      17.810000       0.479235       0.455075       0.698998
      17.820000       0.478957       0.454757       0.700517
      17.830000       0.478497       0.454549       0.701989
      17.840000       0.477916       0.454495       0.703424
      17.850000       0.477274       0.454627       0.704837
      17.860000       0.476613       0.454967       0.706240
      17.870000       0.475959       0.455521       0.707642
      17.880000       0.475326       0.456284       0.709052
      17.890000       0.474732       0.457243       0.710477
      17.900000       0.474211       0.458378       0.711924
      17.910000       0.473826       0.459669       0.713403
      17.920000       0.473659       0.461095       0.714925
      17.930000       0.473799       0.462633       0.716503
      17.940000       0.474325       0.464257       0.718148
      17.950000       0.475292       0.465940       0.719868
      17.960000       0.476721       0.467646       0.721666
      17.970000       0.478596       0.469343       0.723542
      17.980000       0.480873       0.471003       0.725489
      17.990000       0.483489       0.472607       0.727498
      18.000000       0.486378       0.474151       0.729557
      18.010000       0.489477       0.475640       0.731656
      18.020000       0.492746       0.477083       0.733786
      18.030000       0.496161       0.478491       0.735941
      18.040000       0.499711       0.479870       0.738115
      18.050000       0.503391       0.481224       0.740306
      18.060000       0.507180       0.482554       0.742509
      18.070000       0.511041       0.483862       0.744718
      18.080000       0.514915       0.485152       0.746922
      18.090000       0.518726       0.486434       0.749109
      18.100000       0.522392       0.487723       0.751266
      18.110000       0.525825       0.489035       0.753375
      18.120000       0.528939       0.490383       0.755420
      18.130000       0.531648       0.491776       0.757385
      18.140000       0.533872       0.493212       0.759256
      18.150000       0.535544       0.494681       0.761028
      18.160000       0.536618       0.496172       0.762704
      18.170000       0.537078       0.497672       0.764296
      18.180000       0.536946       0.499171       0.765828
      18.190000       0.536283       0.500657       0.767323
      18.200000       0.535178       0.502112       0.768803
      18.210000       0.533746       0.503509       0.770287
      18.220000       0.532109       0.504811       0.771785
      18.230000       0.530384       0.505977       0.773305
      18.240000       0.528668       0.506964       0.774856
      18.250000       0.527017       0.507741       0.776448
      18.260000       0.525441       0.508294       0.778094
      18.270000       0.523903       0.508630       0.779810
      18.280000       0.522333       0.508779       0.781611
      18.290000       0.520651       0.508785       0.783507
      18.300000       0.518789       0.508697       0.785505
      18.310000       0.516703       0.508562       0.787602
      18.320000       0.514379       0.508418       0.789786
      18.330000       0.511821       0.508293       0.792041
      18.340000       0.509046       0.508209       0.794350
      18.350000       0.506077       0.508193       0.796699
      18.360000       0.502949       0.508278       0.799079
      18.370000       0.499731       0.508508       0.801486
      18.380000       0.496537       0.508929       0.803922
      18.390000       0.493529       0.509579       0.806383
      18.400000       0.490896       0.510477       0.808863
      18.410000       0.488821       0.511606       0.811349
      18.420000       0.487434       0.512920       0.813822
      18.430000       0.486799       0.514343       0.816257
      18.440000       0.486905       0.515785       0.818631
      18.450000       0.487683       0.517155       0.820924
      18.460000       0.489032       0.518377       0.823124
      18.470000       0.490836       0.519396       0.825228
      18.480000       0.492987       0.520185       0.827237
      18.490000       0.495392       0.520743       0.829162
      18.500000       0.497976       0.521092       0.831017
      18.510000       0.500688       0.521276       0.832824
      18.520000       0.503494       0.521355       0.834608
      18.530000       0.506370       0.521398       0.836400
      18.540000       0.509300       0.521472       0.838227
      18.550000       0.512264       0.521628       0.840113
      18.560000       0.515238       0.521898       0.842073
      18.570000       0.518188       0.522282       0.844113
      18.580000       0.521077       0.522761       0.846226
      18.590000       0.523865       0.523292       0.848398
      18.600000       0.526512       0.523828       0.850609
      18.610000       0.528984       0.524317       0.852838
      18.620000       0.531253       0.524721       0.855063
      18.630000       0.533301       0.525021       0.857260
      18.640000       0.535122       0.525218       0.859409
      18.650000       0.536728       0.525337       0.861489
      18.660000       0.538153       0.525416       0.863488
      18.670000       0.539442       0.525497       0.865397
      18.680000       0.540656       0.525615       0.867224
      18.690000       0.541859       0.525789       0.868987
      18.700000       0.543116       0.526027       0.870716
      18.710000       0.544483       0.526321       0.872447
      18.720000       0.546005       0.526658       0.874212
      18.730000       0.547715       0.527013       0.876035
      18.740000       0.549631       0.527361       0.877920
      18.750000       0.551758       0.527673       0.879859
      18.760000       0.554086       0.527920       0.881827
      18.770000       0.556596       0.528080       0.883791
      18.780000       0.559260       0.528135       0.885714
      18.790000       0.562042       0.528082       0.887555
      18.800000       0.564901       0.527925       0.889280
      18.810000       0.567790       0.527684       0.890857
      18.820000       0.570660       0.527384       0.892268
      18.830000       0.573463       0.527062       0.893510
      18.840000       0.576149       0.526757       0.894600
      18.850000       0.578674       0.526504       0.895570
      18.860000       0.580992       0.526330       0.896457
      18.870000       0.583062       0.526250       0.897294
      18.880000       0.584842       0.526268       0.898105
      18.890000       0.586297       0.526378       0.898893
      18.900000       0.587397       0.526576       0.899648
      18.910000       0.588128       0.526863       0.900338
      18.920000       0.588493       0.527250       0.900918
      18.930000       0.588517       0.527755       0.901335
      18.940000       0.588243       0.528403       0.901535
      18.950000       0.587726       0.529220       0.901477
      18.960000       0.587010       0.530220       0.901142
      18.970000       0.586123       0.531405       0.900534
      18.980000       0.585064       0.532762       0.899678
      18.990000       0.583811       0.534263       0.898617
      19.000000       0.582332       0.535873       0.897402
      19.010000       0.580604       0.537554       0.896084
      19.020000       0.578635       0.539273       0.894717
      19.030000       0.576466       0.541004       0.893348
      19.040000       0.574178       0.542732       0.892023
      19.050000       0.571879       0.544443       0.890791
      19.060000       0.569685       0.546126       0.889704
      19.070000       0.567703       0.547770       0.888812
      19.080000       0.566017       0.549359       0.888158
      19.090000       0.564682       0.550875       0.887774
      19.100000       0.563723       0.552302       0.887670
      19.110000       0.563139       0.553625       0.887840
      19.120000       0.562909       0.554834       0.888258
      19.130000       0.562995       0.555922       0.888882
      19.140000       0.563346       0.556894       0.889652
      19.150000       0.563901       0.557762       0.890489
      19.160000       0.564589       0.558548       0.891289
      19.170000       0.565331       0.559283       0.891929
      19.180000       0.566050       0.559999       0.892269
      19.190000       0.566683       0.560727       0.892175
      19.200000       0.567190       0.561490       0.891543
      19.210000       0.567569       0.562301       0.890311
      19.220000       0.567855       0.563165       0.888478
      19.230000       0.568113       0.564075       0.886098
      19.240000       0.568420       0.565020       0.883270
      19.250000       0.568850       0.565988       0.880125
      19.260000       0.569455       0.566969       0.876812
      19.270000       0.570260       0.567959       0.873488
      19.280000       0.571270       0.568963       0.870308
      19.290000       0.572467       0.569990       0.867416
      19.300000       0.573825       0.571053       0.864936
      19.310000       0.575312       0.572156       0.862966
      19.320000       0.576894       0.573301       0.861572
      19.330000       0.578541       0.574481       0.860787
      19.340000       0.580227       0.575683       0.860608
      19.350000       0.581932       0.576892       0.860987
      19.360000       0.583637       0.578094       0.861836
      19.370000       0.585324       0.579269       0.863027
      19.380000       0.586976       0.580399       0.864410
      19.390000       0.588572       0.581466       0.865830
      19.400000       0.590095       0.582450       0.867152
      19.410000       0.591530       0.583333       0.868271
      19.420000       0.592864       0.584097       0.869117
      19.430000       0.594086       0.584726       0.869650
      19.440000       0.595184       0.585203       0.869853
      19.450000       0.596143       0.585510       0.869720
      19.460000       0.596957       0.585635       0.869251
      19.470000       0.597626       0.585570       0.868448
      19.480000       0.598166       0.585319       0.867317
      19.490000       0.598611       0.584898       0.865874
      19.500000       0.599006       0.584334       0.864151
      19.510000       0.599405       0.583668       0.862211
      19.520000       0.599857       0.582952       0.860150
      19.530000       0.600399       0.582244       0.858106
      19.540000       0.601049       0.581600       0.856244
      19.550000       0.601804       0.581069       0.854734
      19.560000       0.602642       0.580681       0.853725
      19.570000       0.603525       0.580444       0.853316
      19.580000       0.604407       0.580340       0.853540
      19.590000       0.605237       0.580335       0.854366
      19.600000       0.605972       0.580390       0.855707
      19.610000       0.606580       0.580473       0.857443
      19.620000       0.607042       0.580576       0.859432
      19.630000       0.607358       0.580705       0.861532
      19.640000       0.607537       0.580882       0.863600
      19.650000       0.607600       0.581129       0.865497
      19.660000       0.607578       0.581454       0.867084
      19.670000       0.607509       0.581851       0.868220
      19.680000       0.607437       0.582299       0.868765
      19.690000       0.607408       0.582763       0.868596
      19.700000       0.607460       0.583208       0.867629
      19.710000       0.607620       0.583598       0.865841
      19.720000       0.607898       0.583910       0.863280
      19.730000       0.608290       0.584132       0.860065
      19.740000       0.608781       0.584271       0.856366
      19.750000       0.609346       0.584344       0.852378
      19.760000       0.609959       0.584370       0.848296
      19.770000       0.610594       0.584366       0.844297
      19.780000       0.611231       0.584338       0.840522
      19.790000       0.611858       0.584289       0.837075
      19.800000       0.612471       0.584224       0.834018
      19.810000       0.613064       0.584161       0.831387
      19.820000       0.613628       0.584131       0.829197
      19.830000       0.614149       0.584171       0.827449
      19.840000       0.614606       0.584317       0.826133
      19.850000       0.614975       0.584598       0.825222
      19.860000       0.615238       0.585023       0.824669
      19.870000       0.615384       0.585586       0.824402
      19.880000       0.615412       0.586268       0.824325
      19.890000       0.615329       0.587034       0.824321
      19.900000       0.615147       0.587843       0.824268
      19.910000       0.614882       0.588653       0.824052
      19.920000       0.614549       0.589423       0.823590
      19.930000       0.614169       0.590121       0.822841
      19.940000       0.613769       0.590722       0.821812
      19.950000       0.613379       0.591214       0.820560
      19.960000       0.613033       0.591598       0.819184
      19.970000       0.612765       0.591882       0.817803
      19.980000       0.612603       0.592087       0.816545
      19.990000       0.612568       0.592235       0.815525
      20.000000       0.612672       0.592352       0.814838
