  # energy grid [eV]     epsi_x  epsi_y  epsi_z
       0.000000            NaN            NaN            NaN
       0.010000    2218.508635       0.000045       0.000134
       0.020000    1101.017458       0.000090       0.000269
       0.030000     725.038590       0.000135       0.000403
       0.040000     534.629029       0.000180       0.000538
       0.050000     418.646201       0.000225       0.000674
       0.060000     340.070255       0.000270       0.000810
       0.070000     283.049491       0.000315       0.000947
       0.080000     239.662038       0.000360       0.001085
       0.090000     205.503955       0.000405       0.001224
       0.100000     177.925596       0.000450       0.001364
       0.110000     155.231128       0.000495       0.001506
       0.120000     136.279334       0.000540       0.001649
       0.130000     120.269531       0.000585       0.001794
       0.140000     106.619884       0.000630       0.001941
       0.150000      94.894860       0.000675       0.002091
       0.160000      84.760171       0.000720       0.002242
       0.170000      75.953787       0.000766       0.002397
       0.180000      68.266667       0.000811       0.002554
       0.190000      61.529588       0.000856       0.002714
       0.200000      55.603880       0.000902       0.002877
       0.210000      50.374757       0.000947       0.003045
       0.220000      45.746394       0.000992       0.003216
       0.230000      41.638228       0.001038       0.003391
       0.240000      37.982116       0.001083       0.003572
       0.250000      34.720124       0.001129       0.003757
       0.260000      31.802772       0.001174       0.003948
       0.270000      29.187635       0.001220       0.004145
       0.280000      26.838208       0.001266       0.004349
       0.290000      24.722976       0.001311       0.004560
       0.300000      22.814655       0.001357       0.004779
       0.310000      21.089556       0.001403       0.005007
       0.320000      19.527058       0.001449       0.005243
       0.330000      18.109168       0.001495       0.005491
       0.340000      16.820152       0.001541       0.005749
       0.350000      15.646213       0.001587       0.006020
       0.360000      14.575233       0.001633       0.006304
       0.370000      13.596546       0.001680       0.006604
       0.380000      12.700741       0.001726       0.006920
       0.390000      11.879501       0.001772       0.007254
       0.400000      11.125462       0.001819       0.007609
       0.410000      10.432089       0.001865       0.007986
       0.420000       9.793575       0.001912       0.008388
       0.430000       9.204748       0.001959       0.008818
       0.440000       8.660996       0.002006       0.009280
       0.450000       8.158198       0.002053       0.009776
       0.460000       7.692665       0.002100       0.010311
       0.470000       7.261092       0.002147       0.010891
       0.480000       6.860510       0.002194       0.011520
       0.490000       6.488248       0.002241       0.012205
       0.500000       6.141903       0.002289       0.012954
       0.510000       5.819307       0.002336       0.013775
       0.520000       5.518499       0.002384       0.014679
       0.530000       5.237709       0.002432       0.015675
       0.540000       4.975330       0.002479       0.016778
       0.550000       4.729908       0.002527       0.018003
       0.560000       4.500119       0.002575       0.019365
       0.570000       4.284760       0.002624       0.020884
       0.580000       4.082737       0.002672       0.022580
       0.590000       3.893050       0.002720       0.024475
       0.600000       3.714788       0.002769       0.026591
       0.610000       3.547117       0.002818       0.028948
       0.620000       3.389276       0.002867       0.031563
       0.630000       3.240564       0.002916       0.034443
       0.640000       3.100343       0.002965       0.037579
       0.650000       2.968023       0.003014       0.040937
       0.660000       2.843065       0.003063       0.044450
       0.670000       2.724969       0.003113       0.048005
       0.680000       2.613279       0.003163       0.051438
       0.690000       2.507572       0.003213       0.054538
       0.700000       2.407459       0.003263       0.057067
       0.710000       2.312578       0.003313       0.058798
       0.720000       2.222598       0.003363       0.059560
       0.730000       2.137209       0.003414       0.059282
       0.740000       2.056128       0.003465       0.058012
       0.750000       1.979088       0.003515       0.055905
       0.760000       1.905845       0.003566       0.053181
       0.770000       1.836171       0.003618       0.050079
       0.780000       1.769853       0.003669       0.046819
       0.790000       1.706695       0.003721       0.043573
       0.800000       1.646512       0.003773       0.040465
       0.810000       1.589135       0.003825       0.037572
       0.820000       1.534403       0.003877       0.034933
       0.830000       1.482168       0.003929       0.032562
       0.840000       1.432291       0.003982       0.030453
       0.850000       1.384641       0.004035       0.028594
       0.860000       1.339099       0.004088       0.026963
       0.870000       1.295549       0.004141       0.025540
       0.880000       1.253885       0.004195       0.024304
       0.890000       1.214009       0.004248       0.023233
       0.900000       1.175826       0.004302       0.022310
       0.910000       1.139249       0.004356       0.021517
       0.920000       1.104195       0.004411       0.020840
       0.930000       1.070587       0.004466       0.020267
       0.940000       1.038353       0.004521       0.019786
       0.950000       1.007423       0.004576       0.019388
       0.960000       0.977734       0.004631       0.019065
       0.970000       0.949225       0.004687       0.018810
       0.980000       0.921839       0.004743       0.018617
       0.990000       0.895522       0.004799       0.018482
       1.000000       0.870223       0.004856       0.018400
       1.010000       0.845895       0.004913       0.018369
       1.020000       0.822492       0.004970       0.018385
       1.030000       0.799971       0.005027       0.018448
       1.040000       0.778292       0.005085       0.018556
       1.050000       0.757418       0.005143       0.018707
       1.060000       0.737311       0.005201       0.018902
       1.070000       0.717937       0.005260       0.019141
       1.080000       0.699265       0.005319       0.019425
       1.090000       0.681263       0.005378       0.019754
       1.100000       0.663902       0.005438       0.020132
       1.110000       0.647156       0.005498       0.020559
       1.120000       0.630997       0.005558       0.021038
       1.130000       0.615400       0.005619       0.021575
       1.140000       0.600343       0.005680       0.022171
       1.150000       0.585803       0.005742       0.022834
       1.160000       0.571759       0.005804       0.023567
       1.170000       0.558190       0.005866       0.024380
       1.180000       0.545077       0.005929       0.025279
       1.190000       0.532401       0.005992       0.026274
       1.200000       0.520147       0.006055       0.027376
       1.210000       0.508296       0.006119       0.028597
       1.220000       0.496833       0.006183       0.029953
       1.230000       0.485743       0.006248       0.031461
       1.240000       0.475012       0.006313       0.033140
       1.250000       0.464626       0.006379       0.035013
       1.260000       0.454572       0.006445       0.037106
       1.270000       0.444838       0.006512       0.039448
       1.280000       0.435411       0.006579       0.042073
       1.290000       0.426280       0.006647       0.045018
       1.300000       0.417436       0.006715       0.048323
       1.310000       0.408866       0.006783       0.052029
       1.320000       0.400562       0.006853       0.056178
       1.330000       0.392514       0.006922       0.060806
       1.340000       0.384713       0.006993       0.065938
       1.350000       0.377151       0.007063       0.071578
       1.360000       0.369818       0.007135       0.077695
       1.370000       0.362708       0.007207       0.084207
       1.380000       0.355813       0.007280       0.090966
       1.390000       0.349125       0.007353       0.097739
       1.400000       0.342638       0.007427       0.104211
       1.410000       0.336345       0.007501       0.109999
       1.420000       0.330239       0.007577       0.114695
       1.430000       0.324316       0.007652       0.117924
       1.440000       0.318568       0.007729       0.119413
       1.450000       0.312991       0.007806       0.119045
       1.460000       0.307579       0.007884       0.116878
       1.470000       0.302328       0.007963       0.113134
       1.480000       0.297231       0.008043       0.108149
       1.490000       0.292285       0.008123       0.102318
       1.500000       0.287485       0.008204       0.096029
       1.510000       0.282826       0.008286       0.089621
       1.520000       0.278306       0.008369       0.083359
       1.530000       0.273919       0.008453       0.077426
       1.540000       0.269663       0.008538       0.071935
       1.550000       0.265533       0.008623       0.066939
       1.560000       0.261526       0.008710       0.062450
       1.570000       0.257639       0.008797       0.058456
       1.580000       0.253869       0.008886       0.054926
       1.590000       0.250213       0.008975       0.051821
       1.600000       0.246667       0.009066       0.049102
       1.610000       0.243230       0.009157       0.046728
       1.620000       0.239899       0.009250       0.044662
       1.630000       0.236670       0.009344       0.042869
       1.640000       0.233543       0.009439       0.041320
       1.650000       0.230514       0.009535       0.039987
       1.660000       0.227582       0.009633       0.038847
       1.670000       0.224745       0.009732       0.037881
       1.680000       0.222000       0.009832       0.037070
       1.690000       0.219346       0.009933       0.036401
       1.700000       0.216782       0.010036       0.035862
       1.710000       0.214305       0.010140       0.035442
       1.720000       0.211915       0.010246       0.035132
       1.730000       0.209610       0.010354       0.034926
       1.740000       0.207388       0.010463       0.034819
       1.750000       0.205250       0.010573       0.034806
       1.760000       0.203193       0.010685       0.034884
       1.770000       0.201217       0.010800       0.035052
       1.780000       0.199321       0.010915       0.035310
       1.790000       0.197504       0.011033       0.035657
       1.800000       0.195767       0.011153       0.036096
       1.810000       0.194107       0.011275       0.036629
       1.820000       0.192526       0.011399       0.037259
       1.830000       0.191022       0.011525       0.037993
       1.840000       0.189596       0.011653       0.038836
       1.850000       0.188248       0.011783       0.039797
       1.860000       0.186978       0.011916       0.040884
       1.870000       0.185786       0.012052       0.042110
       1.880000       0.184673       0.012190       0.043487
       1.890000       0.183639       0.012331       0.045032
       1.900000       0.182686       0.012475       0.046763
       1.910000       0.181813       0.012621       0.048702
       1.920000       0.181023       0.012771       0.050873
       1.930000       0.180317       0.012924       0.053306
       1.940000       0.179696       0.013080       0.056033
       1.950000       0.179162       0.013239       0.059094
       1.960000       0.178717       0.013403       0.062530
       1.970000       0.178364       0.013570       0.066389
       1.980000       0.178105       0.013740       0.070724
       1.990000       0.177943       0.013916       0.075590
       2.000000       0.177882       0.014095       0.081041
       2.010000       0.177925       0.014279       0.087129
       2.020000       0.178076       0.014467       0.093892
       2.030000       0.178340       0.014661       0.101345
       2.040000       0.178722       0.014860       0.109468
       2.050000       0.179228       0.015064       0.118182
       2.060000       0.179864       0.015274       0.127337
       2.070000       0.180638       0.015490       0.136694
       2.080000       0.181556       0.015713       0.145925
       2.090000       0.182628       0.015942       0.154632
       2.100000       0.183863       0.016178       0.162382
       2.110000       0.185273       0.016422       0.168767
       2.120000       0.186869       0.016674       0.173455
       2.130000       0.188664       0.016934       0.176231
       2.140000       0.190675       0.017202       0.177015
       2.150000       0.192917       0.017481       0.175854
       2.160000       0.195410       0.017769       0.172894
       2.170000       0.198176       0.018068       0.168357
       2.180000       0.201238       0.018378       0.162509
       2.190000       0.204623       0.018700       0.155637
       2.200000       0.208362       0.019034       0.148037
       2.210000       0.212491       0.019383       0.140001
       2.220000       0.217048       0.019745       0.131801
       2.230000       0.222079       0.020124       0.123681
       2.240000       0.227635       0.020519       0.115844
       2.250000       0.233774       0.020932       0.108447
       2.260000       0.240565       0.021364       0.101595
       2.270000       0.248083       0.021816       0.095343
       2.280000       0.256418       0.022291       0.089712
       2.290000       0.265670       0.022790       0.084690
       2.300000       0.275957       0.023314       0.080249
       2.310000       0.287411       0.023867       0.076346
       2.320000       0.300185       0.024450       0.072938
       2.330000       0.314454       0.025066       0.069978
       2.340000       0.330414       0.025718       0.067422
       2.350000       0.348286       0.026409       0.065229
       2.360000       0.368313       0.027143       0.063364
       2.370000       0.390754       0.027924       0.061794
       2.380000       0.415880       0.028756       0.060492
       2.390000       0.443951       0.029644       0.059435
       2.400000       0.475185       0.030595       0.058602
       2.410000       0.509717       0.031614       0.057977
       2.420000       0.547525       0.032709       0.057548
       2.430000       0.588336       0.033888       0.057304
       2.440000       0.631514       0.035160       0.057238
       2.450000       0.675942       0.036537       0.057345
       2.460000       0.719943       0.038030       0.057621
       2.470000       0.761305       0.039653       0.058068
       2.480000       0.797462       0.041423       0.058686
       2.490000       0.825893       0.043357       0.059480
       2.500000       0.844650       0.045477       0.060458
       2.510000       0.852866       0.047806       0.061627
       2.520000       0.851031       0.050373       0.063002
       2.530000       0.840893       0.053209       0.064596
       2.540000       0.825053       0.056351       0.066428
       2.550000       0.806417       0.059839       0.068521
       2.560000       0.787733       0.063722       0.070900
       2.570000       0.771299       0.068049       0.073597
       2.580000       0.758874       0.072880       0.076648
       2.590000       0.751716       0.078274       0.080095
       2.600000       0.750678       0.084293       0.083984
       2.610000       0.756317       0.090995       0.088368
       2.620000       0.768976       0.098428       0.093308
       2.630000       0.788821       0.106616       0.098866
       2.640000       0.815840       0.115542       0.105106
       2.650000       0.849786       0.125130       0.112090
       2.660000       0.890082       0.135215       0.119871
       2.670000       0.935687       0.145523       0.128478
       2.680000       0.984956       0.155663       0.137907
       2.690000       1.035535       0.165135       0.148098
       2.700000       1.084343       0.173388       0.158918
       2.710000       1.127714       0.179907       0.170146
       2.720000       1.161725       0.184315       0.181467
       2.730000       1.182720       0.186461       0.192488
       2.740000       1.187938       0.186455       0.202776
       2.750000       1.176100       0.184645       0.211905
       2.760000       1.147736       0.181537       0.219518
       2.770000       1.105106       0.177713       0.225363
       2.780000       1.051695       0.173737       0.229312
       2.790000       0.991497       0.170100       0.231357
       2.800000       0.928326       0.167173       0.231586
       2.810000       0.865344       0.165194       0.230154
       2.820000       0.804869       0.164261       0.227255
       2.830000       0.748387       0.164332       0.223101
       2.840000       0.696697       0.165223       0.217901
       2.850000       0.650080       0.166615       0.211855
       2.860000       0.608466       0.168063       0.205145
       2.870000       0.571575       0.169047       0.197937
       2.880000       0.539014       0.169034       0.190374
       2.890000       0.510356       0.167585       0.182585
       2.900000       0.485192       0.164449       0.174684
       2.910000       0.463158       0.159614       0.166775
       2.920000       0.443946       0.153306       0.158957
       2.930000       0.427306       0.145913       0.151322
       2.940000       0.413033       0.137886       0.143961
       2.950000       0.400960       0.129657       0.136961
       2.960000       0.390944       0.121577       0.130402
       2.970000       0.382869       0.113898       0.124347
       2.980000       0.376637       0.106775       0.118843
       2.990000       0.372173       0.100288       0.113914
       3.000000       0.369423       0.094460       0.109564
       3.010000       0.368356       0.089278       0.105782
       3.020000       0.368964       0.084707       0.102544
       3.030000       0.371264       0.080700       0.099822
       3.040000       0.375298       0.077209       0.097583
       3.050000       0.381133       0.074185       0.095797
       3.060000       0.388867       0.071583       0.094433
       3.070000       0.398620       0.069364       0.093469
       3.080000       0.410541       0.067491       0.092884
       3.090000       0.424801       0.065935       0.092661
       3.100000       0.441591       0.064670       0.092792
       3.110000       0.461106       0.063676       0.093271
       3.120000       0.483531       0.062936       0.094098
       3.130000       0.509008       0.062438       0.095279
       3.140000       0.537592       0.062173       0.096825
       3.150000       0.569186       0.062135       0.098753
       3.160000       0.603463       0.062323       0.101086
       3.170000       0.639771       0.062740       0.103852
       3.180000       0.677059       0.063390       0.107089
       3.190000       0.713857       0.064282       0.110839
       3.200000       0.748361       0.065429       0.115153
       3.210000       0.778670       0.066847       0.120089
       3.220000       0.803161       0.068556       0.125712
       3.230000       0.820903       0.070578       0.132092
       3.240000       0.831951       0.072938       0.139299
       3.250000       0.837386       0.075663       0.147402
       3.260000       0.839075       0.078776       0.156457
       3.270000       0.839255       0.082298       0.166493
       3.280000       0.840099       0.086237       0.177498
       3.290000       0.843400       0.090581       0.189398
       3.300000       0.850382       0.095293       0.202036
       3.310000       0.861637       0.100295       0.215157
       3.320000       0.877147       0.105462       0.228409
       3.330000       0.896360       0.110623       0.241365
       3.340000       0.918339       0.115575       0.253563
       3.350000       0.941966       0.120113       0.264568
       3.360000       0.966189       0.124073       0.274020
       3.370000       0.990234       0.127382       0.281676
       3.380000       1.013665       0.130074       0.287420
       3.390000       1.036255       0.132289       0.291249
       3.400000       1.057671       0.134228       0.293250
       3.410000       1.077130       0.136100       0.293571
       3.420000       1.093171       0.138069       0.292395
       3.430000       1.103697       0.140220       0.289919
       3.440000       1.106336       0.142548       0.286338
       3.450000       1.099029       0.144952       0.281837
       3.460000       1.080643       0.147261       0.276589
       3.470000       1.051351       0.149249       0.270746
       3.480000       1.012607       0.150681       0.264446
       3.490000       0.966773       0.151351       0.257810
       3.500000       0.916583       0.151138       0.250944
       3.510000       0.864664       0.150045       0.243939
       3.520000       0.813229       0.148209       0.236875
       3.530000       0.763950       0.145871       0.229823
       3.540000       0.717965       0.143326       0.222843
       3.550000       0.675947       0.140858       0.215989
       3.560000       0.638202       0.138693       0.209307
       3.570000       0.604771       0.136969       0.202839
       3.580000       0.575512       0.135726       0.196625
       3.590000       0.550168       0.134899       0.190701
       3.600000       0.528418       0.134337       0.185104
       3.610000       0.509914       0.133823       0.179874
       3.620000       0.494306       0.133111       0.175053
       3.630000       0.481267       0.131973       0.170688
       3.640000       0.470513       0.130255       0.166827
       3.650000       0.461823       0.127908       0.163522
       3.660000       0.455043       0.125000       0.160821
       3.670000       0.450087       0.121685       0.158765
       3.680000       0.446924       0.118170       0.157390
       3.690000       0.445563       0.114659       0.156723
       3.700000       0.446038       0.111333       0.156784
       3.710000       0.448402       0.108328       0.157594
       3.720000       0.452720       0.105736       0.159174
       3.730000       0.459075       0.103612       0.161549
       3.740000       0.467567       0.101984       0.164753
       3.750000       0.478320       0.100863       0.168828
       3.760000       0.491487       0.100251       0.173825
       3.770000       0.507252       0.100142       0.179804
       3.780000       0.525832       0.100535       0.186831
       3.790000       0.547479       0.101427       0.194975
       3.800000       0.572475       0.102819       0.204297
       3.810000       0.601131       0.104712       0.214841
       3.820000       0.633769       0.107108       0.226617
       3.830000       0.670704       0.110005       0.239580
       3.840000       0.712212       0.113397       0.253606
       3.850000       0.758482       0.117266       0.268472
       3.860000       0.809558       0.121582       0.283846
       3.870000       0.865260       0.126303       0.299301
       3.880000       0.925090       0.131376       0.314344
       3.890000       0.988128       0.136737       0.328479
       3.900000       1.052939       0.142317       0.341263
       3.910000       1.117530       0.148033       0.352360
       3.920000       1.179415       0.153783       0.361564
       3.930000       1.235879       0.159449       0.368800
       3.940000       1.284437       0.164906       0.374101
       3.950000       1.323392       0.170052       0.377578
       3.960000       1.352309       0.174838       0.379392
       3.970000       1.372153       0.179298       0.379728
       3.980000       1.385033       0.183541       0.378774
       3.990000       1.393603       0.187717       0.376713
       4.000000       1.400381       0.191968       0.373713
       4.010000       1.407202       0.196377       0.369931
       4.020000       1.414951       0.200932       0.365511
       4.030000       1.423624       0.205526       0.360586
       4.040000       1.432631       0.209984       0.355281
       4.050000       1.441235       0.214113       0.349710
       4.060000       1.448937       0.217763       0.343979
       4.070000       1.455699       0.220879       0.338185
       4.080000       1.461914       0.223525       0.332414
       4.090000       1.468171       0.225868       0.326746
       4.100000       1.474897       0.228139       0.321250
       4.110000       1.481998       0.230559       0.315994
       4.120000       1.488613       0.233287       0.311038
       4.130000       1.493099       0.236381       0.306442
       4.140000       1.493289       0.239800       0.302260
       4.150000       1.487036       0.243426       0.298544
       4.160000       1.472858       0.247110       0.295342
       4.170000       1.450452       0.250709       0.292696
       4.180000       1.420848       0.254112       0.290641
       4.190000       1.386129       0.257248       0.289206
       4.200000       1.348872       0.260076       0.288413
       4.210000       1.311553       0.262570       0.288289
       4.220000       1.276097       0.264706       0.288869
       4.230000       1.243666       0.266441       0.290209
       4.240000       1.214661       0.267709       0.292402
       4.250000       1.188871       0.268431       0.295578
       4.260000       1.165699       0.268545       0.299899
       4.270000       1.144382       0.268043       0.305548
       4.280000       1.124163       0.266997       0.312705
       4.290000       1.104423       0.265565       0.321522
       4.300000       1.084787       0.263978       0.332103
       4.310000       1.065214       0.262514       0.344475
       4.320000       1.046035       0.261475       0.358569
       4.330000       1.027901       0.261145       0.374191
       4.340000       1.011618       0.261763       0.391016
       4.350000       0.997922       0.263486       0.408590
       4.360000       0.987271       0.266365       0.426360
       4.370000       0.979688       0.270325       0.443735
       4.380000       0.974720       0.275160       0.460157
       4.390000       0.971492       0.280549       0.475173
       4.400000       0.968866       0.286083       0.488478
       4.410000       0.965676       0.291331       0.499924
       4.420000       0.960990       0.295912       0.509503
       4.430000       0.954343       0.299587       0.517309
       4.440000       0.945862       0.302325       0.523495
       4.450000       0.936258       0.304324       0.528236
       4.460000       0.926675       0.305987       0.531709
       4.470000       0.918474       0.307839       0.534083
       4.480000       0.913008       0.310444       0.535520
       4.490000       0.911450       0.314316       0.536182
       4.500000       0.914706       0.319869       0.536237
       4.510000       0.923380       0.327386       0.535851
       4.520000       0.937775       0.336995       0.535183
       4.530000       0.957895       0.348655       0.534365
       4.540000       0.983457       0.362135       0.533492
       4.550000       1.013877       0.376993       0.532613
       4.560000       1.048269       0.392573       0.531741
       4.570000       1.085448       0.408041       0.530856
       4.580000       1.123943       0.422475       0.529928
       4.590000       1.162041       0.435014       0.528925
       4.600000       1.197888       0.445020       0.527834
       4.610000       1.229659       0.452198       0.526671
       4.620000       1.255808       0.456610       0.525488
       4.630000       1.275356       0.458584       0.524382
       4.640000       1.288136       0.458541       0.523496
       4.650000       1.294883       0.456832       0.523018
       4.660000       1.297083       0.453627       0.523175
       4.670000       1.296619       0.448896       0.524224
       4.680000       1.295314       0.442480       0.526430
       4.690000       1.294546       0.434219       0.530048
       4.700000       1.295049       0.424097       0.535299
       4.710000       1.296945       0.412333       0.542353
       4.720000       1.299985       0.399381       0.551303
       4.730000       1.303894       0.385863       0.562152
       4.740000       1.308670       0.372453       0.574788
       4.750000       1.314717       0.359781       0.588981
       4.760000       1.322732       0.348362       0.604376
       4.770000       1.333392       0.338575       0.620517
       4.780000       1.346975       0.330655       0.636885
       4.790000       1.363033       0.324715       0.652962
       4.800000       1.380240       0.320762       0.668292
       4.810000       1.396479       0.318725       0.682537
       4.820000       1.409196       0.318478       0.695491
       4.830000       1.415962       0.319863       0.707078
       4.840000       1.415116       0.322713       0.717324
       4.850000       1.406217       0.326860       0.726323
       4.860000       1.390140       0.332127       0.734206
       4.870000       1.368769       0.338299       0.741126
       4.880000       1.344436       0.345089       0.747238
       4.890000       1.319364       0.352110       0.752700
       4.900000       1.295294       0.358880       0.757666
       4.910000       1.273359       0.364865       0.762289
       4.920000       1.254172       0.369564       0.766717
       4.930000       1.238004       0.372598       0.771093
       4.940000       1.224970       0.373786       0.775542
       4.950000       1.215157       0.373178       0.780167
       4.960000       1.208663       0.371029       0.785040
       4.970000       1.205549       0.367742       0.790208
       4.980000       1.205753       0.363779       0.795703
       4.990000       1.208986       0.359590       0.801565
       5.000000       1.214685       0.355549       0.807852
       5.010000       1.222035       0.351943       0.814658
       5.020000       1.230059       0.348966       0.822113
       5.030000       1.237756       0.346743       0.830376
       5.040000       1.244246       0.345359       0.839637
       5.050000       1.248885       0.344885       0.850102
       5.060000       1.251358       0.345410       0.861976
       5.070000       1.251751       0.347057       0.875437
       5.080000       1.250570       0.349986       0.890599
       5.090000       1.248713       0.354368       0.907466
       5.100000       1.247359       0.360363       0.925905
       5.110000       1.247788       0.368080       0.945627
       5.120000       1.251186       0.377538       0.966208
       5.130000       1.258466       0.388645       0.987148
       5.140000       1.270151       0.401171       1.007948
       5.150000       1.286332       0.414749       1.028194
       5.160000       1.306690       0.428888       1.047623
       5.170000       1.330556       0.443017       1.066143
       5.180000       1.356996       0.456545       1.083830
       5.190000       1.384934       0.468931       1.100882
       5.200000       1.413287       0.479755       1.117589
       5.210000       1.441108       0.488773       1.134292
       5.220000       1.467694       0.495956       1.151367
       5.230000       1.492635       0.501525       1.169216
       5.240000       1.515797       0.505942       1.188263
       5.250000       1.537277       0.509867       1.208938
       5.260000       1.557377       0.514066       1.231666
       5.270000       1.576645       0.519293       1.256853
       5.280000       1.595960       0.526184       1.284880
       5.290000       1.616584       0.535177       1.316110
       5.300000       1.640103       0.546483       1.350906
       5.310000       1.668230       0.560087       1.389655
       5.320000       1.702521       0.575797       1.432794
       5.330000       1.744098       0.593308       1.480825
       5.340000       1.793435       0.612296       1.534308
       5.350000       1.850263       0.632481       1.593856
       5.360000       1.913592       0.653672       1.660101
       5.370000       1.981877       0.675752       1.733661
       5.380000       2.053292       0.698629       1.815108
       5.390000       2.126076       0.722163       1.904909
       5.400000       2.198819       0.746099       2.003372
       5.410000       2.270590       0.770013       2.110557
       5.420000       2.340877       0.793307       2.226156
       5.430000       2.409398       0.815256       2.349345
       5.440000       2.475944       0.835100       2.478607
       5.450000       2.540361       0.852133       2.611581
       5.460000       2.602696       0.865772       2.744998
       5.470000       2.663445       0.875578       2.874781
       5.480000       2.723752       0.881290       2.996389
       5.490000       2.785439       0.882882       3.105375
       5.500000       2.850794       0.880627       3.198064
       5.510000       2.922192       0.875114       3.272102
       5.520000       3.001679       0.867160       3.326731
       5.530000       3.090657       0.857671       3.362719
       5.540000       3.189679       0.847508       3.382078
       5.550000       3.298324       0.837435       3.387655
       5.560000       3.415077       0.828148       3.382662
       5.570000       3.537222       0.820346       3.370165
       5.580000       3.660835       0.814777       3.352592
       5.590000       3.780986       0.812214       3.331444
       5.600000       3.892207       0.813385       3.307327
       5.610000       3.989190       0.818875       3.280289
       5.620000       4.067539       0.829040       3.250295
       5.630000       4.124378       0.843948       3.217582
       5.640000       4.158647       0.863345       3.182751
       5.650000       4.171061       0.886640       3.146562
       5.660000       4.163816       0.912921       3.109600
       5.670000       4.140227       0.940995       3.072006
       5.680000       4.104407       0.969459       3.033432
       5.690000       4.060996       0.996844       2.993252
       5.700000       4.014849       1.021808       2.950919
       5.710000       3.970569       1.043394       2.906295
       5.720000       3.931929       1.061278       2.859797
       5.730000       3.901303       1.075894       2.812294
       5.740000       3.879310       1.088371       2.764834
       5.750000       3.864766       1.100288       2.718324
       5.760000       3.854978       1.113357       2.673298
       5.770000       3.846298       1.129157       2.629805
       5.780000       3.834836       1.148978       2.587388
       5.790000       3.817218       1.173774       2.545101
       5.800000       3.791233       1.204154       2.501580
       5.810000       3.756216       1.240362       2.455206
       5.820000       3.713048       1.282203       2.404431
       5.830000       3.663805       1.328952       2.348248
       5.840000       3.611208       1.379269       2.286647
       5.850000       3.558141       1.431193       2.220875
       5.860000       3.507383       1.482246       2.153337
       5.870000       3.461574       1.529652       2.087178
       5.880000       3.423239       1.570621       2.025725
       5.890000       3.394710       1.602643       1.971981
       5.900000       3.377899       1.623758       1.928308
       5.910000       3.373975       1.632804       1.896301
       5.920000       3.383079       1.629627       1.876795
       5.930000       3.404176       1.615208       1.869919
       5.940000       3.435064       1.591584       1.875151
       5.950000       3.472498       1.561539       1.891353
       5.960000       3.512371       1.528108       1.916779
       5.970000       3.549894       1.494065       1.949111
       5.980000       3.579800       1.461537       1.985542
       5.990000       3.596681       1.431822       2.022992
       6.000000       3.595527       1.405423       2.058459
       6.010000       3.572448       1.382260       2.089494
       6.020000       3.525410       1.361988       2.114670
       6.030000       3.454700       1.344348       2.133858
       6.040000       3.362948       1.329443       2.148181
       6.050000       3.254682       1.317860       2.159670
       6.060000       3.135619       1.310611       2.170748
       6.070000       3.011884       1.308947       2.183739
       6.080000       2.889327       1.314129       2.200521
       6.090000       2.773020       1.327229       2.222366
       6.100000       2.666975       1.349006       2.249974
       6.110000       2.574080       1.379840       2.283632
       6.120000       2.496186       1.419701       2.323439
       6.130000       2.434265       1.468130       2.369468
       6.140000       2.388553       1.524219       2.421798
       6.150000       2.358665       1.586584       2.480413
       6.160000       2.343682       1.653359       2.545029
       6.170000       2.342261       1.722221       2.614950
       6.180000       2.352770       1.790500       2.689016
       6.190000       2.373453       1.855370       2.765633
       6.200000       2.402563       1.914110       2.842863
       6.210000       2.438420       1.964401       2.918534
       6.220000       2.479372       2.004579       2.990370
       6.230000       2.523692       2.033774       3.056155
       6.240000       2.569480       2.051914       3.113938
       6.250000       2.614634       2.059603       3.162254
       6.260000       2.656892       2.057925       3.200274
       6.270000       2.693898       2.048202       3.227854
       6.280000       2.723258       2.031720       3.245454
       6.290000       2.742613       2.009457       3.253996
       6.300000       2.749766       1.981904       3.254684
       6.310000       2.742944       1.949045       3.248827
       6.320000       2.721144       1.910547       3.237678
       6.330000       2.684470       1.866094       3.222324
       6.340000       2.634288       1.815754       3.203683
       6.350000       2.573093       1.760254       3.182570
       6.360000       2.504102       1.701085       3.159778
       6.370000       2.430735       1.640386       3.136089
       6.380000       2.356196       1.580663       3.112215
       6.390000       2.283268       1.524428       3.088708
       6.400000       2.214290       1.473887       3.065910
       6.410000       2.151224       1.430736       3.043988
       6.420000       2.095713       1.396105       3.023045
       6.430000       2.049100       1.370594       3.003244
       6.440000       2.012433       1.354363       2.984852
       6.450000       1.986485       1.347234       2.968136
       6.460000       1.971787       1.348777       2.953148
       6.470000       1.968665       1.358373       2.939491
       6.480000       1.977270       1.375258       2.926202
       6.490000       1.997551       1.398540       2.911800
       6.500000       2.029186       1.427208       2.894493
       6.510000       2.071447       1.460159       2.872468
       6.520000       2.123042       1.496239       2.844220
       6.530000       2.181981       1.534312       2.808828
       6.540000       2.245541       1.573339       2.766151
       6.550000       2.310421       1.612419       2.716878
       6.560000       2.373133       1.650756       2.662400
       6.570000       2.430604       1.687565       2.604580
       6.580000       2.480810       1.721966       2.545472
       6.590000       2.523206       1.752948       2.487036
       6.600000       2.558729       1.779437       2.430872
       6.610000       2.589382       1.800451       2.377997
       6.620000       2.617550       1.815280       2.328732
       6.630000       2.645327       1.823637       2.282763
       6.640000       2.674055       1.825728       2.239380
       6.650000       2.704158       1.822239       2.197830
       6.660000       2.735206       1.814245       2.157640
       6.670000       2.766108       1.803073       2.118804
       6.680000       2.795316       1.790152       2.081735
       6.690000       2.820970       1.776874       2.047058
       6.700000       2.840991       1.764481       2.015328
       6.710000       2.853204       1.753978       1.986825
       6.720000       2.855538       1.746064       1.961486
       6.730000       2.846337       1.741092       1.938991
       6.740000       2.824736       1.739069       1.918946
       6.750000       2.790951       1.739715       1.901088
       6.760000       2.746342       1.742577       1.885441
       6.770000       2.693179       1.747135       1.872335
       6.780000       2.634156       1.752850       1.862284
       6.790000       2.571866       1.759144       1.855757
       6.800000       2.508424       1.765336       1.852931
       6.810000       2.445347       1.770588       1.853502
       6.820000       2.383639       1.773943       1.856627
       6.830000       2.324010       1.774474       1.860964
       6.840000       2.267109       1.771549       1.864789
       6.850000       2.213720       1.765106       1.866143
       6.860000       2.164863       1.755830       1.863035
       6.870000       2.121791       1.745115       1.853718
       6.880000       2.085880       1.734826       1.837027
       6.890000       2.058491       1.726958       1.812675
       6.900000       2.040840       1.723341       1.781395
       6.910000       2.033934       1.725448       1.744840
       6.920000       2.038539       1.734301       1.705288
       6.930000       2.055159       1.750382       1.665249
       6.940000       2.083991       1.773522       1.627095
       6.950000       2.124866       1.802776       1.592779
       6.960000       2.177178       1.836345       1.563629
       6.970000       2.239838       1.871643       1.540238
       6.980000       2.311276       1.905577       1.522406
       6.990000       2.389514       1.934998       1.509162
       7.000000       2.472277       1.957246       1.498878
       7.010000       2.557166       1.970582       1.489490
       7.020000       2.641828       1.974402       1.478822
       7.030000       2.724121       1.969180       1.464967
       7.040000       2.802211       1.956262       1.446627
       7.050000       2.874568       1.937604       1.423339
       7.060000       2.939896       1.915539       1.395524
       7.070000       2.997090       1.892548       1.364365
       7.080000       3.045310       1.871006       1.331559
       7.090000       3.084197       1.852922       1.299010
       7.100000       3.114121       1.839712       1.268541
       7.110000       3.136307       1.832045       1.241671
       7.120000       3.152740       1.829783       1.219490
       7.130000       3.165829       1.832027       1.202618
       7.140000       3.177948       1.837273       1.191248
       7.150000       3.191026       1.843686       1.185256
       7.160000       3.206305       1.849460       1.184332
       7.170000       3.224285       1.853159       1.188109
       7.180000       3.244781       1.853972       1.196237
       7.190000       3.266947       1.851796       1.208387
       7.200000       3.289221       1.847148       1.224160
       7.210000       3.309226       1.840945       1.242956
       7.220000       3.323802       1.834207       1.263817
       7.230000       3.329314       1.827775       1.285349
       7.240000       3.322287       1.822129       1.305749
       7.250000       3.300241       1.817389       1.322993
       7.260000       3.262433       1.813482       1.335136
       7.270000       3.210243       1.810427       1.340621
       7.280000       3.147035       1.808604       1.338510
       7.290000       3.077590       1.808889       1.328592
       7.300000       3.007297       1.812604       1.311368
       7.310000       2.941352       1.821285       1.287970
       7.320000       2.884096       1.836356       1.260021
       7.330000       2.838565       1.858792       1.229421
       7.340000       2.806259       1.888869       1.198092
       7.350000       2.787103       1.926052       1.167715
       7.360000       2.779580       1.969063       1.139537
       7.370000       2.781012       2.016129       1.114278
       7.380000       2.787958       2.065348       1.092156
       7.390000       2.796684       2.115045       1.073007
       7.400000       2.803631       2.163975       1.056467
       7.410000       2.805844       2.211248       1.042169
       7.420000       2.801293       2.256026       1.029892
       7.430000       2.789027       2.297149       1.019640
       7.440000       2.769142       2.332911       1.011625
       7.450000       2.742548       2.361135       1.006160
       7.460000       2.710650       2.379530       1.003508
       7.470000       2.675044       2.386201       1.003701
       7.480000       2.637301       2.380115       1.006399
       7.490000       2.598856       2.361413       1.010813
       7.500000       2.560933       2.331480       1.015748
       7.510000       2.524492       2.292806       1.019755
       7.520000       2.490169       2.248655       1.021388
       7.530000       2.458277       2.202618       1.019490
       7.540000       2.428866       2.158126       1.013432
       7.550000       2.401856       2.118020       1.003207
       7.560000       2.377181       2.084261       0.989378
       7.570000       2.354878       2.057810       0.972905
       7.580000       2.335133       2.038697       0.954921
       7.590000       2.318284       2.026208       0.936524
       7.600000       2.304827       2.019134       0.918648
       7.610000       2.295409       2.016000       0.902000
       7.620000       2.290799       2.015265       0.887072
       7.630000       2.291831       2.015488       0.874184
       7.640000       2.299363       2.015502       0.863538
       7.650000       2.314233       2.014580       0.855270
       7.660000       2.337216       2.012569       0.849500
       7.670000       2.368916       2.009918       0.846363
       7.680000       2.409597       2.007534       0.846013
       7.690000       2.458977       2.006496       0.848595
       7.700000       2.516056       2.007698       0.854172
       7.710000       2.579051       2.011574       0.862659
       7.720000       2.645469       2.018008       0.873772
       7.730000       2.712323       2.026470       0.887032
       7.740000       2.776471       2.036265       0.901812
       7.750000       2.835015       2.046773       0.917409
       7.760000       2.885687       2.057550       0.933105
       7.770000       2.927125       2.068287       0.948207
       7.780000       2.958931       2.078722       0.962075
       7.790000       2.981482       2.088614       0.974154
       7.800000       2.995554       2.097827       0.984014
       7.810000       3.001928       2.106459       0.991375
       7.820000       3.001141       2.114889       0.996099
       7.830000       2.993458       2.123685       0.998140
       7.840000       2.979000       2.133394       0.997490
       7.850000       2.957893       2.144349       0.994154
       7.860000       2.930361       2.156611       0.988180
       7.870000       2.896756       2.170069       0.979708
       7.880000       2.857601       2.184639       0.969008
       7.890000       2.813643       2.200434       0.956451
       7.900000       2.765904       2.217816       0.942434
       7.910000       2.715651       2.237348       0.927300
       7.920000       2.664333       2.259667       0.911280
       7.930000       2.613537       2.285319       0.894508
       7.940000       2.564959       2.314551       0.877059
       7.950000       2.520357       2.347063       0.859021
       7.960000       2.481389       2.381787       0.840547
       7.970000       2.449382       2.416827       0.821894
       7.980000       2.425079       2.449657       0.803416
       7.990000       2.408492       2.477607       0.785536
       8.000000       2.398885       2.498495       0.768702
       8.010000       2.394877       2.511192       0.753340
       8.020000       2.394618       2.515891       0.739826
       8.030000       2.396017       2.514010       0.728456
       8.040000       2.397006       2.507802       0.719431
       8.050000       2.395858       2.499840       0.712843
       8.060000       2.391491       2.492543       0.708656
       8.070000       2.383657       2.487845       0.706709
       8.080000       2.372917       2.487018       0.706721
       8.090000       2.360396       2.490635       0.708323
       8.100000       2.347405       2.498619       0.711100
       8.110000       2.335119       2.510336       0.714665
       8.120000       2.324426       2.524726       0.718725
       8.130000       2.315971       2.540458       0.723160
       8.140000       2.310323       2.556088       0.728052
       8.150000       2.308123       2.570198       0.733667
       8.160000       2.310133       2.581524       0.740382
       8.170000       2.317183       2.589086       0.748585
       8.180000       2.330066       2.592328       0.758585
       8.190000       2.349455       2.591267       0.770539
       8.200000       2.375835       2.586537       0.784403
       8.210000       2.409420       2.579273       0.799905
       8.220000       2.450046       2.570824       0.816537
       8.230000       2.497042       2.562400       0.833595
       8.240000       2.549110       2.554810       0.850245
       8.250000       2.604292       2.548371       0.865644
       8.260000       2.660032       2.542986       0.879067
       8.270000       2.713348       2.538298       0.890009
       8.280000       2.761108       2.533855       0.898248
       8.290000       2.800361       2.529249       0.903823
       8.300000       2.828732       2.524245       0.906968
       8.310000       2.844829       2.518919       0.908010
       8.320000       2.848599       2.513791       0.907292
       8.330000       2.841498       2.509886       0.905118
       8.340000       2.826409       2.508660       0.901728
       8.350000       2.807292       2.511773       0.897300
       8.360000       2.788656       2.520786       0.891968
       8.370000       2.774973       2.536860       0.885833
       8.380000       2.770170       2.560565       0.878977
       8.390000       2.777242       2.591801       0.871472
       8.400000       2.798039       2.629832       0.863390
       8.410000       2.833173       2.673400       0.854828
       8.420000       2.882021       2.720906       0.845937
       8.430000       2.942786       2.770635       0.836957
       8.440000       3.012596       2.821001       0.828232
       8.450000       3.087676       2.870757       0.820191
       8.460000       3.163614       2.919154       0.813275
       8.470000       3.235766       2.965989       0.807843
       8.480000       3.299794       3.011560       0.804068
       8.490000       3.352272       3.056507       0.801888
       8.500000       3.391181       3.101592       0.801016
       8.510000       3.416136       3.147429       0.800993
       8.520000       3.428231       3.194233       0.801277
       8.530000       3.429569       3.241592       0.801333
       8.540000       3.422689       3.288327       0.800705
       8.550000       3.410120       3.332463       0.799088
       8.560000       3.394160       3.371400       0.796394
       8.570000       3.376860       3.402327       0.792788
       8.580000       3.360071       3.422834       0.788685
       8.590000       3.345480       3.431600       0.784690
       8.600000       3.334591       3.428919       0.781481
       8.610000       3.328667       3.416868       0.779668
       8.620000       3.328662       3.399035       0.779674
       8.630000       3.335155       3.379879       0.781670
       8.640000       3.348307       3.363936       0.785588
       8.650000       3.367869       3.355082       0.791200
       8.660000       3.393248       3.356002       0.798235
       8.670000       3.423628       3.367906       0.806484
       8.680000       3.458121       3.390468       0.815854
       8.690000       3.495875       3.421981       0.826356
       8.700000       3.536138       3.459648       0.838033
       8.710000       3.578246       3.499979       0.850876
       8.720000       3.621565       3.539198       0.864747
       8.730000       3.665406       3.573655       0.879330
       8.740000       3.708909       3.600205       0.894125
       8.750000       3.750901       3.616538       0.908481
       8.760000       3.789773       3.621386       0.921697
       8.770000       3.823439       3.614538       0.933152
       8.780000       3.849491       3.596682       0.942446
       8.790000       3.865580       3.569141       0.949488
       8.800000       3.869929       3.533600       0.954510
       8.810000       3.861791       3.491894       0.957993
       8.820000       3.841657       3.445871       0.960563
       8.830000       3.811160       3.397308       0.962861
       8.840000       3.772780       3.347883       0.965439
       8.850000       3.729485       3.299173       0.968694
       8.860000       3.684399       3.252653       0.972852
       8.870000       3.640512       3.209649       0.977990
       8.880000       3.600461       3.171264       0.984088
       8.890000       3.566398       3.138304       0.991066
       8.900000       3.539965       3.111270       0.998812
       8.910000       3.522302       3.090451       1.007183
       8.920000       3.513993       3.076058       1.016009
       8.930000       3.514884       3.068308       1.025109
       8.940000       3.523826       3.067371       1.034310
       8.950000       3.538497       3.073158       1.043465
       8.960000       3.555424       3.085038       1.052431
       8.970000       3.570296       3.101567       1.061049
       8.980000       3.578499       3.120338       1.069125
       8.990000       3.575799       3.138025       1.076456
       9.000000       3.559027       3.150685       1.082890
       9.010000       3.526668       3.154301       1.088400
       9.020000       3.479214       3.145459       1.093125
       9.030000       3.419169       3.121958       1.097368
       9.040000       3.350658       3.083177       1.101531
       9.050000       3.278736       3.030111       1.106029
       9.060000       3.208585       2.965117       1.111209
       9.070000       3.144800       2.891483       1.117292
       9.080000       3.090925       2.812949       1.124362
       9.090000       3.049234       2.733287       1.132389
       9.100000       3.020735       2.656009       1.141284
       9.110000       3.005301       2.584193       1.150945
       9.120000       3.001878       2.520424       1.161300
       9.130000       3.008749       2.466788       1.172299
       9.140000       3.023838       2.424912       1.183893
       9.150000       3.045034       2.396003       1.195999
       9.160000       3.070484       2.380861       1.208508
       9.170000       3.098776       2.379850       1.221324
       9.180000       3.129014       2.392820       1.234438
       9.190000       3.160763       2.419010       1.247972
       9.200000       3.193882       2.456969       1.262183
       9.210000       3.228228       2.504527       1.277409
       9.220000       3.263278       2.558848       1.293990
       9.230000       3.297780       2.616597       1.312199
       9.240000       3.329594       2.674237       1.332196
       9.250000       3.355831       2.728425       1.354023
       9.260000       3.373322       2.776392       1.377615
       9.270000       3.379279       2.816194       1.402815
       9.280000       3.371948       2.846745       1.429374
       9.290000       3.351027       2.867658       1.456943
       9.300000       3.317702       2.879001       1.485088
       9.310000       3.274326       2.881089       1.513330
       9.320000       3.223883       2.874344       1.541218
       9.330000       3.169406       2.859244       1.568419
       9.340000       3.113550       2.836315       1.594780
       9.350000       3.058385       2.806175       1.620369
       9.360000       3.005431       2.769623       1.645474
       9.370000       2.955850       2.727743       1.670588
       9.380000       2.910623       2.681978       1.696357
       9.390000       2.870591       2.634102       1.723500
       9.400000       2.836304       2.586079       1.752699
       9.410000       2.807783       2.539856       1.784477
       9.420000       2.784344       2.497172       1.819102
       9.430000       2.764594       2.459424       1.856539
       9.440000       2.746619       2.427595       1.896485
       9.450000       2.728287       2.402182       1.938479
       9.460000       2.707578       2.383114       1.982077
       9.470000       2.682877       2.369676       2.027031
       9.480000       2.653186       2.360502       2.073402
       9.490000       2.618215       2.353685       2.121547
       9.500000       2.578312       2.347006       2.171991
       9.510000       2.534259       2.338272       2.225229
       9.520000       2.487033       2.325659       2.281583
       9.530000       2.437636       2.308004       2.341160
       9.540000       2.387052       2.284982       2.403950
       9.550000       2.336303       2.257164       2.470004
       9.560000       2.286502       2.225950       2.539596
       9.570000       2.238815       2.193369       2.613277
       9.580000       2.194300       2.161741       2.691782
       9.590000       2.153693       2.133250       2.775816
       9.600000       2.117204       2.109527       2.865840
       9.610000       2.084448       2.091355       2.961937
       9.620000       2.054526       2.078547       3.063807
       9.630000       2.026250       2.070023       3.170852
       9.640000       1.998431       2.064049       3.282313
       9.650000       1.970151       2.058570       3.397408
       9.660000       1.940927       2.051592       3.515468
       9.670000       1.910750       2.041528       3.636066
       9.680000       1.880000       2.027469       3.759137
       9.690000       1.849284       2.009310       3.885039
       9.700000       1.819264       1.987697       4.014563
       9.710000       1.790543       1.963824       4.148858
       9.720000       1.763656       1.939132       4.289337
       9.730000       1.739154       1.915021       4.437539
       9.740000       1.717710       1.892615       4.594955
       9.750000       1.700160       1.872639       4.762795
       9.760000       1.687439       1.855377       4.941662
       9.770000       1.680427       1.840714       5.131187
       9.780000       1.679786       1.828236       5.329649
       9.790000       1.685845       1.817365       5.533657
       9.800000       1.698537       1.807507       5.737997
       9.810000       1.717398       1.798168       5.935781
       9.820000       1.741580       1.789026       6.118981
       9.830000       1.769906       1.779916       6.279358
       9.840000       1.800935       1.770766       6.409620
       9.850000       1.833075       1.761500       6.504488
       9.860000       1.864693       1.751986       6.561400
       9.870000       1.894235       1.742057       6.580691
       9.880000       1.920337       1.731630       6.565252
       9.890000       1.941896       1.720847       6.519812
       9.900000       1.958125       1.710190       6.450025
       9.910000       1.968576       1.700494       6.361594
       9.920000       1.973145       1.692851       6.259613
       9.930000       1.972089       1.688449       6.148238
       9.940000       1.966005       1.688377       6.030651
       9.950000       1.955754       1.693476       5.909219
       9.960000       1.942316       1.704280       5.785714
       9.970000       1.926631       1.721034       5.661535
       9.980000       1.909500       1.743765       5.537882
       9.990000       1.891582       1.772310       5.415873
      10.000000       1.873476       1.806262       5.296596
      10.010000       1.855806       1.844822       5.181100
      10.020000       1.839272       1.886640       5.070348
      10.030000       1.824594       1.929751       4.965072
      10.040000       1.812395       1.971692       4.865533
      10.050000       1.803056       2.009784       4.771188
      10.060000       1.796624       2.041500       4.680443
      10.070000       1.792803       2.064826       4.590628
      10.080000       1.791042       2.078516       4.498324
      10.090000       1.790693       2.082236       4.400002
      10.100000       1.791184       2.076572       4.292820
      10.110000       1.792146       2.062897       4.175329
      10.120000       1.793402       2.043094       4.047874
      10.130000       1.794847       2.019196       3.912550
      10.140000       1.796250       1.993047       3.772763
      10.150000       1.797109       1.966113       3.632567
      10.160000       1.796606       1.939477       3.496011
      10.170000       1.793691       1.913976       3.366619
      10.180000       1.787244       1.890352       3.247083
      10.190000       1.776245       1.869327       3.139107
      10.200000       1.759938       1.851549       3.043376
      10.210000       1.737951       1.837433       2.959600
      10.220000       1.710384       1.826998       2.886610
      10.230000       1.677821       1.819768       2.822523
      10.240000       1.641247       1.814807       2.764964
      10.250000       1.601870       1.810834       2.711351
      10.260000       1.560914       1.806381       2.659226
      10.270000       1.519433       1.799920       2.606600
      10.280000       1.478231       1.789973       2.552230
      10.290000       1.437877       1.775260       2.495786
      10.300000       1.398801       1.754890       2.437841
      10.310000       1.361391       1.728542       2.379692
      10.320000       1.326060       1.696553       2.323060
      10.330000       1.293247       1.659863       2.269750
      10.340000       1.263385       1.619835       2.221363
      10.350000       1.236862       1.578066       2.179083
      10.360000       1.214015       1.536242       2.143582
      10.370000       1.195135       1.496055       2.115017
      10.380000       1.180454       1.459125       2.093108
      10.390000       1.170092       1.426898       2.077281
      10.400000       1.163972       1.400508       2.066805
      10.410000       1.161731       1.380647       2.060909
      10.420000       1.162681       1.367476       2.058815
      10.430000       1.165844       1.360598       2.059712
      10.440000       1.170083       1.359109       2.062692
      10.450000       1.174289       1.361734       2.066705
      10.460000       1.177591       1.367030       2.070564
      10.470000       1.179519       1.373621       2.073018
      10.480000       1.180064       1.380404       2.072901
      10.490000       1.179627       1.386647       2.069299
      10.500000       1.178872       1.391959       2.061712
      10.510000       1.178546       1.396166       2.050149
      10.520000       1.179328       1.399173       2.035133
      10.530000       1.181739       1.400899       2.017606
      10.540000       1.186114       1.401298       1.998782
      10.550000       1.192602       1.400423       1.979963
      10.560000       1.201157       1.398458       1.962376
      10.570000       1.211534       1.395677       1.947039
      10.580000       1.223284       1.392339       1.934674
      10.590000       1.235803       1.388596       1.925688
      10.600000       1.248410       1.384467       1.920203
      10.610000       1.260458       1.379882       1.918164
      10.620000       1.271411       1.374784       1.919457
      10.630000       1.280877       1.369229       1.924022
      10.640000       1.288575       1.363445       1.931927
      10.650000       1.294266       1.357830       1.943382
      10.660000       1.297706       1.352909       1.958681
      10.670000       1.298645       1.349275       1.978107
      10.680000       1.296888       1.347522       2.001784
      10.690000       1.292406       1.348173       2.029553
      10.700000       1.285426       1.351567       2.060875
      10.710000       1.276461       1.357721       2.094791
      10.720000       1.266249       1.366213       2.129952
      10.730000       1.255618       1.376133       2.164680
      10.740000       1.245331       1.386175       2.197070
      10.750000       1.235971       1.394839       2.225100
      10.760000       1.227887       1.400731       2.246780
      10.770000       1.221218       1.402841       2.260315
      10.780000       1.215960       1.400734       2.264288
      10.790000       1.212058       1.394558       2.257836
      10.800000       1.209493       1.384903       2.240796
      10.810000       1.208335       1.372568       2.213791
      10.820000       1.208746       1.358358       2.178220
      10.830000       1.210932       1.342980       2.136141
      10.840000       1.215040       1.327058       2.090028
      10.850000       1.221062       1.311187       2.042461
      10.860000       1.228767       1.295967       1.995809
      10.870000       1.237723       1.281949       1.951985
      10.880000       1.247402       1.269524       1.912321
      10.890000       1.257342       1.258811       1.877578
      10.900000       1.267274       1.249611       1.848058
      10.910000       1.277154       1.241486       1.823735
      10.920000       1.287087       1.233940       1.804375
      10.930000       1.297168       1.226612       1.789571
      10.940000       1.307346       1.219403       1.778724
      10.950000       1.317351       1.212453       1.770999
      10.960000       1.326741       1.205993       1.765314
      10.970000       1.335031       1.200158       1.760369
      10.980000       1.341867       1.194845       1.754746
      10.990000       1.347154       1.189685       1.747038
      11.000000       1.351069       1.184125       1.736009
      11.010000       1.353963       1.177588       1.720759
      11.020000       1.356186       1.169657       1.700847
      11.030000       1.357936       1.160234       1.676357
      11.040000       1.359186       1.149627       1.647870
      11.050000       1.359733       1.138540       1.616343
      11.060000       1.359302       1.127975       1.582945
      11.070000       1.357656       1.119070       1.548883
      11.080000       1.354621       1.112943       1.515261
      11.090000       1.350031       1.110559       1.482979
      11.100000       1.343618       1.112654       1.452687
      11.110000       1.334940       1.119718       1.424794
      11.120000       1.323405       1.132006       1.399537
      11.130000       1.308397       1.149542       1.377079
      11.140000       1.289463       1.172068       1.357589
      11.150000       1.266487       1.198947       1.341267
      11.160000       1.239785       1.229039       1.328290
      11.170000       1.210053       1.260610       1.318719
      11.180000       1.178194       1.291353       1.312420
      11.190000       1.145116       1.318568       1.309051
      11.200000       1.111565       1.339511       1.308126
      11.210000       1.078091       1.351859       1.309116
      11.220000       1.045090       1.354148       1.311531
      11.230000       1.012900       1.346022       1.314937
      11.240000       0.981881       1.328210       1.318921
      11.250000       0.952446       1.302238       1.323017
      11.260000       0.925058       1.270029       1.326655
      11.270000       0.900192       1.233520       1.329159
      11.280000       0.878292       1.194432       1.329787
      11.290000       0.859733       1.154186       1.327828
      11.300000       0.844807       1.113948       1.322703
      11.310000       0.833713       1.074717       1.314052
      11.320000       0.826570       1.037405       1.301764
      11.330000       0.823415       1.002850       1.285957
      11.340000       0.824196       0.971787       1.266931
      11.350000       0.828764       0.944774       1.245131
      11.360000       0.836867       0.922133       1.221126
      11.370000       0.848157       0.903920       1.195576
      11.380000       0.862206       0.889935       1.169178
      11.390000       0.878510       0.879792       1.142579
      11.400000       0.896481       0.873006       1.116295
      11.410000       0.915421       0.869100       1.090674
      11.420000       0.934519       0.867681       1.065894
      11.430000       0.952884       0.868485       1.042004
      11.440000       0.969640       0.871359       1.018961
      11.450000       0.984042       0.876225       0.996656
      11.460000       0.995575       0.883022       0.974942
      11.470000       1.003989       0.891639       0.953650
      11.480000       1.009251       0.901861       0.932620
      11.490000       1.011468       0.913301       0.911741
      11.500000       1.010823       0.925373       0.890974
      11.510000       1.007545       0.937318       0.870349
      11.520000       1.001919       0.948314       0.849961
      11.530000       0.994300       0.957639       0.829941
      11.540000       0.985109       0.964851       0.810444
      11.550000       0.974790       0.969913       0.791637
      11.560000       0.963774       0.973225       0.773686
      11.570000       0.952445       0.975558       0.756737
      11.580000       0.941143       0.977903       0.740896
      11.590000       0.930192       0.981277       0.726219
      11.600000       0.919929       0.986526       0.712706
      11.610000       0.910699       0.994142       0.700318
      11.620000       0.902819       1.004139       0.688996
      11.630000       0.896503       1.016003       0.678693
      11.640000       0.891783       1.028752       0.669403
      11.650000       0.888450       1.041097       0.661174
      11.660000       0.886037       1.051671       0.654114
      11.670000       0.883863       1.059280       0.648373
      11.680000       0.881136       1.063102       0.644121
      11.690000       0.877093       1.062800       0.641511
      11.700000       0.871164       1.058521       0.640643
      11.710000       0.863097       1.050801       0.641543
      11.720000       0.853030       1.040404       0.644141
      11.730000       0.841473       1.028133       0.648274
      11.740000       0.829213       1.014666       0.653688
      11.750000       0.817173       1.000459       0.660070
      11.760000       0.806251       0.985740       0.667087
      11.770000       0.797216       0.970582       0.674447
      11.780000       0.790633       0.955018       0.681950
      11.790000       0.786854       0.939139       0.689523
      11.800000       0.786023       0.923130       0.697230
      11.810000       0.788077       0.907226       0.705255
      11.820000       0.792761       0.891629       0.713863
      11.830000       0.799654       0.876429       0.723342
      11.840000       0.808233       0.861584       0.733951
      11.850000       0.817970       0.846969       0.745872
      11.860000       0.828441       0.832459       0.759179
      11.870000       0.839381       0.817995       0.773836
      11.880000       0.850679       0.803612       0.789716
      11.890000       0.862293       0.789416       0.806645
      11.900000       0.874139       0.775531       0.824439
      11.910000       0.886000       0.762060       0.842958
      11.920000       0.897506       0.749049       0.862119
      11.930000       0.908169       0.736494       0.881908
      11.940000       0.917484       0.724376       0.902366
      11.950000       0.925041       0.712718       0.923572
      11.960000       0.930637       0.701643       0.945637
      11.970000       0.934342       0.691402       0.968703
      11.980000       0.936527       0.682353       0.992941
      11.990000       0.937822       0.674898       1.018535
      12.000000       0.939012       0.669395       1.045653
      12.010000       0.940885       0.666075       1.074397
      12.020000       0.944068       0.664993       1.104755
      12.030000       0.948881       0.666010       1.136566
      12.040000       0.955265       0.668824       1.169505
      12.050000       0.962781       0.673024       1.203112
      12.060000       0.970702       0.678173       1.236839
      12.070000       0.978166       0.683900       1.270135
      12.080000       0.984365       0.689980       1.302530
      12.090000       0.988707       0.696385       1.333695
      12.100000       0.990918       0.703267       1.363459
      12.110000       0.991040       0.710883       1.391761
      12.120000       0.989353       0.719457       1.418569
      12.130000       0.986257       0.729051       1.443787
      12.140000       0.982161       0.739465       1.467206
      12.150000       0.977405       0.750221       1.488493
      12.160000       0.972218       0.760627       1.507231
      12.170000       0.966692       0.769911       1.522983
      12.180000       0.960762       0.777383       1.535369
      12.190000       0.954181       0.782576       1.544139
      12.200000       0.946536       0.785334       1.549217
      12.210000       0.937304       0.785830       1.550715
      12.220000       0.925961       0.784533       1.548917
      12.230000       0.912115       0.782137       1.544233
      12.240000       0.895636       0.779483       1.537150
      12.250000       0.876747       0.777479       1.528185
      12.260000       0.856042       0.777015       1.517877
      12.270000       0.834404       0.778887       1.506794
      12.280000       0.812865       0.783723       1.495574
      12.290000       0.792432       0.791921       1.484947
      12.300000       0.773939       0.803579       1.475741
      12.310000       0.757956       0.818438       1.468848
      12.320000       0.744759       0.835829       1.465155
      12.330000       0.734339       0.854651       1.465450
      12.340000       0.726451       0.873421       1.470342
      12.350000       0.720692       0.890418       1.480193
      12.360000       0.716583       0.903909       1.495091
      12.370000       0.713651       0.912427       1.514850
      12.380000       0.711491       0.915011       1.539029
      12.390000       0.709772       0.911346       1.566969
      12.400000       0.708232       0.901765       1.597816
      12.410000       0.706639       0.887124       1.630549
      12.420000       0.704772       0.868602       1.664023
      12.430000       0.702432       0.847493       1.697051
      12.440000       0.699479       0.825035       1.728521
      12.450000       0.695888       0.802286       1.757530
      12.460000       0.691785       0.780072       1.783474
      12.470000       0.687423       0.758967       1.806071
      12.480000       0.683125       0.739309       1.825296
      12.490000       0.679185       0.721246       1.841275
      12.500000       0.675804       0.704799       1.854195
      12.510000       0.673053       0.689925       1.864267
      12.520000       0.670888       0.676581       1.871755
      12.530000       0.669186       0.664743       1.877033
      12.540000       0.667790       0.654395       1.880623
      12.550000       0.666542       0.645491       1.883190
      12.560000       0.665307       0.637899       1.885500
      12.570000       0.663972       0.631360       1.888358
      12.580000       0.662425       0.625469       1.892514
      12.590000       0.660533       0.619704       1.898571
      12.600000       0.658123       0.613500       1.906881
      12.610000       0.655002       0.606351       1.917460
      12.620000       0.650990       0.597906       1.929930
      12.630000       0.645974       0.588022       1.943498
      12.640000       0.639943       0.576756       1.956984
      12.650000       0.632995       0.564318       1.968899
      12.660000       0.625308       0.550998       1.977601
      12.670000       0.617102       0.537127       1.981517
      12.680000       0.608603       0.523047       1.979429
      12.690000       0.600046       0.509107       1.970719
      12.700000       0.591685       0.495646       1.955505
      12.710000       0.583808       0.482970       1.934586
      12.720000       0.576727       0.471331       1.909222
      12.730000       0.570731       0.460907       1.880829
      12.740000       0.566029       0.451808       1.850698
      12.750000       0.562688       0.444104       1.819831
      12.760000       0.560602       0.437850       1.788889
      12.770000       0.559493       0.433122       1.758231
      12.780000       0.558955       0.430026       1.727987
      12.790000       0.558543       0.428697       1.698142
      12.800000       0.557879       0.429285       1.668630
      12.810000       0.556758       0.431929       1.639420
      12.820000       0.555217       0.436738       1.610589
      12.830000       0.553533       0.443772       1.582350
      12.840000       0.552175       0.453031       1.555030
      12.850000       0.551692       0.464442       1.528997
      12.860000       0.552607       0.477847       1.504583
      12.870000       0.555306       0.492992       1.482006
      12.880000       0.559970       0.509519       1.461334
      12.890000       0.566536       0.526960       1.442486
      12.900000       0.574684       0.544743       1.425282
      12.910000       0.583867       0.562233       1.409524
      12.920000       0.593367       0.578776       1.395078
      12.930000       0.602399       0.593787       1.381932
      12.940000       0.610239       0.606824       1.370202
      12.950000       0.616362       0.617663       1.360077
      12.960000       0.620540       0.626339       1.351737
      12.970000       0.622869       0.633142       1.345265
      12.980000       0.623705       0.638555       1.340575
      12.990000       0.623549       0.643158       1.337403
      13.000000       0.622903       0.647528       1.335325
      13.010000       0.622164       0.652159       1.333830
      13.020000       0.621561       0.657415       1.332377
      13.030000       0.621148       0.663519       1.330435
      13.040000       0.620833       0.670552       1.327490
      13.050000       0.620434       0.678448       1.323046
      13.060000       0.619738       0.686994       1.316638
      13.070000       0.618570       0.695839       1.307899
      13.080000       0.616852       0.704518       1.296655
      13.090000       0.614636       0.712471       1.283024
      13.100000       0.612109       0.719069       1.267453
      13.110000       0.609539       0.723632       1.250680
      13.120000       0.607182       0.725474       1.233608
      13.130000       0.605197       0.723977       1.217150
      13.140000       0.603583       0.718696       1.202081
      13.150000       0.602175       0.709462       1.188947
      13.160000       0.600700       0.696450       1.178023
      13.170000       0.598865       0.680167       1.169316
      13.180000       0.596473       0.661381       1.162604
      13.190000       0.593496       0.640982       1.157505
      13.200000       0.590113       0.619845       1.153559
      13.210000       0.586680       0.598720       1.150321
      13.220000       0.583634       0.578191       1.147421
      13.230000       0.581384       0.558685       1.144611
      13.240000       0.580219       0.540511       1.141762
      13.250000       0.580249       0.523912       1.138848
      13.260000       0.581420       0.509083       1.135916
      13.270000       0.583563       0.496183       1.133070
      13.280000       0.586471       0.485327       1.130464
      13.290000       0.589975       0.476579       1.128308
      13.300000       0.593996       0.469949       1.126868
      13.310000       0.598557       0.465387       1.126445
      13.320000       0.603760       0.462778       1.127326
      13.330000       0.609720       0.461943       1.129709
      13.340000       0.616488       0.462643       1.133629
      13.350000       0.623980       0.464587       1.138904
      13.360000       0.631945       0.467452       1.145126
      13.370000       0.639967       0.470904       1.151695
      13.380000       0.647516       0.474625       1.157885
      13.390000       0.654014       0.478333       1.162935
      13.400000       0.658914       0.481796       1.166149
      13.410000       0.661750       0.484831       1.166967
      13.420000       0.662170       0.487307       1.165018
      13.430000       0.659962       0.489143       1.160121
      13.440000       0.655054       0.490321       1.152262
      13.450000       0.647516       0.490900       1.141551
      13.460000       0.637547       0.491009       1.128182
      13.470000       0.625443       0.490838       1.112400
      13.480000       0.611580       0.490590       1.094499
      13.490000       0.596385       0.490431       1.074829
      13.500000       0.580314       0.490442       1.053805
      13.510000       0.563817       0.490590       1.031907
      13.520000       0.547309       0.490745       1.009646
      13.530000       0.531156       0.490732       0.987535
      13.540000       0.515679       0.490407       0.966044
      13.550000       0.501174       0.489724       0.945580
      13.560000       0.487922       0.488771       0.926476
      13.570000       0.476167       0.487750       0.908984
      13.580000       0.466086       0.486920       0.893266
      13.590000       0.457748       0.486522       0.879378
      13.600000       0.451088       0.486707       0.867268
      13.610000       0.445904       0.487490       0.856762
      13.620000       0.441885       0.488734       0.847585
      13.630000       0.438646       0.490176       0.839376
      13.640000       0.435784       0.491481       0.831733
      13.650000       0.432937       0.492330       0.824258
      13.660000       0.429827       0.492510       0.816626
      13.670000       0.426292       0.491981       0.808647
      13.680000       0.422293       0.490893       0.800323
      13.690000       0.417879       0.489551       0.791851
      13.700000       0.413142       0.488340       0.783590
      13.710000       0.408169       0.487634       0.775975
      13.720000       0.403012       0.487706       0.769436
      13.730000       0.397695       0.488675       0.764319
      13.740000       0.392231       0.490487       0.760844
      13.750000       0.386657       0.492940       0.759084
      13.760000       0.381045       0.495744       0.758967
      13.770000       0.375503       0.498590       0.760283
      13.780000       0.370143       0.501221       0.762693
      13.790000       0.365054       0.503473       0.765748
      13.800000       0.360278       0.505285       0.768924
      13.810000       0.355807       0.506688       0.771665
      13.820000       0.351602       0.507789       0.773458
      13.830000       0.347617       0.508739       0.773903
      13.840000       0.343824       0.509710       0.772794
      13.850000       0.340223       0.510874       0.770149
      13.860000       0.336852       0.512385       0.766203
      13.870000       0.333775       0.514367       0.761335
      13.880000       0.331085       0.516900       0.755969
      13.890000       0.328887       0.520016       0.750474
      13.900000       0.327294       0.523702       0.745105
      13.910000       0.326416       0.527916       0.739983
      13.920000       0.326349       0.532605       0.735116
      13.930000       0.327166       0.537708       0.730439
      13.940000       0.328896       0.543155       0.725858
      13.950000       0.331510       0.548847       0.721278
      13.960000       0.334914       0.554648       0.716638
      13.970000       0.338949       0.560387       0.711918
      13.980000       0.343402       0.565853       0.707163
      13.990000       0.348025       0.570803       0.702479
      14.000000       0.352564       0.574960       0.698029
      14.010000       0.356797       0.578039       0.694017
      14.020000       0.360582       0.579790       0.690674
      14.030000       0.363901       0.580070       0.688246
      14.040000       0.366872       0.578895       0.686987
      14.050000       0.369730       0.576455       0.687146
      14.060000       0.372771       0.573065       0.688954
      14.070000       0.376278       0.569083       0.692591
      14.080000       0.380454       0.564828       0.698163
      14.090000       0.385382       0.560519       0.705680
      14.100000       0.391010       0.556269       0.715058
      14.110000       0.397167       0.552104       0.726127
      14.120000       0.403591       0.548005       0.738671
      14.130000       0.409971       0.543937       0.752476
      14.140000       0.415984       0.539868       0.767368
      14.150000       0.421329       0.535761       0.783234
      14.160000       0.425735       0.531560       0.799988
      14.170000       0.428962       0.527183       0.817512
      14.180000       0.430796       0.522540       0.835591
      14.190000       0.431040       0.517565       0.853873
      14.200000       0.429535       0.512252       0.871874
      14.210000       0.426199       0.506671       0.889034
      14.220000       0.421077       0.500957       0.904798
      14.230000       0.414373       0.495287       0.918682
      14.240000       0.406441       0.489838       0.930325
      14.250000       0.397747       0.484754       0.939487
      14.260000       0.388801       0.480142       0.946031
      14.270000       0.380093       0.476093       0.949906
      14.280000       0.372045       0.472719       0.951132
      14.290000       0.364980       0.470188       0.949799
      14.300000       0.359109       0.468714       0.946082
      14.310000       0.354518       0.468519       0.940250
      14.320000       0.351180       0.469772       0.932646
      14.330000       0.348968       0.472533       0.923654
      14.340000       0.347688       0.476718       0.913654
      14.350000       0.347129       0.482097       0.902984
      14.360000       0.347104       0.488329       0.891938
      14.370000       0.347489       0.495000       0.880773
      14.380000       0.348224       0.501681       0.869724
      14.390000       0.349289       0.507965       0.859002
      14.400000       0.350664       0.513486       0.848781
      14.410000       0.352297       0.517931       0.839185
      14.420000       0.354090       0.521058       0.830275
      14.430000       0.355917       0.522710       0.822054
      14.440000       0.357652       0.522860       0.814480
      14.450000       0.359194       0.521622       0.807473
      14.460000       0.360477       0.519249       0.800934
      14.470000       0.361482       0.516090       0.794745
      14.480000       0.362236       0.512530       0.788767
      14.490000       0.362832       0.508932       0.782841
      14.500000       0.363434       0.505602       0.776789
      14.510000       0.364264       0.502764       0.770433
      14.520000       0.365565       0.500548       0.763632
      14.530000       0.367547       0.498986       0.756319
      14.540000       0.370336       0.498012       0.748527
      14.550000       0.373945       0.497498       0.740394
      14.560000       0.378280       0.497296       0.732144
      14.570000       0.383170       0.497293       0.724045
      14.580000       0.388422       0.497443       0.716355
      14.590000       0.393859       0.497765       0.709266
      14.600000       0.399344       0.498319       0.702871
      14.610000       0.404777       0.499163       0.697145
      14.620000       0.410067       0.500314       0.691972
      14.630000       0.415101       0.501731       0.687177
      14.640000       0.419738       0.503328       0.682590
      14.650000       0.423813       0.504998       0.678090
      14.660000       0.427164       0.506652       0.673645
      14.670000       0.429656       0.508254       0.669313
      14.680000       0.431183       0.509820       0.665209
      14.690000       0.431654       0.511405       0.661454
      14.700000       0.430975       0.513069       0.658122
      14.710000       0.429045       0.514849       0.655200
      14.720000       0.425769       0.516753       0.652581
      14.730000       0.421102       0.518773       0.650094
      14.740000       0.415088       0.520914       0.647541
      14.750000       0.407895       0.523204       0.644749
      14.760000       0.399815       0.525671       0.641596
      14.770000       0.391238       0.528296       0.638013
      14.780000       0.382596       0.530953       0.633978
      14.790000       0.374287       0.533365       0.629494
      14.800000       0.366604       0.535111       0.624577
      14.810000       0.359696       0.535678       0.619251
      14.820000       0.353555       0.534570       0.613550
      14.830000       0.348045       0.531415       0.607513
      14.840000       0.342946       0.526051       0.601183
      14.850000       0.338011       0.518541       0.594605
      14.860000       0.333020       0.509142       0.587833
      14.870000       0.327826       0.498256       0.580948
      14.880000       0.322386       0.486386       0.574083
      14.890000       0.316766       0.474094       0.567421
      14.900000       0.311134       0.461972       0.561180
      14.910000       0.305722       0.450592       0.555575
      14.920000       0.300786       0.440459       0.550782
      14.930000       0.296564       0.431965       0.546916
      14.940000       0.293248       0.425355       0.544038
      14.950000       0.290958       0.420711       0.542183
      14.960000       0.289740       0.417951       0.541385
      14.970000       0.289556       0.416856       0.541684
      14.980000       0.290289       0.417106       0.543116
      14.990000       0.291755       0.418328       0.545681
      15.000000       0.293711       0.420140       0.549310
      15.010000       0.295883       0.422172       0.553849
      15.020000       0.297983       0.424069       0.559058
      15.030000       0.299742       0.425484       0.564636
      15.040000       0.300932       0.426084       0.570247
      15.050000       0.301388       0.425570       0.575544
      15.060000       0.301025       0.423727       0.580187
      15.070000       0.299835       0.420478       0.583850
      15.080000       0.297877       0.415921       0.586237
      15.090000       0.295262       0.410335       0.587099
      15.100000       0.292134       0.404144       0.586244
      15.110000       0.288663       0.397851       0.583546
      15.120000       0.285026       0.391951       0.578948
      15.130000       0.281393       0.386866       0.572464
      15.140000       0.277907       0.382891       0.564193
      15.150000       0.274670       0.380182       0.554338
      15.160000       0.271732       0.378756       0.543221
      15.170000       0.269093       0.378516       0.531276
      15.180000       0.266718       0.379275       0.519010
      15.190000       0.264562       0.380781       0.506945
      15.200000       0.262586       0.382743       0.495558
      15.210000       0.260773       0.384862       0.485237
      15.220000       0.259132       0.386874       0.476259
      15.230000       0.257695       0.388600       0.468797
      15.240000       0.256497       0.389993       0.462936
      15.250000       0.255562       0.391153       0.458685
      15.260000       0.254891       0.392306       0.455989
      15.270000       0.254444       0.393738       0.454727
      15.280000       0.254145       0.395726       0.454718
      15.290000       0.253883       0.398466       0.455723
      15.300000       0.253529       0.402035       0.457465
      15.310000       0.252956       0.406377       0.459656
      15.320000       0.252056       0.411320       0.462033
      15.330000       0.250771       0.416608       0.464385
      15.340000       0.249112       0.421941       0.466559
      15.350000       0.247153       0.427013       0.468463
      15.360000       0.245025       0.431554       0.470037
      15.370000       0.242878       0.435375       0.471231
      15.380000       0.240865       0.438391       0.471999
      15.390000       0.239124       0.440633       0.472295
      15.400000       0.237769       0.442219       0.472102
      15.410000       0.236894       0.443297       0.471444
      15.420000       0.236566       0.443973       0.470395
      15.430000       0.236827       0.444254       0.469062
      15.440000       0.237684       0.444012       0.467561
      15.450000       0.239106       0.442992       0.465988
      15.460000       0.241020       0.440853       0.464396
      15.470000       0.243319       0.437258       0.462786
      15.480000       0.245863       0.431968       0.461107
      15.490000       0.248499       0.424931       0.459263
      15.500000       0.251078       0.416313       0.457140
      15.510000       0.253460       0.406493       0.454618
      15.520000       0.255533       0.395990       0.451598
      15.530000       0.257219       0.385383       0.448016
      15.540000       0.258481       0.375238       0.443850
      15.550000       0.259325       0.366039       0.439121
      15.560000       0.259803       0.358159       0.433889
      15.570000       0.260006       0.351833       0.428243
      15.580000       0.260045       0.347151       0.422288
      15.590000       0.260039       0.344059       0.416139
      15.600000       0.260098       0.342365       0.409906
      15.610000       0.260305       0.341772       0.403695
      15.620000       0.260714       0.341911       0.397612
      15.630000       0.261337       0.342395       0.391761
      15.640000       0.262144       0.342873       0.386245
      15.650000       0.263066       0.343072       0.381165
      15.660000       0.263998       0.342816       0.376610
      15.670000       0.264821       0.342027       0.372645
      15.680000       0.265432       0.340707       0.369302
      15.690000       0.265769       0.338914       0.366577
      15.700000       0.265839       0.336750       0.364424
      15.710000       0.265714       0.334342       0.362767
      15.720000       0.265518       0.331834       0.361508
      15.730000       0.265390       0.329368       0.360548
      15.740000       0.265453       0.327077       0.359799
      15.750000       0.265793       0.325082       0.359193
      15.760000       0.266452       0.323499       0.358682
      15.770000       0.267433       0.322433       0.358232
      15.780000       0.268707       0.321981       0.357809
      15.790000       0.270222       0.322218       0.357366
      15.800000       0.271913       0.323184       0.356826
      15.810000       0.273706       0.324872       0.356071
      15.820000       0.275530       0.327224       0.354946
      15.830000       0.277329       0.330136       0.353269
      15.840000       0.279062       0.333460       0.350858
      15.850000       0.280708       0.337021       0.347569
      15.860000       0.282251       0.340621       0.343327
      15.870000       0.283673       0.344062       0.338156
      15.880000       0.284956       0.347166       0.332178
      15.890000       0.286082       0.349806       0.325598
      15.900000       0.287049       0.351936       0.318666
      15.910000       0.287875       0.353593       0.311642
      15.920000       0.288607       0.354874       0.304759
      15.930000       0.289312       0.355893       0.298208
      15.940000       0.290065       0.356733       0.292130
      15.950000       0.290930       0.357424       0.286620
      15.960000       0.291938       0.357939       0.281729
      15.970000       0.293085       0.358217       0.277477
      15.980000       0.294334       0.358187       0.273855
      15.990000       0.295626       0.357788       0.270834
      16.000000       0.296894       0.356967       0.268371
      16.010000       0.298066       0.355670       0.266418
      16.020000       0.299053       0.353840       0.264928
      16.030000       0.299744       0.351416       0.263871
      16.040000       0.299988       0.348352       0.263236
      16.050000       0.299611       0.344644       0.263038
      16.060000       0.298438       0.340349       0.263308
      16.070000       0.296327       0.335587       0.264087
      16.080000       0.293201       0.330517       0.265414
      16.090000       0.289064       0.325306       0.267314
      16.100000       0.284002       0.320104       0.269793
      16.110000       0.278161       0.315026       0.272843
      16.120000       0.271729       0.310161       0.276431
      16.130000       0.264911       0.305592       0.280497
      16.140000       0.257909       0.301413       0.284937
      16.150000       0.250919       0.297736       0.289588
      16.160000       0.244118       0.294681       0.294232
      16.170000       0.237661       0.292360       0.298607
      16.180000       0.231674       0.290860       0.302452
      16.190000       0.226253       0.290226       0.305534
      16.200000       0.221457       0.290449       0.307680
      16.210000       0.217311       0.291461       0.308787
      16.220000       0.213807       0.293135       0.308807
      16.230000       0.210906       0.295278       0.307742
      16.240000       0.208547       0.297639       0.305626
      16.250000       0.206645       0.299914       0.302532
      16.260000       0.205108       0.301774       0.298571
      16.270000       0.203843       0.302912       0.293896
      16.280000       0.202766       0.303100       0.288703
      16.290000       0.201819       0.302239       0.283216
      16.300000       0.200967       0.300382       0.277669
      16.310000       0.200200       0.297731       0.272284
      16.320000       0.199522       0.294597       0.267245
      16.330000       0.198933       0.291347       0.262685
      16.340000       0.198419       0.288340       0.258678
      16.350000       0.197948       0.285873       0.255247
      16.360000       0.197476       0.284146       0.252370
      16.370000       0.196967       0.283244       0.249996
      16.380000       0.196407       0.283139       0.248058
      16.390000       0.195816       0.283711       0.246483
      16.400000       0.195243       0.284777       0.245198
      16.410000       0.194750       0.286131       0.244144
      16.420000       0.194392       0.287582       0.243285
      16.430000       0.194207       0.288972       0.242616
      16.440000       0.194193       0.290185       0.242168
      16.450000       0.194315       0.291135       0.242004
      16.460000       0.194504       0.291742       0.242209
      16.470000       0.194675       0.291927       0.242874
      16.480000       0.194748       0.291612       0.244083
      16.490000       0.194658       0.290737       0.245898
      16.500000       0.194358       0.289288       0.248353
      16.510000       0.193811       0.287306       0.251451
      16.520000       0.192988       0.284886       0.255164
      16.530000       0.191865       0.282161       0.259439
      16.540000       0.190427       0.279264       0.264199
      16.550000       0.188677       0.276300       0.269348
      16.560000       0.186635       0.273321       0.274771
      16.570000       0.184334       0.270325       0.280341
      16.580000       0.181813       0.267273       0.285916
      16.590000       0.179114       0.264124       0.291356
      16.600000       0.176278       0.260870       0.296532
      16.610000       0.173352       0.257567       0.301339
      16.620000       0.170394       0.254344       0.305707
      16.630000       0.167478       0.251379       0.309602
      16.640000       0.164693       0.248866       0.313013
      16.650000       0.162135       0.246962       0.315936
      16.660000       0.159898       0.245758       0.318349
      16.670000       0.158060       0.245259       0.320194
      16.680000       0.156669       0.245385       0.321379
      16.690000       0.155741       0.245997       0.321789
      16.700000       0.155257       0.246933       0.321303
      16.710000       0.155179       0.248044       0.319818
      16.720000       0.155456       0.249226       0.317267
      16.730000       0.156043       0.250424       0.313634
      16.740000       0.156903       0.251631       0.308972
      16.750000       0.158004       0.252869       0.303401
      16.760000       0.159314       0.254169       0.297107
      16.770000       0.160794       0.255554       0.290316
      16.780000       0.162388       0.257027       0.283279
      16.790000       0.164027       0.258569       0.276241
      16.800000       0.165625       0.260137       0.269428
      16.810000       0.167083       0.261664       0.263036
      16.820000       0.168300       0.263075       0.257225
      16.830000       0.169184       0.264289       0.252118
      16.840000       0.169669       0.265241       0.247796
      16.850000       0.169726       0.265885       0.244299
      16.860000       0.169371       0.266200       0.241619
      16.870000       0.168659       0.266194       0.239705
      16.880000       0.167682       0.265901       0.238459
      16.890000       0.166557       0.265382       0.237748
      16.900000       0.165420       0.264715       0.237415
      16.910000       0.164414       0.263980       0.237304
      16.920000       0.163680       0.263249       0.237270
      16.930000       0.163335       0.262567       0.237205
      16.940000       0.163467       0.261949       0.237046
      16.950000       0.164113       0.261384       0.236786
      16.960000       0.165262       0.260844       0.236468
      16.970000       0.166856       0.260302       0.236176
      16.980000       0.168800       0.259739       0.236019
      16.990000       0.170963       0.259149       0.236105
      17.000000       0.173193       0.258529       0.236529
      17.010000       0.175331       0.257859       0.237351
      17.020000       0.177223       0.257090       0.238595
      17.030000       0.178748       0.256141       0.240233
      17.040000       0.179836       0.254903       0.242193
      17.050000       0.180480       0.253264       0.244359
      17.060000       0.180722       0.251122       0.246592
      17.070000       0.180642       0.248409       0.248746
      17.080000       0.180337       0.245105       0.250694
      17.090000       0.179901       0.241250       0.252337
      17.100000       0.179425       0.236950       0.253605
      17.110000       0.178990       0.232370       0.254459
      17.120000       0.178672       0.227715       0.254878
      17.130000       0.178529       0.223199       0.254867
      17.140000       0.178598       0.219017       0.254457
      17.150000       0.178880       0.215310       0.253715
      17.160000       0.179352       0.212157       0.252743
      17.170000       0.179971       0.209572       0.251674
      17.180000       0.180695       0.207522       0.250653
      17.190000       0.181497       0.205950       0.249817
      17.200000       0.182370       0.204796       0.249273
      17.210000       0.183324       0.204022       0.249077
      17.220000       0.184382       0.203617       0.249232
      17.230000       0.185573       0.203599       0.249688
      17.240000       0.186926       0.204006       0.250353
      17.250000       0.188462       0.204881       0.251106
      17.260000       0.190188       0.206248       0.251802
      17.270000       0.192093       0.208100       0.252285
      17.280000       0.194146       0.210384       0.252396
      17.290000       0.196296       0.213003       0.251996
      17.300000       0.198469       0.215820       0.250989
      17.310000       0.200570       0.218678       0.249348
      17.320000       0.202483       0.221421       0.247127
      17.330000       0.204083       0.223912       0.244452
      17.340000       0.205261       0.226048       0.241506
      17.350000       0.205941       0.227768       0.238495
      17.360000       0.206107       0.229046       0.235613
      17.370000       0.205796       0.229878       0.233016
      17.380000       0.205079       0.230266       0.230797
      17.390000       0.204028       0.230207       0.228987
      17.400000       0.202687       0.229703       0.227556
      17.410000       0.201060       0.228774       0.226429
      17.420000       0.199121       0.227476       0.225506
      17.430000       0.196834       0.225912       0.224682
      17.440000       0.194184       0.224224       0.223863
      17.450000       0.191197       0.222572       0.222979
      17.460000       0.187948       0.221089       0.221982
      17.470000       0.184554       0.219853       0.220850
      17.480000       0.181148       0.218861       0.219583
      17.490000       0.177857       0.218034       0.218205
      17.500000       0.174771       0.217246       0.216757
      17.510000       0.171936       0.216359       0.215295
      17.520000       0.169350       0.215267       0.213889
      17.530000       0.166972       0.213922       0.212605
      17.540000       0.164726       0.212337       0.211510
      17.550000       0.162519       0.210572       0.210656
      17.560000       0.160243       0.208708       0.210084
      17.570000       0.157803       0.206830       0.209820
      17.580000       0.155129       0.205019       0.209872
      17.590000       0.152200       0.203349       0.210243
      17.600000       0.149052       0.201898       0.210927
      17.610000       0.145777       0.200751       0.211923
      17.620000       0.142502       0.199988       0.213230
      17.630000       0.139366       0.199677       0.214841
      17.640000       0.136495       0.199854       0.216741
      17.650000       0.133986       0.200520       0.218890
      17.660000       0.131900       0.201642       0.221224
      17.670000       0.130261       0.203170       0.223652
      17.680000       0.129059       0.205044       0.226075
      17.690000       0.128257       0.207217       0.228403
      17.700000       0.127799       0.209645       0.230575
      17.710000       0.127616       0.212281       0.232573
      17.720000       0.127634       0.215050       0.234415
      17.730000       0.127777       0.217837       0.236138
      17.740000       0.127975       0.220485       0.237774
      17.750000       0.128172       0.222808       0.239331
      17.760000       0.128326       0.224615       0.240784
      17.770000       0.128418       0.225738       0.242078
      17.780000       0.128442       0.226046       0.243148
      17.790000       0.128404       0.225468       0.243937
      17.800000       0.128313       0.223993       0.244416
      17.810000       0.128174       0.221667       0.244597
      17.820000       0.127989       0.218586       0.244527
      17.830000       0.127751       0.214875       0.244285
      17.840000       0.127452       0.210681       0.243958
      17.850000       0.127087       0.206164       0.243623
      17.860000       0.126654       0.201495       0.243335
      17.870000       0.126164       0.196846       0.243113
      17.880000       0.125638       0.192377       0.242944
      17.890000       0.125112       0.188224       0.242789
      17.900000       0.124632       0.184490       0.242595
      17.910000       0.124248       0.181246       0.242319
      17.920000       0.124003       0.178533       0.241940
      17.930000       0.123921       0.176367       0.241484
      17.940000       0.124003       0.174736       0.241025
      17.950000       0.124224       0.173607       0.240690
      17.960000       0.124542       0.172922       0.240639
      17.970000       0.124911       0.172611       0.241043
      17.980000       0.125291       0.172598       0.242062
      17.990000       0.125663       0.172811       0.243817
      18.000000       0.126028       0.173191       0.246377
      18.010000       0.126409       0.173695       0.249751
      18.020000       0.126838       0.174292       0.253883
      18.030000       0.127350       0.174957       0.258652
      18.040000       0.127965       0.175661       0.263876
      18.050000       0.128680       0.176359       0.269327
      18.060000       0.129472       0.176993       0.274754
      18.070000       0.130294       0.177497       0.279912
      18.080000       0.131090       0.177808       0.284595
      18.090000       0.131794       0.177875       0.288647
      18.100000       0.132342       0.177670       0.291968
      18.110000       0.132670       0.177187       0.294500
      18.120000       0.132725       0.176441       0.296225
      18.130000       0.132475       0.175473       0.297166
      18.140000       0.131921       0.174345       0.297387
      18.150000       0.131110       0.173132       0.297005
      18.160000       0.130125       0.171921       0.296180
      18.170000       0.129070       0.170791       0.295097
      18.180000       0.128057       0.169809       0.293940
      18.190000       0.127178       0.169018       0.292857
      18.200000       0.126490       0.168434       0.291939
      18.210000       0.126011       0.168051       0.291206
      18.220000       0.125725       0.167851       0.290614
      18.230000       0.125585       0.167820       0.290084
      18.240000       0.125544       0.167960       0.289532
      18.250000       0.125556       0.168299       0.288896
      18.260000       0.125595       0.168884       0.288150
      18.270000       0.125642       0.169764       0.287296
      18.280000       0.125679       0.170966       0.286351
      18.290000       0.125673       0.172472       0.285329
      18.300000       0.125578       0.174208       0.284236
      18.310000       0.125342       0.176039       0.283069
      18.320000       0.124924       0.177784       0.281821
      18.330000       0.124314       0.179238       0.280485
      18.340000       0.123538       0.180197       0.279058
      18.350000       0.122660       0.180483       0.277542
      18.360000       0.121763       0.179972       0.275939
      18.370000       0.120933       0.178609       0.274255
      18.380000       0.120245       0.176420       0.272497
      18.390000       0.119757       0.173514       0.270669
      18.400000       0.119497       0.170070       0.268772
      18.410000       0.119470       0.166314       0.266801
      18.420000       0.119656       0.162487       0.264744
      18.430000       0.120013       0.158817       0.262584
      18.440000       0.120489       0.155490       0.260295
      18.450000       0.121027       0.152636       0.257845
      18.460000       0.121575       0.150325       0.255207
      18.470000       0.122099       0.148569       0.252355
      18.480000       0.122590       0.147338       0.249279
      18.490000       0.123069       0.146568       0.245986
      18.500000       0.123584       0.146186       0.242510
      18.510000       0.124194       0.146121       0.238920
      18.520000       0.124956       0.146312       0.235316
      18.530000       0.125905       0.146710       0.231832
      18.540000       0.127048       0.147268       0.228613
      18.550000       0.128353       0.147934       0.225807
      18.560000       0.129761       0.148639       0.223537
      18.570000       0.131195       0.149305       0.221895
      18.580000       0.132579       0.149845       0.220930
      18.590000       0.133861       0.150183       0.220650
      18.600000       0.135015       0.150258       0.221019
      18.610000       0.136049       0.150040       0.221961
      18.620000       0.136987       0.149519       0.223365
      18.630000       0.137851       0.148704       0.225084
      18.640000       0.138651       0.147604       0.226951
      18.650000       0.139370       0.146231       0.228785
      18.660000       0.139976       0.144594       0.230411
      18.670000       0.140423       0.142709       0.231674
      18.680000       0.140664       0.140610       0.232452
      18.690000       0.140664       0.138352       0.232663
      18.700000       0.140398       0.136012       0.232266
      18.710000       0.139856       0.133681       0.231260
      18.720000       0.139033       0.131453       0.229690
      18.730000       0.137928       0.129415       0.227648
      18.740000       0.136548       0.127641       0.225272
      18.750000       0.134906       0.126188       0.222740
      18.760000       0.133029       0.125092       0.220250
      18.770000       0.130958       0.124374       0.217994
      18.780000       0.128755       0.124033       0.216140
      18.790000       0.126494       0.124055       0.214807
      18.800000       0.124257       0.124413       0.214057
      18.810000       0.122123       0.125068       0.213897
      18.820000       0.120155       0.125976       0.214286
      18.830000       0.118391       0.127085       0.215150
      18.840000       0.116847       0.128341       0.216395
      18.850000       0.115523       0.129690       0.217915
      18.860000       0.114409       0.131087       0.219607
      18.870000       0.113500       0.132498       0.221367
      18.880000       0.112795       0.133904       0.223098
      18.890000       0.112295       0.135302       0.224714
      18.900000       0.111999       0.136696       0.226138
      18.910000       0.111890       0.138088       0.227313
      18.920000       0.111938       0.139471       0.228192
      18.930000       0.112105       0.140814       0.228736
      18.940000       0.112347       0.142072       0.228912
      18.950000       0.112622       0.143182       0.228687
      18.960000       0.112894       0.144080       0.228039
      18.970000       0.113124       0.144706       0.226957
      18.980000       0.113269       0.145014       0.225450
      18.990000       0.113278       0.144970       0.223544
      19.000000       0.113092       0.144548       0.221282
      19.010000       0.112655       0.143725       0.218724
      19.020000       0.111933       0.142485       0.215945
      19.030000       0.110918       0.140820       0.213027
      19.040000       0.109634       0.138737       0.210059
      19.050000       0.108133       0.136259       0.207132
      19.060000       0.106482       0.133428       0.204343
      19.070000       0.104753       0.130305       0.201791
      19.080000       0.103016       0.126964       0.199572
      19.090000       0.101327       0.123491       0.197775
      19.100000       0.099722       0.119976       0.196475
      19.110000       0.098217       0.116514       0.195720
      19.120000       0.096810       0.113193       0.195534
      19.130000       0.095490       0.110093       0.195916
      19.140000       0.094244       0.107280       0.196839
      19.150000       0.093061       0.104802       0.198260
      19.160000       0.091934       0.102684       0.200127
      19.170000       0.090863       0.100930       0.202384
      19.180000       0.089849       0.099524       0.204978
      19.190000       0.088893       0.098426       0.207866
      19.200000       0.088002       0.097585       0.211015
      19.210000       0.087186       0.096937       0.214399
      19.220000       0.086461       0.096415       0.217993
      19.230000       0.085845       0.095955       0.221766
      19.240000       0.085359       0.095506       0.225675
      19.250000       0.085020       0.095028       0.229661
      19.260000       0.084838       0.094499       0.233640
      19.270000       0.084819       0.093913       0.237507
      19.280000       0.084961       0.093281       0.241132
      19.290000       0.085259       0.092630       0.244361
      19.300000       0.085703       0.091998       0.247024
      19.310000       0.086279       0.091428       0.248950
      19.320000       0.086967       0.090963       0.249990
      19.330000       0.087743       0.090636       0.250049
      19.340000       0.088580       0.090466       0.249100
      19.350000       0.089447       0.090455       0.247201
      19.360000       0.090316       0.090592       0.244477
      19.370000       0.091159       0.090854       0.241107
      19.380000       0.091951       0.091220       0.237285
      19.390000       0.092669       0.091671       0.233201
      19.400000       0.093287       0.092194       0.229021
      19.410000       0.093779       0.092780       0.224876
      19.420000       0.094124       0.093413       0.220873
      19.430000       0.094307       0.094065       0.217106
      19.440000       0.094330       0.094700       0.213662
      19.450000       0.094213       0.095277       0.210632
      19.460000       0.093992       0.095763       0.208108
      19.470000       0.093715       0.096150       0.206173
      19.480000       0.093437       0.096452       0.204889
      19.490000       0.093209       0.096709       0.204296
      19.500000       0.093070       0.096966       0.204400
      19.510000       0.093042       0.097255       0.205183
      19.520000       0.093130       0.097593       0.206612
      19.530000       0.093315       0.097972       0.208647
      19.540000       0.093569       0.098369       0.211252
      19.550000       0.093853       0.098755       0.214397
      19.560000       0.094128       0.099098       0.218054
      19.570000       0.094347       0.099367       0.222184
      19.580000       0.094463       0.099528       0.226729
      19.590000       0.094421       0.099544       0.231611
      19.600000       0.094175       0.099382       0.236734
      19.610000       0.093689       0.099014       0.241991
      19.620000       0.092956       0.098425       0.247275
      19.630000       0.091995       0.097610       0.252470
      19.640000       0.090846       0.096576       0.257443
      19.650000       0.089564       0.095337       0.262036
      19.660000       0.088202       0.093919       0.266064
      19.670000       0.086811       0.092360       0.269327
      19.680000       0.085437       0.090716       0.271642
      19.690000       0.084126       0.089054       0.272862
      19.700000       0.082921       0.087451       0.272904
      19.710000       0.081866       0.085977       0.271756
      19.720000       0.081001       0.084693       0.269483
      19.730000       0.080364       0.083636       0.266220
      19.740000       0.079989       0.082822       0.262156
      19.750000       0.079899       0.082237       0.257506
      19.760000       0.080113       0.081844       0.252476
      19.770000       0.080635       0.081588       0.247234
      19.780000       0.081455       0.081407       0.241884
      19.790000       0.082547       0.081238       0.236469
      19.800000       0.083864       0.081029       0.230980
      19.810000       0.085343       0.080736       0.225386
      19.820000       0.086908       0.080332       0.219660
      19.830000       0.088475       0.079800       0.213802
      19.840000       0.089966       0.079144       0.207850
      19.850000       0.091322       0.078383       0.201873
      19.860000       0.092507       0.077559       0.195964
      19.870000       0.093507       0.076726       0.190219
      19.880000       0.094326       0.075941       0.184728
      19.890000       0.094977       0.075262       0.179569
      19.900000       0.095471       0.074737       0.174803
      19.910000       0.095817       0.074404       0.170481
      19.920000       0.096026       0.074290       0.166645
      19.930000       0.096115       0.074413       0.163328
      19.940000       0.096111       0.074776       0.160554
      19.950000       0.096047       0.075372       0.158339
      19.960000       0.095959       0.076172       0.156692
      19.970000       0.095869       0.077134       0.155609
      19.980000       0.095785       0.078199       0.155084
      19.990000       0.095696       0.079304       0.155095
      20.000000       0.095573       0.080387       0.155613
