  # energy grid [eV]     epsi_x  epsi_y  epsi_z
       0.000000            NaN            NaN            NaN
       0.010000       0.656364       0.002309       0.000329
       0.020000       1.317877       0.004621       0.000659
       0.030000       1.989779       0.006938       0.000992
       0.040000       2.677493       0.009262       0.001328
       0.050000       3.386721       0.011597       0.001670
       0.060000       4.123549       0.013946       0.002018
       0.070000       4.894555       0.016310       0.002374
       0.080000       5.706941       0.018693       0.002739
       0.090000       6.568659       0.021098       0.003115
       0.100000       7.488569       0.023528       0.003504
       0.110000       8.476598       0.025985       0.003908
       0.120000       9.543920       0.028474       0.004329
       0.130000      10.703140       0.030998       0.004768
       0.140000      11.968468       0.033560       0.005230
       0.150000      13.355884       0.036165       0.005715
       0.160000      14.883225       0.038817       0.006229
       0.170000      16.570171       0.041519       0.006773
       0.180000      18.438021       0.044277       0.007353
       0.190000      20.509126       0.047096       0.007973
       0.200000      22.805802       0.049981       0.008637
       0.210000      25.348459       0.052938       0.009352
       0.220000      28.152660       0.055973       0.010124
       0.230000      31.224836       0.059094       0.010962
       0.240000      34.556555       0.062308       0.011872
       0.250000      38.117668       0.065623       0.012866
       0.260000      41.849406       0.069047       0.013954
       0.270000      45.659438       0.072592       0.015150
       0.280000      49.421669       0.076268       0.016466
       0.290000      52.983289       0.080086       0.017920
       0.300000      56.179913       0.084060       0.019527
       0.310000      58.856926       0.088205       0.021307
       0.320000      60.892929       0.092538       0.023278
       0.330000      62.220257       0.097076       0.025458
       0.340000      62.837564       0.101840       0.027861
       0.350000      62.809734       0.106853       0.030498
       0.360000      62.252527       0.112141       0.033368
       0.370000      61.304537       0.117734       0.036462
       0.380000      60.095213       0.123663       0.039752
       0.390000      58.720233       0.129968       0.043200
       0.400000      57.232536       0.136690       0.046755
       0.410000      55.650567       0.143879       0.050365
       0.420000      53.978169       0.151589       0.053991
       0.430000      52.226010       0.159885       0.057607
       0.440000      50.424489       0.168838       0.061205
       0.450000      48.623114       0.178532       0.064773
       0.460000      46.878507       0.189064       0.068274
       0.470000      45.238064       0.200540       0.071612
       0.480000      43.726773       0.213088       0.074627
       0.490000      42.341897       0.226847       0.077091
       0.500000      41.056789       0.241978       0.078748
       0.510000      39.832248       0.258657       0.079370
       0.520000      38.631445       0.277081       0.078815
       0.530000      37.432904       0.297455       0.077080
       0.540000      36.236434       0.319989       0.074297
       0.550000      35.059914       0.344883       0.070709
       0.560000      33.929097       0.372296       0.066604
       0.570000      32.865370       0.402314       0.062269
       0.580000      31.876493       0.434891       0.057942
       0.590000      30.953324       0.469782       0.053800
       0.600000      30.073102       0.506472       0.049959
       0.610000      29.207609       0.544112       0.046482
       0.620000      28.332824       0.581508       0.043393
       0.630000      27.435920       0.617205       0.040692
       0.640000      26.516571       0.649674       0.038358
       0.650000      25.582372       0.677609       0.036362
       0.660000      24.641170       0.700206       0.034669
       0.670000      23.694417       0.717327       0.033242
       0.680000      22.734777       0.729427       0.032041
       0.690000      21.748927       0.737274       0.031026
       0.700000      20.724004       0.741580       0.030159
       0.710000      19.654488       0.742705       0.029406
       0.720000      18.546225       0.740560       0.028740
       0.730000      17.415985       0.734743       0.028146
       0.740000      16.287346       0.724837       0.027617
       0.750000      15.185232       0.710738       0.027156
       0.760000      14.131378       0.692870       0.026771
       0.770000      13.141829       0.672188       0.026474
       0.780000      12.226389       0.649999       0.026275
       0.790000      11.389369       0.627713       0.026184
       0.800000      10.630886       0.606606       0.026206
       0.810000       9.948227       0.587698       0.026347
       0.820000       9.337007       0.571705       0.026609
       0.830000       8.792035       0.559069       0.026999
       0.840000       8.307916       0.550010       0.027527
       0.850000       7.879429       0.544581       0.028207
       0.860000       7.501743       0.542712       0.029057
       0.870000       7.170529       0.544227       0.030096
       0.880000       6.881993       0.548854       0.031344
       0.890000       6.632869       0.556226       0.032821
       0.900000       6.420386       0.565878       0.034544
       0.910000       6.242230       0.577265       0.036528
       0.920000       6.096506       0.589813       0.038782
       0.930000       5.981725       0.602980       0.041305
       0.940000       5.896815       0.616343       0.044083
       0.950000       5.841150       0.629648       0.047078
       0.960000       5.814580       0.642827       0.050222
       0.970000       5.817416       0.655956       0.053410
       0.980000       5.850336       0.669190       0.056502
       0.990000       5.914187       0.682698       0.059329
       1.000000       6.009690       0.696640       0.061717
       1.010000       6.137049       0.711163       0.063516
       1.020000       6.295496       0.726411       0.064632
       1.030000       6.482810       0.742513       0.065044
       1.040000       6.694895       0.759525       0.064796
       1.050000       6.925587       0.777369       0.063978
       1.060000       7.166875       0.795792       0.062690
       1.070000       7.409694       0.814397       0.061023
       1.080000       7.645197       0.832742       0.059047
       1.090000       7.866174       0.850477       0.056824
       1.100000       8.068133       0.867463       0.054418
       1.110000       8.249678       0.883832       0.051906
       1.120000       8.412147       0.899976       0.049377
       1.130000       8.558769       0.916474       0.046918
       1.140000       8.693644       0.933995       0.044606
       1.150000       8.820836       0.953193       0.042500
       1.160000       8.943776       0.974618       0.040635
       1.170000       9.065051       0.998641       0.039023
       1.180000       9.186463       1.025396       0.037657
       1.190000       9.309082       1.054741       0.036511
       1.200000       9.433179       1.086219       0.035547
       1.210000       9.558118       1.119058       0.034716
       1.220000       9.682363       1.152228       0.033965
       1.230000       9.803567       1.184595       0.033247
       1.240000       9.918547       1.215150       0.032527
       1.250000      10.023064       1.243274       0.031789
       1.260000      10.111504       1.268919       0.031039
       1.270000      10.176653       1.292611       0.030296
       1.280000      10.209656       1.315232       0.029591
       1.290000      10.200221       1.337663       0.028956
       1.300000      10.137204       1.360406       0.028420
       1.310000      10.009761       1.383323       0.028005
       1.320000       9.809106       1.405586       0.027726
       1.330000       9.530620       1.425868       0.027589
       1.340000       9.175732       1.442743       0.027598
       1.350000       8.752816       1.455194       0.027751
       1.360000       8.276557       1.463033       0.028042
       1.370000       7.765780       1.467088       0.028463
       1.380000       7.240443       1.469072       0.029005
       1.390000       6.718776       1.471227       0.029659
       1.400000       6.215352       1.475917       0.030420
       1.410000       5.740318       1.485304       0.031287
       1.420000       5.299600       1.501180       0.032263
       1.430000       4.895673       1.524933       0.033352
       1.440000       4.528516       1.557593       0.034554
       1.450000       4.196513       1.599911       0.035863
       1.460000       3.897174       1.652427       0.037257
       1.470000       3.627646       1.715504       0.038703
       1.480000       3.385028       1.789335       0.040160
       1.490000       3.166533       1.873917       0.041586
       1.500000       2.969554       1.969024       0.042952
       1.510000       2.791678       2.074201       0.044249
       1.520000       2.630685       2.188833       0.045491
       1.530000       2.484557       2.312299       0.046709
       1.540000       2.351496       2.444215       0.047935
       1.550000       2.229947       2.584656       0.049187
       1.560000       2.118607       2.734266       0.050455
       1.570000       2.016420       2.894139       0.051698
       1.580000       1.922533       3.065521       0.052850
       1.590000       1.836255       3.249443       0.053833
       1.600000       1.757001       3.446464       0.054585
       1.610000       1.684261       3.656633       0.055070
       1.620000       1.617575       3.879663       0.055294
       1.630000       1.556521       4.115178       0.055289
       1.640000       1.500714       4.362829       0.055099
       1.650000       1.449802       4.622056       0.054754
       1.660000       1.403464       4.891407       0.054259
       1.670000       1.361405       5.167508       0.053592
       1.680000       1.323350       5.444041       0.052717
       1.690000       1.289024       5.711224       0.051607
       1.700000       1.258146       5.956259       0.050262
       1.710000       1.230400       6.164983       0.048719
       1.720000       1.205428       6.324542       0.047045
       1.730000       1.182818       6.426424       0.045326
       1.740000       1.162120       6.468877       0.043648
       1.750000       1.142883       6.457793       0.042086
       1.760000       1.124722       6.405672       0.040697
       1.770000       1.107382       6.329049       0.039518
       1.780000       1.090791       6.245339       0.038573
       1.790000       1.075061       6.170139       0.037868
       1.800000       1.060440       6.115610       0.037402
       1.810000       1.047235       6.090049       0.037166
       1.820000       1.035743       6.098343       0.037148
       1.830000       1.026195       6.142885       0.037328
       1.840000       1.018748       6.224521       0.037687
       1.850000       1.013479       6.343253       0.038203
       1.860000       1.010411       6.498529       0.038856
       1.870000       1.009516       6.689077       0.039631
       1.880000       1.010731       6.912349       0.040519
       1.890000       1.013974       7.163707       0.041515
       1.900000       1.019166       7.435534       0.042619
       1.910000       1.026258       7.716528       0.043827
       1.920000       1.035242       7.991456       0.045127
       1.930000       1.046138       8.241656       0.046493
       1.940000       1.058960       8.446447       0.047884
       1.950000       1.073687       8.585382       0.049241
       1.960000       1.090270       8.641111       0.050499
       1.970000       1.108663       8.602327       0.051595
       1.980000       1.128857       8.466104       0.052475
       1.990000       1.150898       8.238836       0.053105
       2.000000       1.174851       7.935236       0.053470
       2.010000       1.200752       7.575564       0.053573
       2.020000       1.228569       7.181941       0.053442
       2.030000       1.258208       6.774959       0.053127
       2.040000       1.289530       6.371464       0.052700
       2.050000       1.322352       5.983792       0.052250
       2.060000       1.356408       5.620118       0.051869
       2.070000       1.391292       5.285348       0.051646
       2.080000       1.426416       4.982011       0.051657
       2.090000       1.461016       4.710906       0.051962
       2.100000       1.494164       4.471483       0.052605
       2.110000       1.524791       4.262089       0.053613
       2.120000       1.551689       4.080195       0.055003
       2.130000       1.573522       3.922627       0.056773
       2.140000       1.588847       3.785780       0.058908
       2.150000       1.596154       3.665757       0.061368
       2.160000       1.593942       3.558466       0.064091
       2.170000       1.580856       3.459769       0.066984
       2.180000       1.555903       3.365781       0.069924
       2.190000       1.518724       3.273335       0.072764
       2.200000       1.469836       3.180485       0.075344
       2.210000       1.410731       3.086837       0.077513
       2.220000       1.343761       2.993549       0.079151
       2.230000       1.271798       2.902967       0.080183
       2.240000       1.197796       2.818018       0.080598
       2.250000       1.124388       2.741570       0.080437
       2.260000       1.053628       2.675940       0.079787
       2.270000       0.986907       2.622627       0.078756
       2.280000       0.925005       2.582262       0.077462
       2.290000       0.868215       2.554716       0.076010
       2.300000       0.816502       2.539298       0.074493
       2.310000       0.769628       2.534996       0.072990
       2.320000       0.727266       2.540723       0.071572
       2.330000       0.689059       2.555554       0.070303
       2.340000       0.654653       2.578927       0.069242
       2.350000       0.623713       2.610748       0.068436
       2.360000       0.595917       2.651352       0.067913
       2.370000       0.570959       2.701294       0.067679
       2.380000       0.548543       2.761041       0.067722
       2.390000       0.528385       2.830681       0.068008
       2.400000       0.510219       2.909760       0.068498
       2.410000       0.493802       2.997298       0.069146
       2.420000       0.478928       3.091952       0.069914
       2.430000       0.465425       3.192237       0.070770
       2.440000       0.453157       3.296695       0.071691
       2.450000       0.442007       3.403951       0.072652
       2.460000       0.431859       3.512652       0.073622
       2.470000       0.422578       3.621327       0.074559
       2.480000       0.414006       3.728215       0.075414
       2.490000       0.405963       3.831060       0.076132
       2.500000       0.398260       3.926887       0.076667
       2.510000       0.390736       4.011837       0.076989
       2.520000       0.383275       4.081112       0.077088
       2.530000       0.375829       4.129156       0.076980
       2.540000       0.368414       4.150119       0.076709
       2.550000       0.361096       4.138656       0.076345
       2.560000       0.353964       4.090959       0.075969
       2.570000       0.347112       4.005809       0.075668
       2.580000       0.340617       3.885256       0.075517
       2.590000       0.334529       3.734613       0.075571
       2.600000       0.328863       3.561632       0.075859
       2.610000       0.323596       3.375122       0.076383
       2.620000       0.318672       3.183469       0.077116
       2.630000       0.314010       2.993517       0.078019
       2.640000       0.309526       2.810054       0.079049
       2.650000       0.305156       2.635875       0.080177
       2.660000       0.300878       2.472235       0.081395
       2.670000       0.296713       2.319448       0.082721
       2.680000       0.292727       2.177427       0.084188
       2.690000       0.289008       2.046045       0.085831
       2.700000       0.285651       1.925285       0.087670
       2.710000       0.282734       1.815220       0.089697
       2.720000       0.280316       1.715917       0.091863
       2.730000       0.278431       1.627341       0.094084
       2.740000       0.277090       1.549304       0.096252
       2.750000       0.276287       1.481462       0.098255
       2.760000       0.276008       1.423336       0.100001
       2.770000       0.276236       1.374345       0.101434
       2.780000       0.276952       1.333820       0.102538
       2.790000       0.278126       1.301000       0.103328
       2.800000       0.279711       1.275010       0.103841
       2.810000       0.281630       1.254836       0.104125
       2.820000       0.283776       1.239309       0.104227
       2.830000       0.286020       1.227135       0.104195
       2.840000       0.288239       1.216969       0.104074
       2.850000       0.290339       1.207551       0.103916
       2.860000       0.292282       1.197874       0.103783
       2.870000       0.294090       1.187345       0.103756
       2.880000       0.295832       1.175877       0.103933
       2.890000       0.297595       1.163869       0.104417
       2.900000       0.299462       1.152060       0.105300
       2.910000       0.301496       1.141317       0.106647
       2.920000       0.303738       1.132402       0.108490
       2.930000       0.306209       1.125798       0.110821
       2.940000       0.308911       1.121626       0.113592
       2.950000       0.311828       1.119653       0.116727
       2.960000       0.314928       1.119389       0.120119
       2.970000       0.318179       1.120240       0.123637
       2.980000       0.321573       1.121675       0.127129
       2.990000       0.325144       1.123346       0.130425
       3.000000       0.328971       1.125131       0.133348
       3.010000       0.333152       1.127098       0.135726
       3.020000       0.337760       1.129440       0.137411
       3.030000       0.342799       1.132423       0.138296
       3.040000       0.348179       1.136372       0.138335
       3.050000       0.353715       1.141696       0.137552
       3.060000       0.359150       1.148898       0.136044
       3.070000       0.364175       1.158538       0.133969
       3.080000       0.368445       1.171159       0.131530
       3.090000       0.371588       1.187199       0.128945
       3.100000       0.373218       1.206945       0.126424
       3.110000       0.372973       1.230528       0.124147
       3.120000       0.370570       1.257963       0.122253
       3.130000       0.365881       1.289168       0.120838
       3.140000       0.358977       1.323954       0.119960
       3.150000       0.350133       1.361988       0.119653
       3.160000       0.339778       1.402770       0.119929
       3.170000       0.328425       1.445667       0.120781
       3.180000       0.316582       1.490021       0.122182
       3.190000       0.304698       1.535248       0.124080
       3.200000       0.293132       1.580893       0.126394
       3.210000       0.282147       1.626597       0.129012
       3.220000       0.271916       1.672003       0.131790
       3.230000       0.262529       1.716662       0.134571
       3.240000       0.254009       1.759960       0.137187
       3.250000       0.246326       1.801062       0.139490
       3.260000       0.239417       1.838875       0.141368
       3.270000       0.233208       1.872030       0.142759
       3.280000       0.227624       1.898920       0.143667
       3.290000       0.222600       1.917841       0.144152
       3.300000       0.218078       1.927238       0.144323
       3.310000       0.213999       1.926056       0.144320
       3.320000       0.210303       1.914096       0.144289
       3.330000       0.206923       1.892247       0.144369
       3.340000       0.203795       1.862475       0.144678
       3.350000       0.200864       1.827536       0.145311
       3.360000       0.198091       1.790497       0.146341
       3.370000       0.195449       1.754252       0.147814
       3.380000       0.192929       1.721158       0.149756
       3.390000       0.190533       1.692869       0.152159
       3.400000       0.188274       1.670335       0.154979
       3.410000       0.186177       1.653864       0.158124
       3.420000       0.184265       1.643220       0.161458
       3.430000       0.182550       1.637738       0.164808
       3.440000       0.181020       1.636459       0.167982
       3.450000       0.179637       1.638311       0.170797
       3.460000       0.178333       1.642333       0.173099
       3.470000       0.177026       1.647878       0.174783
       3.480000       0.175637       1.654767       0.175808
       3.490000       0.174113       1.663299       0.176198
       3.500000       0.172440       1.674098       0.176046
       3.510000       0.170647       1.687810       0.175497
       3.520000       0.168796       1.704754       0.174735
       3.530000       0.166966       1.724656       0.173958
       3.540000       0.165230       1.746546       0.173347
       3.550000       0.163648       1.768922       0.173049
       3.560000       0.162255       1.790149       0.173157
       3.570000       0.161067       1.808991       0.173695
       3.580000       0.160089       1.825076       0.174619
       3.590000       0.159323       1.839080       0.175817
       3.600000       0.158779       1.852541       0.177135
       3.610000       0.158475       1.867377       0.178395
       3.620000       0.158438       1.885333       0.179431
       3.630000       0.158695       1.907514       0.180109
       3.640000       0.159269       1.934166       0.180335
       3.650000       0.160173       1.964713       0.180067
       3.660000       0.161411       1.998042       0.179308
       3.670000       0.162973       2.032946       0.178112
       3.680000       0.164840       2.068584       0.176588
       3.690000       0.166984       2.104753       0.174894
       3.700000       0.169373       2.141837       0.173227
       3.710000       0.171966       2.180402       0.171799
       3.720000       0.174719       2.220629       0.170813
       3.730000       0.177579       2.261783       0.170428
       3.740000       0.180489       2.301983       0.170748
       3.750000       0.183395       2.338378       0.171802
       3.760000       0.186262       2.367706       0.173545
       3.770000       0.189085       2.387052       0.175855
       3.780000       0.191902       2.394480       0.178549
       3.790000       0.194792       2.389282       0.181401
       3.800000       0.197860       2.371797       0.184190
       3.810000       0.201212       2.343013       0.186746
       3.820000       0.204939       2.304250       0.188994
       3.830000       0.209097       2.257108       0.190966
       3.840000       0.213696       2.203587       0.192787
       3.850000       0.218701       2.146202       0.194630
       3.860000       0.224031       2.087907       0.196656
       3.870000       0.229577       2.031836       0.198978
       3.880000       0.235213       1.980950       0.201643
       3.890000       0.240820       1.937743       0.204639
       3.900000       0.246290       1.904069       0.207908
       3.910000       0.251519       1.881110       0.211370
       3.920000       0.256393       1.869422       0.214929
       3.930000       0.260763       1.869015       0.218481
       3.940000       0.264446       1.879391       0.221909
       3.950000       0.267254       1.899541       0.225089
       3.960000       0.269050       1.927902       0.227891
       3.970000       0.269799       1.962310       0.230189
       3.980000       0.269604       2.000011       0.231882
       3.990000       0.268681       2.037764       0.232899
       4.000000       0.267308       2.072118       0.233215
       4.010000       0.265749       2.099876       0.232850
       4.020000       0.264205       2.118690       0.231865
       4.030000       0.262789       2.127594       0.230363
       4.040000       0.261543       2.127242       0.228483
       4.050000       0.260460       2.119709       0.226389
       4.060000       0.259523       2.107925       0.224259
       4.070000       0.258725       2.094980       0.222263
       4.080000       0.258071       2.083530       0.220541
       4.090000       0.257585       2.075464       0.219204
       4.100000       0.257307       2.071829       0.218327
       4.110000       0.257298       2.072946       0.217954
       4.120000       0.257641       2.078624       0.218111
       4.130000       0.258437       2.088370       0.218796
       4.140000       0.259787       2.101539       0.219985
       4.150000       0.261769       2.117358       0.221631
       4.160000       0.264405       2.134858       0.223679
       4.170000       0.267640       2.152767       0.226069
       4.180000       0.271321       2.169488       0.228752
       4.190000       0.275196       2.183262       0.231681
       4.200000       0.278926       2.192501       0.234795
       4.210000       0.282134       2.196190       0.238003
       4.220000       0.284468       2.194174       0.241167
       4.230000       0.285679       2.187203       0.244109
       4.240000       0.285688       2.176693       0.246641
       4.250000       0.284601       2.164290       0.248596
       4.260000       0.282674       2.151388       0.249863
       4.270000       0.280245       2.138754       0.250408
       4.280000       0.277654       2.126410       0.250266
       4.290000       0.275181       2.113781       0.249532
       4.300000       0.273023       2.100057       0.248339
       4.310000       0.271292       2.084595       0.246839
       4.320000       0.270032       2.067171       0.245190
       4.330000       0.269250       2.047943       0.243551
       4.340000       0.268943       2.027162       0.242077
       4.350000       0.269116       2.004798       0.240920
       4.360000       0.269790       1.980341       0.240210
       4.370000       0.270999       1.952919       0.240044
       4.380000       0.272791       1.921712       0.240471
       4.390000       0.275221       1.886475       0.241486
       4.400000       0.278356       1.847895       0.243037
       4.410000       0.282275       1.807621       0.245037
       4.420000       0.287076       1.767966       0.247397
       4.430000       0.292876       1.731434       0.250039
       4.440000       0.299806       1.700281       0.252927
       4.450000       0.308000       1.676196       0.256069
       4.460000       0.317577       1.660137       0.259514
       4.470000       0.328634       1.652292       0.263329
       4.480000       0.341225       1.652096       0.267569
       4.490000       0.355357       1.658309       0.272249
       4.500000       0.370962       1.669165       0.277314
       4.510000       0.387878       1.682609       0.282628
       4.520000       0.405809       1.696653       0.287973
       4.530000       0.424295       1.709780       0.293061
       4.540000       0.442699       1.721284       0.297558
       4.550000       0.460240       1.731393       0.301123
       4.560000       0.476081       1.741109       0.303451
       4.570000       0.489464       1.751823       0.304318
       4.580000       0.499852       1.764838       0.303614
       4.590000       0.507018       1.780953       0.301365
       4.600000       0.511043       1.800206       0.297730
       4.610000       0.512233       1.821792       0.292985
       4.620000       0.511005       1.844182       0.287483
       4.630000       0.507818       1.865402       0.281611
       4.640000       0.503134       1.883451       0.275750
       4.650000       0.497416       1.896754       0.270238
       4.660000       0.491116       1.904525       0.265359
       4.670000       0.484651       1.906938       0.261334
       4.680000       0.478388       1.905087       0.258322
       4.690000       0.472628       1.900782       0.256422
       4.700000       0.467607       1.896278       0.255679
       4.710000       0.463492       1.893995       0.256095
       4.720000       0.460369       1.896241       0.257630
       4.730000       0.458224       1.904977       0.260215
       4.740000       0.456941       1.921631       0.263750
       4.750000       0.456328       1.946979       0.268102
       4.760000       0.456174       1.981115       0.273104
       4.770000       0.456323       2.023495       0.278553
       4.780000       0.456734       2.073067       0.284206
       4.790000       0.457504       2.128408       0.289784
       4.800000       0.458847       2.187825       0.294977
       4.810000       0.461027       2.249355       0.299465
       4.820000       0.464293       2.310686       0.302960
       4.830000       0.468818       2.369102       0.305243
       4.840000       0.474669       2.421572       0.306210
       4.850000       0.481802       2.465039       0.305889
       4.860000       0.490074       2.496878       0.304432
       4.870000       0.499287       2.515395       0.302063
       4.880000       0.509243       2.520222       0.299017
       4.890000       0.519811       2.512451       0.295500
       4.900000       0.530987       2.494435       0.291671
       4.910000       0.542921       2.469293       0.287652
       4.920000       0.555909       2.440274       0.283553
       4.930000       0.570342       2.410195       0.279478
       4.940000       0.586659       2.381111       0.275525
       4.950000       0.605291       2.354252       0.271766
       4.960000       0.626633       2.330170       0.268236
       4.970000       0.651029       2.308965       0.264943
       4.980000       0.678766       2.290479       0.261877
       4.990000       0.710076       2.274383       0.259042
       5.000000       0.745149       2.260181       0.256460
       5.010000       0.784152       2.247198       0.254172
       5.020000       0.827248       2.234657       0.252220
       5.030000       0.874597       2.221884       0.250620
       5.040000       0.926332       2.208590       0.249346
       5.050000       0.982489       2.195106       0.248326
       5.060000       1.042916       2.182445       0.247452
       5.070000       1.107161       2.172139       0.246614
       5.080000       1.174383       2.165920       0.245712
       5.090000       1.243317       2.165335       0.244679
       5.100000       1.312303       2.171395       0.243477
       5.110000       1.379412       2.184308       0.242096
       5.120000       1.442659       2.203325       0.240554
       5.130000       1.500261       2.226706       0.238895
       5.140000       1.550898       2.251852       0.237196
       5.150000       1.593893       2.275607       0.235555
       5.160000       1.629252       2.294728       0.234075
       5.170000       1.657568       2.306475       0.232851
       5.180000       1.679854       2.309179       0.231947
       5.190000       1.697364       2.302628       0.231382
       5.200000       1.711441       2.288095       0.231125
       5.210000       1.723377       2.267949       0.231092
       5.220000       1.734268       2.244967       0.231166
       5.230000       1.744865       2.221566       0.231216
       5.240000       1.755454       2.199211       0.231131
       5.250000       1.765812       2.178173       0.230846
       5.260000       1.775271       2.157677       0.230350
       5.270000       1.782881       2.136382       0.229680
       5.280000       1.787608       2.113010       0.228898
       5.290000       1.788492       2.086888       0.228068
       5.300000       1.784677       2.058208       0.227235
       5.310000       1.775354       2.027887       0.226422
       5.320000       1.759719       1.997165       0.225635
       5.330000       1.737035       1.967111       0.224873
       5.340000       1.706867       1.938287       0.224136
       5.350000       1.669368       1.910638       0.223421
       5.360000       1.625469       1.883628       0.222716
       5.370000       1.576868       1.856532       0.221984
       5.380000       1.525813       1.828766       0.221170
       5.390000       1.474769       1.800160       0.220206
       5.400000       1.426088       1.771096       0.219030
       5.410000       1.381741       1.742466       0.217603
       5.420000       1.343161       1.715489       0.215911
       5.430000       1.311185       1.691445       0.213983
       5.440000       1.286084       1.671437       0.211889
       5.450000       1.267660       1.656238       0.209751
       5.460000       1.255378       1.646261       0.207730
       5.470000       1.248510       1.641611       0.206003
       5.480000       1.246238       1.642144       0.204738
       5.490000       1.247716       1.647482       0.204064
       5.500000       1.252091       1.656977       0.204054
       5.510000       1.258552       1.669661       0.204719
       5.520000       1.266423       1.684254       0.206022
       5.530000       1.275290       1.699263       0.207883
       5.540000       1.285115       1.713176       0.210201
       5.550000       1.296260       1.724702       0.212868
       5.560000       1.309397       1.733008       0.215769
       5.570000       1.325314       1.737865       0.218797
       5.580000       1.344681       1.739667       0.221847
       5.590000       1.367846       1.739299       0.224819
       5.600000       1.394728       1.737918       0.227620
       5.610000       1.424817       1.736729       0.230161
       5.620000       1.457274       1.736825       0.232365
       5.630000       1.491063       1.739114       0.234165
       5.640000       1.525036       1.744322       0.235521
       5.650000       1.557972       1.753005       0.236415
       5.660000       1.588570       1.765558       0.236860
       5.670000       1.615491       1.782156       0.236890
       5.680000       1.637475       1.802670       0.236550
       5.690000       1.653558       1.826548       0.235894
       5.700000       1.663309       1.852764       0.234968
       5.710000       1.666995       1.879874       0.233804
       5.720000       1.665601       1.906225       0.232414
       5.730000       1.660641       1.930263       0.230785
       5.740000       1.653842       1.950857       0.228884
       5.750000       1.646761       1.967518       0.226671
       5.760000       1.640471       1.980436       0.224118
       5.770000       1.635402       1.990329       0.221225
       5.780000       1.631376       1.998156       0.218032
       5.790000       1.627784       2.004805       0.214618
       5.800000       1.623835       2.010830       0.211088
       5.810000       1.618757       2.016294       0.207556
       5.820000       1.611916       2.020735       0.204133
       5.830000       1.602814       2.023238       0.200910
       5.840000       1.591030       2.022630       0.197961
       5.850000       1.576138       2.017752       0.195344
       5.860000       1.557674       2.007776       0.193103
       5.870000       1.535189       1.992438       0.191278
       5.880000       1.508376       1.972106       0.189912
       5.890000       1.477203       1.947653       0.189055
       5.900000       1.442013       1.920187       0.188758
       5.910000       1.403547       1.890765       0.189070
       5.920000       1.362905       1.860184       0.190023
       5.930000       1.321440       1.828916       0.191627
       5.940000       1.280604       1.797211       0.193860
       5.950000       1.241780       1.765314       0.196667
       5.960000       1.206135       1.733739       0.199972
       5.970000       1.174516       1.703446       0.203683
       5.980000       1.147423       1.675850       0.207712
       5.990000       1.125041       1.652657       0.211982
       6.000000       1.107327       1.635593       0.216432
       6.010000       1.094118       1.626128       0.221001
       6.020000       1.085228       1.625251       0.225617
       6.030000       1.080479       1.633312       0.230183
       6.040000       1.079673       1.649932       0.234569
       6.050000       1.082525       1.673962       0.238634
       6.060000       1.088601       1.703528       0.242245
       6.070000       1.097320       1.736181       0.245311
       6.080000       1.108011       1.769175       0.247803
       6.090000       1.120027       1.799843       0.249765
       6.100000       1.132832       1.825981       0.251293
       6.110000       1.146040       1.846146       0.252509
       6.120000       1.159394       1.859770       0.253529
       6.130000       1.172720       1.867080       0.254440
       6.140000       1.185920       1.868876       0.255289
       6.150000       1.198998       1.866241       0.256083
       6.160000       1.212103       1.860270       0.256793
       6.170000       1.225525       1.851909       0.257364
       6.180000       1.239628       1.841935       0.257725
       6.190000       1.254758       1.831063       0.257792
       6.200000       1.271162       1.820077       0.257480
       6.210000       1.288955       1.809907       0.256709
       6.220000       1.308122       1.801572       0.255427
       6.230000       1.328523       1.796016       0.253625
       6.240000       1.349879       1.793901       0.251355
       6.250000       1.371731       1.795454       0.248741
       6.260000       1.393408       1.800429       0.245967
       6.270000       1.414053       1.808214       0.243252
       6.280000       1.432741       1.818035       0.240823
       6.290000       1.448690       1.829180       0.238877
       6.300000       1.461464       1.841143       0.237562
       6.310000       1.471090       1.853617       0.236965
       6.320000       1.477998       1.866362       0.237116
       6.330000       1.482816       1.878981       0.238001
       6.340000       1.486122       1.890737       0.239573
       6.350000       1.488253       1.900477       0.241765
       6.360000       1.489223       1.906735       0.244495
       6.370000       1.488770       1.908020       0.247670
       6.380000       1.486460       1.903199       0.251185
       6.390000       1.481843       1.891863       0.254927
       6.400000       1.474587       1.874546       0.258777
       6.410000       1.464595       1.852738       0.262617
       6.420000       1.452074       1.828680       0.266329
       6.430000       1.437557       1.805029       0.269812
       6.440000       1.421868       1.784456       0.272987
       6.450000       1.406030       1.769280       0.275815
       6.460000       1.391105       1.761203       0.278298
       6.470000       1.378009       1.761170       0.280482
       6.480000       1.367358       1.769347       0.282449
       6.490000       1.359384       1.785197       0.284298
       6.500000       1.353968       1.807618       0.286135
       6.510000       1.350767       1.835108       0.288057
       6.520000       1.349396       1.865913       0.290142
       6.530000       1.349584       1.898154       0.292437
       6.540000       1.351242       1.929958       0.294963
       6.550000       1.354414       1.959633       0.297717
       6.560000       1.359128       1.985872       0.300684
       6.570000       1.365218       2.007950       0.303852
       6.580000       1.372216       2.025796       0.307210
       6.590000       1.379361       2.039901       0.310745
       6.600000       1.385752       2.051104       0.314426
       6.610000       1.390574       2.060336       0.318190
       6.620000       1.393322       2.068392       0.321932
       6.630000       1.393918       2.075764       0.325518
       6.640000       1.392712       2.082534       0.328801
       6.650000       1.390375       2.088352       0.331655
       6.660000       1.387737       2.092504       0.333998
       6.670000       1.385625       2.094071       0.335810
       6.680000       1.384719       2.092154       0.337140
       6.690000       1.385479       2.086132       0.338094
       6.700000       1.388157       2.075893       0.338811
       6.710000       1.392889       2.061936       0.339428
       6.720000       1.399810       2.045312       0.340053
       6.730000       1.409097       2.027375       0.340736
       6.740000       1.420915       2.009446       0.341467
       6.750000       1.435277       1.992499       0.342186
       6.760000       1.451903       1.976971       0.342801
       6.770000       1.470150       1.962767       0.343206
       6.780000       1.489049       1.949437       0.343306
       6.790000       1.507410       1.936437       0.343036
       6.800000       1.523964       1.923393       0.342371
       6.810000       1.537500       1.910272       0.341332
       6.820000       1.547029       1.897455       0.339980
       6.830000       1.551984       1.885719       0.338395
       6.840000       1.552400       1.876142       0.336665
       6.850000       1.549001       1.869948       0.334871
       6.860000       1.543075       1.868297       0.333084
       6.870000       1.536180       1.872057       0.331367
       6.880000       1.529774       1.881610       0.329771
       6.890000       1.524924       1.896719       0.328334
       6.900000       1.522150       1.916476       0.327076
       6.910000       1.521434       1.939369       0.326001
       6.920000       1.522341       1.963465       0.325101
       6.930000       1.524226       1.986713       0.324372
       6.940000       1.526464       2.007313       0.323816
       6.950000       1.528666       2.024054       0.323456
       6.960000       1.530797       2.036522       0.323336
       6.970000       1.533178       2.045096       0.323515
       6.980000       1.536352       2.050727       0.324064
       6.990000       1.540914       2.054564       0.325055
       7.000000       1.547337       2.057539       0.326551
       7.010000       1.555883       2.060057       0.328595
       7.020000       1.566584       2.061894       0.331198
       7.030000       1.579287       2.062327       0.334324
       7.040000       1.593755       2.060458       0.337884
       7.050000       1.609786       2.055628       0.341733
       7.060000       1.627335       2.047784       0.345675
       7.070000       1.646588       2.037693       0.349485
       7.080000       1.667934       2.026931       0.352939
       7.090000       1.691848       2.017677       0.355860
       7.100000       1.718723       2.012385       0.358154
       7.110000       1.748730       2.013435       0.359832
       7.120000       1.781751       2.022862       0.360996
       7.130000       1.817412       2.042146       0.361804
       7.140000       1.855179       2.072097       0.362428
       7.150000       1.894466       2.112773       0.363014
       7.160000       1.934708       2.163437       0.363666
       7.170000       1.975352       2.222558       0.364451
       7.180000       2.015775       2.287857       0.365401
       7.190000       2.055183       2.356449       0.366532
       7.200000       2.092568       2.425116       0.367843
       7.210000       2.126799       2.490695       0.369311
       7.220000       2.156826       2.550525       0.370892
       7.230000       2.181930       2.602828       0.372519
       7.240000       2.201876       2.646870       0.374117
       7.250000       2.216910       2.682853       0.375607
       7.260000       2.227631       2.711587       0.376919
       7.270000       2.234824       2.734074       0.377993
       7.280000       2.239330       2.751164       0.378785
       7.290000       2.241950       2.763359       0.379267
       7.300000       2.243360       2.770799       0.379435
       7.310000       2.244025       2.773393       0.379324
       7.320000       2.244170       2.771036       0.379023
       7.330000       2.243832       2.763845       0.378679
       7.340000       2.243003       2.752340       0.378498
       7.350000       2.241758       2.737522       0.378730
       7.360000       2.240307       2.720807       0.379635
       7.370000       2.238920       2.703811       0.381446
       7.380000       2.237791       2.688051       0.384337
       7.390000       2.236939       2.674669       0.388396
       7.400000       2.236228       2.664318       0.393620
       7.410000       2.235518       2.657266       0.399924
       7.420000       2.234879       2.653686       0.407165
       7.430000       2.234739       2.653946       0.415173
       7.440000       2.235860       2.658753       0.423788
       7.450000       2.239146       2.669011       0.432887
       7.460000       2.245314       2.685453       0.442401
       7.470000       2.254583       2.708196       0.452327
       7.480000       2.266468       2.736383       0.462723
       7.490000       2.279772       2.768080       0.473710
       7.500000       2.292783       2.800451       0.485456
       7.510000       2.303600       2.830188       0.498161
       7.520000       2.310498       2.854071       0.512047
       7.530000       2.312238       2.869520       0.527339
       7.540000       2.308257       2.875002       0.544257
       7.550000       2.298736       2.870201       0.563010
       7.560000       2.284512       2.855922       0.583780
       7.570000       2.266880       2.833766       0.606719
       7.580000       2.247299       2.805735       0.631924
       7.590000       2.227111       2.773875       0.659418
       7.600000       2.207303       2.740065       0.689120
       7.610000       2.188362       2.705886       0.720830
       7.620000       2.170188       2.672512       0.754212
       7.630000       2.152094       2.640564       0.788819
       7.640000       2.132906       2.610008       0.824141
       7.650000       2.111186       2.580186       0.859671
       7.660000       2.085542       2.550054       0.894981
       7.670000       2.054954       2.518577       0.929753
       7.680000       2.019023       2.485146       0.963774
       7.690000       1.978069       2.449847       0.996876
       7.700000       1.933069       2.413488       1.028860
       7.710000       1.885481       2.377388       1.059417
       7.720000       1.837010       2.343050       1.088096
       7.730000       1.789383       2.311864       1.114323
       7.740000       1.744173       2.284940       1.137484
       7.750000       1.702676       2.263092       1.157040
       7.760000       1.665827       2.246918       1.172662
       7.770000       1.634152       2.236877       1.184330
       7.780000       1.607734       2.233314       1.192382
       7.790000       1.586215       2.236397       1.197474
       7.800000       1.568856       2.246013       1.200460
       7.810000       1.554650       2.261668       1.202224
       7.820000       1.542479       2.282419       1.203492
       7.830000       1.531275       2.306854       1.204694
       7.840000       1.520138       2.333141       1.205910
       7.850000       1.508414       2.359145       1.206926
       7.860000       1.495709       2.382627       1.207375
       7.870000       1.481882       2.401487       1.206935
       7.880000       1.466997       2.414045       1.205515
       7.890000       1.451270       2.419293       1.203360
       7.900000       1.434994       2.417073       1.201034
       7.910000       1.418473       2.408124       1.199295
       7.920000       1.401977       2.393999       1.198904
       7.930000       1.385719       2.376839       1.200424
       7.940000       1.369855       2.359060       1.204089
       7.950000       1.354485       2.342995       1.209740
       7.960000       1.339657       2.330573       1.216869
       7.970000       1.325356       2.323097       1.224721
       7.980000       1.311503       2.321166       1.232445
       7.990000       1.297947       2.324715       1.239243
       8.000000       1.284478       2.333133       1.244480
       8.010000       1.270856       2.345401       1.247738
       8.020000       1.256843       2.360216       1.248824
       8.030000       1.242248       2.376126       1.247740
       8.040000       1.226965       2.391697       1.244628
       8.050000       1.211008       2.405707       1.239718
       8.060000       1.194515       2.417328       1.233263
       8.070000       1.177730       2.426209       1.225499
       8.080000       1.160956       2.432432       1.216609
       8.090000       1.144492       2.436372       1.206711
       8.100000       1.128589       2.438545       1.195870
       8.110000       1.113408       2.439505       1.184125
       8.120000       1.098994       2.439794       1.171539
       8.130000       1.085260       2.439877       1.158250
       8.140000       1.071970       2.440031       1.144514
       8.150000       1.058761       2.440214       1.130708
       8.160000       1.045202       2.439960       1.117285
       8.170000       1.030890       2.438397       1.104701
       8.180000       1.015554       2.434376       1.093373
       8.190000       0.999117       2.426683       1.083658
       8.200000       0.981698       2.414255       1.075899
       8.210000       0.963544       2.396332       1.070467
       8.220000       0.944948       2.372526       1.067798
       8.230000       0.926174       2.342832       1.068386
       8.240000       0.907431       2.307593       1.072738
       8.250000       0.888884       2.267452       1.081315
       8.260000       0.870687       2.223317       1.094460
       8.270000       0.853017       2.176339       1.112360
       8.280000       0.836109       2.127871       1.135008
       8.290000       0.820270       2.079370       1.162197
       8.300000       0.805859       2.032256       1.193525
       8.310000       0.793249       1.987765       1.228406
       8.320000       0.782767       1.946855       1.266107
       8.330000       0.774639       1.910204       1.305781
       8.340000       0.768950       1.878264       1.346516
       8.350000       0.765627       1.851313       1.387375
       8.360000       0.764430       1.829473       1.427449
       8.370000       0.764967       1.812665       1.465925
       8.380000       0.766723       1.800544       1.502170
       8.390000       0.769114       1.792449       1.535820
       8.400000       0.771571       1.787434       1.566835
       8.410000       0.773646       1.784371       1.595500
       8.420000       0.775112       1.782102       1.622343
       8.430000       0.776024       1.779595       1.648004
       8.440000       0.776717       1.776046       1.673090
       8.450000       0.777728       1.770939       1.698057
       8.460000       0.779673       1.764045       1.723177
       8.470000       0.783103       1.755402       1.748565
       8.480000       0.788385       1.745235       1.774263
       8.490000       0.795622       1.733842       1.800314
       8.500000       0.804634       1.721467       1.826795
       8.510000       0.814982       1.708201       1.853768
       8.520000       0.826032       1.693931       1.881187
       8.530000       0.837031       1.678349       1.908774
       8.540000       0.847151       1.660969       1.935955
       8.550000       0.855517       1.641176       1.961865
       8.560000       0.861220       1.618290       1.985460
       8.570000       0.863374       1.591679       2.005673
       8.580000       0.861210       1.560904       2.021589
       8.590000       0.854227       1.525852       2.032572
       8.600000       0.842321       1.486819       2.038357
       8.610000       0.825860       1.444530       2.039071
       8.620000       0.805652       1.400082       2.035219
       8.630000       0.782817       1.354831       2.027590
       8.640000       0.758603       1.310254       2.017122
       8.650000       0.734199       1.267786       2.004711
       8.660000       0.710606       1.228687       1.991042
       8.670000       0.688580       1.193930       1.976481
       8.680000       0.668629       1.164150       1.961088
       8.690000       0.651053       1.139628       1.944752
       8.700000       0.635990       1.120326       1.927378
       8.710000       0.623452       1.105954       1.909069
       8.720000       0.613347       1.096053       1.890206
       8.730000       0.605497       1.090070       1.871413
       8.740000       0.599659       1.087410       1.853418
       8.750000       0.595548       1.087451       1.836885
       8.760000       0.592865       1.089529       1.822269
       8.770000       0.591314       1.092925       1.809759
       8.780000       0.590603       1.096876       1.799319
       8.790000       0.590442       1.100633       1.790810
       8.800000       0.590551       1.103557       1.784116
       8.810000       0.590684       1.105216       1.779245
       8.820000       0.590672       1.105417       1.776325
       8.830000       0.590460       1.104165       1.775539
       8.840000       0.590103       1.101548       1.777027
       8.850000       0.589736       1.097630       1.780811
       8.860000       0.589518       1.092382       1.786783
       8.870000       0.589584       1.085704       1.794737
       8.880000       0.590027       1.077488       1.804434
       8.890000       0.590904       1.067710       1.815658
       8.900000       0.592256       1.056491       1.828304
       8.910000       0.594123       1.044120       1.842446
       8.920000       0.596545       1.031036       1.858398
       8.930000       0.599546       1.017764       1.876731
       8.940000       0.603106       1.004834       1.898233
       8.950000       0.607135       0.992674       1.923829
       8.960000       0.611423       0.981535       1.954498
       8.970000       0.615618       0.971437       1.991190
       8.980000       0.619217       0.962183       2.034796
       8.990000       0.621621       0.953429       2.086141
       9.000000       0.622223       0.944793       2.146010
       9.010000       0.620542       0.935976       2.215160
       9.020000       0.616328       0.926866       2.294313
       9.030000       0.609625       0.917574       2.384101
       9.040000       0.600745       0.908412       2.484966
       9.050000       0.590194       0.899807       2.597048
       9.060000       0.578565       0.892204       2.720041
       9.070000       0.566462       0.885976       2.853062
       9.080000       0.554440       0.881385       2.994536
       9.090000       0.542968       0.878583       3.142148
       9.100000       0.532410       0.877653       3.292906
       9.110000       0.522999       0.878652       3.443327
       9.120000       0.514845       0.881644       3.589728
       9.130000       0.507952       0.886694       3.728506
       9.140000       0.502262       0.893835       3.856299
       9.150000       0.497689       0.903026       3.970012
       9.160000       0.494146       0.914116       4.066763
       9.170000       0.491538       0.926825       4.143910
       9.180000       0.489743       0.940751       4.199253
       9.190000       0.488601       0.955394       4.231371
       9.200000       0.487907       0.970202       4.239966
       9.210000       0.487430       0.984629       4.226018
       9.220000       0.486930       0.998219       4.191703
       9.230000       0.486182       1.010684       4.140087
       9.240000       0.484985       1.021987       4.074751
       9.250000       0.483193       1.032381       3.999422
       9.260000       0.480732       1.042399       3.917682
       9.270000       0.477633       1.052755       3.832724
       9.280000       0.474032       1.064191       3.747166
       9.290000       0.470148       1.077303       3.662951
       9.300000       0.466241       1.092425       3.581386
       9.310000       0.462550       1.109584       3.503323
       9.320000       0.459241       1.128548       3.429381
       9.330000       0.456386       1.148921       3.360103
       9.340000       0.453959       1.170269       3.295931
       9.350000       0.451863       1.192199       3.237040
       9.360000       0.449963       1.214394       3.183142
       9.370000       0.448114       1.236565       3.133408
       9.380000       0.446180       1.258348       3.086565
       9.390000       0.444047       1.279208       3.041173
       9.400000       0.441631       1.298407       2.995988
       9.410000       0.438877       1.315077       2.950296
       9.420000       0.435766       1.328402       2.904109
       9.430000       0.432306       1.337848       2.858165
       9.440000       0.428527       1.343328       2.813737
       9.450000       0.424471       1.345254       2.772321
       9.460000       0.420189       1.344419       2.735297
       9.470000       0.415746       1.341799       2.703630
       9.480000       0.411229       1.338333       2.677638
       9.490000       0.406757       1.334808       2.656878
       9.500000       0.402477       1.331839       2.640167
       9.510000       0.398558       1.329925       2.625782
       9.520000       0.395187       1.329505       2.611830
       9.530000       0.392556       1.330951       2.596712
       9.540000       0.390846       1.334521       2.579562
       9.550000       0.390209       1.340306       2.560487
       9.560000       0.390751       1.348218       2.540549
       9.570000       0.392523       1.358020       2.521464
       9.580000       0.395524       1.369369       2.505160
       9.590000       0.399704       1.381857       2.493315
       9.600000       0.404965       1.395021       2.486998
       9.610000       0.411153       1.408366       2.486463
       9.620000       0.418057       1.421377       2.491116
       9.630000       0.425409       1.433532       2.499615
       9.640000       0.432905       1.444331       2.510083
       9.650000       0.440234       1.453323       2.520402
       9.660000       0.447103       1.460162       2.528560
       9.670000       0.453268       1.464654       2.532989
       9.680000       0.458555       1.466763       2.532818
       9.690000       0.462879       1.466583       2.527966
       9.700000       0.466256       1.464281       2.519034
       9.710000       0.468781       1.460055       2.507054
       9.720000       0.470602       1.454113       2.493188
       9.730000       0.471868       1.446645       2.478470
       9.740000       0.472698       1.437789       2.463641
       9.750000       0.473164       1.427590       2.449106
       9.760000       0.473297       1.416021       2.434980
       9.770000       0.473102       1.403066       2.421188
       9.780000       0.472569       1.388859       2.407562
       9.790000       0.471674       1.373813       2.393907
       9.800000       0.470382       1.358667       2.380046
       9.810000       0.468660       1.344417       2.365861
       9.820000       0.466498       1.332144       2.351347
       9.830000       0.463927       1.322790       2.336698
       9.840000       0.461010       1.316948       2.322361
       9.850000       0.457826       1.314721       2.309041
       9.860000       0.454448       1.315674       2.297625
       9.870000       0.450934       1.318902       2.289024
       9.880000       0.447344       1.323184       2.283994
       9.890000       0.443755       1.327194       2.282971
       9.900000       0.440277       1.329718       2.285997
       9.910000       0.437052       1.329845       2.292733
       9.920000       0.434229       1.327114       2.302563
       9.930000       0.431944       1.321603       2.314737
       9.940000       0.430297       1.313939       2.328510
       9.950000       0.429341       1.305196       2.343220
       9.960000       0.429080       1.296668       2.358333
       9.970000       0.429483       1.289573       2.373447
       9.980000       0.430495       1.284757       2.388316
       9.990000       0.432052       1.282464       2.402872
      10.000000       0.434081       1.282234       2.417243
      10.010000       0.436507       1.282954       2.431730
      10.020000       0.439270       1.283050       2.446754
      10.030000       0.442346       1.280819       2.462787
      10.040000       0.445769       1.274795       2.480272
      10.050000       0.449638       1.264067       2.499546
      10.060000       0.454100       1.248443       2.520740
      10.070000       0.459314       1.228448       2.543670
      10.080000       0.465410       1.205154       2.567750
      10.090000       0.472437       1.179939       2.591951
      10.100000       0.480344       1.154223       2.614857
      10.110000       0.488965       1.129264       2.634828
      10.120000       0.498049       1.106045       2.650275
      10.130000       0.507309       1.085259       2.659970
      10.140000       0.516489       1.067358       2.663303
      10.150000       0.525423       1.052629       2.660427
      10.160000       0.534057       1.041234       2.652218
      10.170000       0.542431       1.033207       2.640114
      10.180000       0.550622       1.028419       2.625838
      10.190000       0.558694       1.026552       2.611094
      10.200000       0.566661       1.027124       2.597299
      10.210000       0.574485       1.029575       2.585379
      10.220000       0.582091       1.033394       2.575691
      10.230000       0.589373       1.038230       2.568037
      10.240000       0.596203       1.043952       2.561773
      10.250000       0.602441       1.050629       2.555962
      10.260000       0.607959       1.058479       2.549546
      10.270000       0.612690       1.067810       2.541515
      10.280000       0.616655       1.078994       2.531044
      10.290000       0.619972       1.092454       2.517600
      10.300000       0.622807       1.108671       2.500995
      10.310000       0.625321       1.128167       2.481381
      10.320000       0.627614       1.151482       2.459200
      10.330000       0.629728       1.179134       2.435094
      10.340000       0.631691       1.211561       2.409798
      10.350000       0.633583       1.249045       2.384047
      10.360000       0.635569       1.291622       2.358479
      10.370000       0.637878       1.338996       2.333592
      10.380000       0.640743       1.390480       2.309725
      10.390000       0.644324       1.444985       2.287070
      10.400000       0.648657       1.501071       2.265674
      10.410000       0.653631       1.557061       2.245418
      10.420000       0.659019       1.611197       2.226003
      10.430000       0.664513       1.661819       2.206979
      10.440000       0.669791       1.707513       2.187844
      10.450000       0.674568       1.747227       2.168208
      10.460000       0.678639       1.780325       2.147944
      10.470000       0.681903       1.806592       2.127273
      10.480000       0.684364       1.826160       2.106721
      10.490000       0.686106       1.839374       2.086993
      10.500000       0.687238       1.846633       2.068793
      10.510000       0.687834       1.848268       2.052679
      10.520000       0.687889       1.844516       2.038975
      10.530000       0.687317       1.835580       2.027750
      10.540000       0.685990       1.821719       2.018831
      10.550000       0.683804       1.803305       2.011839
      10.560000       0.680729       1.780828       2.006226
      10.570000       0.676832       1.754864       2.001315
      10.580000       0.672259       1.726045       1.996352
      10.590000       0.667200       1.695049       1.990581
      10.600000       0.661858       1.662579       1.983335
      10.610000       0.656413       1.629318       1.974144
      10.620000       0.651021       1.595865       1.962819
      10.630000       0.645811       1.562678       1.949477
      10.640000       0.640898       1.530049       1.934487
      10.650000       0.636400       1.498123       1.918359
      10.660000       0.632442       1.466938       1.901630
      10.670000       0.629143       1.436495       1.884774
      10.680000       0.626599       1.406810       1.868167
      10.690000       0.624863       1.377972       1.852090
      10.700000       0.623926       1.350151       1.836729
      10.710000       0.623722       1.323588       1.822183
      10.720000       0.624139       1.298550       1.808451
      10.730000       0.625042       1.275268       1.795441
      10.740000       0.626295       1.253883       1.783000
      10.750000       0.627764       1.234398       1.770985
      10.760000       0.629306       1.216668       1.759335
      10.770000       0.630742       1.200414       1.748139
      10.780000       0.631831       1.185264       1.737648
      10.790000       0.632275       1.170811       1.728248
      10.800000       0.631767       1.156672       1.720397
      10.810000       0.630056       1.142538       1.714554
      10.820000       0.627016       1.128202       1.711110
      10.830000       0.622685       1.113586       1.710334
      10.840000       0.617253       1.098746       1.712336
      10.850000       0.611021       1.083866       1.717069
      10.860000       0.604329       1.069243       1.724352
      10.870000       0.597485       1.055260       1.733927
      10.880000       0.590715       1.042351       1.745530
      10.890000       0.584137       1.030950       1.758958
      10.900000       0.577781       1.021427       1.774112
      10.910000       0.571627       1.014016       1.790994
      10.920000       0.565659       1.008762       1.809669
      10.930000       0.559885       1.005504       1.830209
      10.940000       0.554351       1.003917       1.852671
      10.950000       0.549121       1.003610       1.877115
      10.960000       0.544269       1.004260       1.903658
      10.970000       0.539864       1.005706       1.932521
      10.980000       0.535967       1.007981       1.964041
      10.990000       0.532629       1.011248       1.998638
      11.000000       0.529884       1.015657       2.036754
      11.010000       0.527751       1.021211       2.078794
      11.020000       0.526227       1.027670       2.125101
      11.030000       0.525297       1.034554       2.175952
      11.040000       0.524940       1.041233       2.231576
      11.050000       0.525137       1.047048       2.292150
      11.060000       0.525879       1.051417       2.357751
      11.070000       0.527156       1.053892       2.428243
      11.080000       0.528938       1.054169       2.503118
      11.090000       0.531140       1.052069       2.581319
      11.100000       0.533597       1.047524       2.661110
      11.110000       0.536063       1.040580       2.740022
      11.120000       0.538247       1.031397       2.814942
      11.130000       0.539878       1.020273       2.882347
      11.140000       0.540771       1.007643       2.938677
      11.150000       0.540877       0.994038       2.980801
      11.160000       0.540286       0.980008       3.006452
      11.170000       0.539181       0.965994       3.014531
      11.180000       0.537783       0.952229       3.005194
      11.190000       0.536287       0.938688       2.979732
      11.200000       0.534837       0.925119       2.940279
      11.210000       0.533531       0.911156       2.889461
      11.220000       0.532438       0.896459       2.830033
      11.230000       0.531619       0.880844       2.764565
      11.240000       0.531131       0.864356       2.695219
      11.250000       0.531017       0.847269       2.623638
      11.260000       0.531301       0.830015       2.550961
      11.270000       0.531988       0.813086       2.477934
      11.280000       0.533074       0.796931       2.405052
      11.290000       0.534559       0.781878       2.332688
      11.300000       0.536454       0.768098       2.261185
      11.310000       0.538790       0.755609       2.190897
      11.320000       0.541610       0.744311       2.122210
      11.330000       0.544957       0.734051       2.055536
      11.340000       0.548858       0.724679       1.991320
      11.350000       0.553308       0.716088       1.930038
      11.360000       0.558252       0.708217       1.872209
      11.370000       0.563580       0.701028       1.818385
      11.380000       0.569129       0.694481       1.769114
      11.390000       0.574697       0.688500       1.724870
      11.400000       0.580073       0.682968       1.685963
      11.410000       0.585055       0.677728       1.652478
      11.420000       0.589477       0.672594       1.624248
      11.430000       0.593205       0.667361       1.600888
      11.440000       0.596132       0.661821       1.581845
      11.450000       0.598172       0.655761       1.566450
      11.460000       0.599258       0.648966       1.553959
      11.470000       0.599365       0.641217       1.543585
      11.480000       0.598549       0.632299       1.534549
      11.490000       0.596975       0.622016       1.526145
      11.500000       0.594929       0.610234       1.517808
      11.510000       0.592792       0.596923       1.509154
      11.520000       0.590986       0.582213       1.500002
      11.530000       0.589905       0.566412       1.490353
      11.540000       0.589859       0.549998       1.480342
      11.550000       0.591037       0.533562       1.470169
      11.560000       0.593511       0.517724       1.460030
      11.570000       0.597257       0.503065       1.450061
      11.580000       0.602188       0.490065       1.440305
      11.590000       0.608205       0.479076       1.430702
      11.600000       0.615223       0.470323       1.421098
      11.610000       0.623199       0.463904       1.411277
      11.620000       0.632138       0.459798       1.400998
      11.630000       0.642076       0.457869       1.390032
      11.640000       0.653043       0.457862       1.378192
      11.650000       0.665020       0.459411       1.365336
      11.660000       0.677884       0.462046       1.351362
      11.670000       0.691375       0.465236       1.336203
      11.680000       0.705088       0.468445       1.319853
      11.690000       0.718507       0.471211       1.302404
      11.700000       0.731071       0.473222       1.284088
      11.710000       0.742270       0.474349       1.265284
      11.720000       0.751746       0.474629       1.246478
      11.730000       0.759355       0.474205       1.228172
      11.740000       0.765198       0.473244       1.210787
      11.750000       0.769610       0.471874       1.194586
      11.760000       0.773109       0.470150       1.179648
      11.770000       0.776321       0.468053       1.165917
      11.780000       0.779890       0.465502       1.153282
      11.790000       0.784388       0.462386       1.141665
      11.800000       0.790229       0.458586       1.131080
      11.810000       0.797622       0.454001       1.121638
      11.820000       0.806537       0.448570       1.113507
      11.830000       0.816697       0.442283       1.106827
      11.840000       0.827585       0.435181       1.101616
      11.850000       0.838497       0.427355       1.097690
      11.860000       0.848634       0.418931       1.094621
      11.870000       0.857260       0.410062       1.091750
      11.880000       0.863870       0.400908       1.088269
      11.890000       0.868322       0.391635       1.083335
      11.900000       0.870880       0.382398       1.076208
      11.910000       0.872154       0.373350       1.066385
      11.920000       0.872970       0.364623       1.053682
      11.930000       0.874209       0.356326       1.038265
      11.940000       0.876658       0.348524       1.020600
      11.950000       0.880890       0.341227       1.001345
      11.960000       0.887177       0.334392       0.981217
      11.970000       0.895447       0.327940       0.960878
      11.980000       0.905300       0.321781       0.940861
      11.990000       0.916084       0.315847       0.921553
      12.000000       0.927045       0.310110       0.903210
      12.010000       0.937520       0.304590       0.885991
      12.020000       0.947122       0.299348       0.869976
      12.030000       0.955863       0.294475       0.855180
      12.040000       0.964157       0.290076       0.841547
      12.050000       0.972714       0.286250       0.828946
      12.060000       0.982379       0.283074       0.817181
      12.070000       0.993959       0.280593       0.806003
      12.080000       1.008087       0.278807       0.795127
      12.090000       1.025118       0.277671       0.784258
      12.100000       1.045063       0.277094       0.773110
      12.110000       1.067559       0.276959       0.761446
      12.120000       1.091908       0.277136       0.749116
      12.130000       1.117196       0.277506       0.736105
      12.140000       1.142482       0.277971       0.722546
      12.150000       1.167022       0.278452       0.708707
      12.160000       1.190417       0.278874       0.694936
      12.170000       1.212652       0.279146       0.681589
      12.180000       1.233981       0.279149       0.668972
      12.190000       1.254737       0.278750       0.657314
      12.200000       1.275139       0.277837       0.646775
      12.210000       1.295168       0.276355       0.637480
      12.220000       1.314543       0.274335       0.629543
      12.230000       1.332814       0.271900       0.623078
      12.240000       1.349522       0.269239       0.618178
      12.250000       1.364397       0.266568       0.614905
      12.260000       1.377498       0.264096       0.613272
      12.270000       1.389264       0.261990       0.613242
      12.280000       1.400439       0.260358       0.614720
      12.290000       1.411914       0.259251       0.617535
      12.300000       1.424512       0.258671       0.621418
      12.310000       1.438794       0.258585       0.625991
      12.320000       1.454923       0.258943       0.630771
      12.330000       1.472617       0.259694       0.635192
      12.340000       1.491175       0.260794       0.638658
      12.350000       1.509587       0.262215       0.640618
      12.360000       1.526710       0.263940       0.640644
      12.370000       1.541497       0.265949       0.638504
      12.380000       1.553204       0.268204       0.634201
      12.390000       1.561506       0.270640       0.627978
      12.400000       1.566472       0.273159       0.620274
      12.410000       1.568438       0.275640       0.611644
      12.420000       1.567843       0.277951       0.602664
      12.430000       1.565120       0.279962       0.593847
      12.440000       1.560635       0.281544       0.585584
      12.450000       1.554656       0.282565       0.578119
      12.460000       1.547310       0.282892       0.571565
      12.470000       1.538511       0.282395       0.565941
      12.480000       1.527912       0.280971       0.561220
      12.490000       1.514931       0.278572       0.557366
      12.500000       1.498896       0.275238       0.554353
      12.510000       1.479274       0.271111       0.552154
      12.520000       1.455900       0.266420       0.550722
      12.530000       1.429121       0.261437       0.549966
      12.540000       1.399801       0.256425       0.549752
      12.550000       1.369176       0.251592       0.549912
      12.560000       1.338616       0.247075       0.550263
      12.570000       1.309367       0.242936       0.550620
      12.580000       1.282358       0.239184       0.550803
      12.590000       1.258131       0.235804       0.550640
      12.600000       1.236884       0.232774       0.549981
      12.610000       1.218611       0.230088       0.548715
      12.620000       1.203268       0.227750       0.546795
      12.630000       1.190904       0.225778       0.544253
      12.640000       1.181721       0.224199       0.541204
      12.650000       1.176036       0.223034       0.537849
      12.660000       1.174160       0.222305       0.534440
      12.670000       1.176266       0.222026       0.531253
      12.680000       1.182276       0.222201       0.528533
      12.690000       1.191819       0.222823       0.526455
      12.700000       1.204278       0.223873       0.525100
      12.710000       1.218898       0.225316       0.524458
      12.720000       1.234921       0.227111       0.524452
      12.730000       1.251688       0.229219       0.524972
      12.740000       1.268668       0.231617       0.525898
      12.750000       1.285411       0.234302       0.527122
      12.760000       1.301471       0.237291       0.528556
      12.770000       1.316352       0.240612       0.530138
      12.780000       1.329525       0.244299       0.531841
      12.790000       1.340505       0.248375       0.533681
      12.800000       1.348928       0.252854       0.535701
      12.810000       1.354558       0.257733       0.537948
      12.820000       1.357232       0.263000       0.540427
      12.830000       1.356770       0.268626       0.543057
      12.840000       1.352927       0.274569       0.545654
      12.850000       1.345428       0.280755       0.547931
      12.860000       1.334062       0.287074       0.549531
      12.870000       1.318813       0.293366       0.550075
      12.880000       1.299972       0.299431       0.549213
      12.890000       1.278194       0.305043       0.546680
      12.900000       1.254480       0.309975       0.542345
      12.910000       1.230067       0.314034       0.536252
      12.920000       1.206268       0.317089       0.528633
      12.930000       1.184297       0.319089       0.519890
      12.940000       1.165116       0.320080       0.510541
      12.950000       1.149356       0.320199       0.501134
      12.960000       1.137298       0.319657       0.492171
      12.970000       1.128919       0.318705       0.484041
      12.980000       1.123937       0.317593       0.477000
      12.990000       1.121863       0.316532       0.471178
      13.000000       1.122023       0.315673       0.466621
      13.010000       1.123593       0.315104       0.463335
      13.020000       1.125663       0.314870       0.461324
      13.030000       1.127365       0.314993       0.460594
      13.040000       1.128033       0.315502       0.461154
      13.050000       1.127355       0.316448       0.462977
      13.060000       1.125420       0.317900       0.465964
      13.070000       1.122657       0.319942       0.469907
      13.080000       1.119659       0.322649       0.474469
      13.090000       1.116977       0.326068       0.479191
      13.100000       1.114957       0.330208       0.483518
      13.110000       1.113672       0.335032       0.486863
      13.120000       1.112969       0.340454       0.488669
      13.130000       1.112587       0.346355       0.488493
      13.140000       1.112293       0.352596       0.486074
      13.150000       1.111986       0.359044       0.481379
      13.160000       1.111730       0.365589       0.474595
      13.170000       1.111734       0.372158       0.466085
      13.180000       1.112269       0.378722       0.456312
      13.190000       1.113591       0.385295       0.445755
      13.200000       1.115874       0.391918       0.434856
      13.210000       1.119193       0.398631       0.423993
      13.220000       1.123539       0.405455       0.413485
      13.230000       1.128867       0.412366       0.403605
      13.240000       1.135144       0.419288       0.394601
      13.250000       1.142371       0.426105       0.386696
      13.260000       1.150577       0.432682       0.380084
      13.270000       1.159760       0.438908       0.374914
      13.280000       1.169790       0.444728       0.371275
      13.290000       1.180327       0.450166       0.369183
      13.300000       1.190782       0.455324       0.368576
      13.310000       1.200375       0.460368       0.369306
      13.320000       1.208270       0.465487       0.371144
      13.330000       1.213728       0.470855       0.373795
      13.340000       1.216202       0.476594       0.376908
      13.350000       1.215328       0.482747       0.380119
      13.360000       1.210854       0.489271       0.383078
      13.370000       1.202575       0.496063       0.385496
      13.380000       1.190349       0.502981       0.387172
      13.390000       1.174194       0.509885       0.388014
      13.400000       1.154381       0.516654       0.388032
      13.410000       1.131460       0.523188       0.387300
      13.420000       1.106188       0.529413       0.385916
      13.430000       1.079378       0.535279       0.383949
      13.440000       1.051769       0.540774       0.381416
      13.450000       1.023951       0.545943       0.378281
      13.460000       0.996362       0.550887       0.374487
      13.470000       0.969332       0.555757       0.369993
      13.480000       0.943136       0.560726       0.364822
      13.490000       0.918022       0.565959       0.359079
      13.500000       0.894237       0.571590       0.352959
      13.510000       0.872035       0.577714       0.346724
      13.520000       0.851694       0.584400       0.340663
      13.530000       0.833516       0.591698       0.335054
      13.540000       0.817803       0.599647       0.330124
      13.550000       0.804816       0.608265       0.326029
      13.560000       0.794725       0.617514       0.322834
      13.570000       0.787565       0.627266       0.320527
      13.580000       0.783230       0.637283       0.319027
      13.590000       0.781490       0.647233       0.318213
      13.600000       0.782039       0.656731       0.317944
      13.610000       0.784553       0.665398       0.318088
      13.620000       0.788735       0.672908       0.318532
      13.630000       0.794327       0.679010       0.319197
      13.640000       0.801098       0.683533       0.320036
      13.650000       0.808828       0.686380       0.321034
      13.660000       0.817305       0.687550       0.322192
      13.670000       0.826354       0.687154       0.323523
      13.680000       0.835870       0.685433       0.325031
      13.690000       0.845834       0.682752       0.326704
      13.700000       0.856274       0.679561       0.328493
      13.710000       0.867188       0.676335       0.330295
      13.720000       0.878459       0.673514       0.331948
      13.730000       0.889810       0.671440       0.333239
      13.740000       0.900823       0.670331       0.333928
      13.750000       0.911003       0.670274       0.333802
      13.760000       0.919860       0.671257       0.332718
      13.770000       0.926979       0.673200       0.330654
      13.780000       0.932060       0.675987       0.327717
      13.790000       0.934946       0.679456       0.324134
      13.800000       0.935618       0.683382       0.320203
      13.810000       0.934191       0.687454       0.316241
      13.820000       0.930903       0.691272       0.312532
      13.830000       0.926086       0.694385       0.309289
      13.840000       0.920153       0.696339       0.306646
      13.850000       0.913557       0.696764       0.304660
      13.860000       0.906753       0.695425       0.303326
      13.870000       0.900154       0.692272       0.302602
      13.880000       0.894082       0.687422       0.302418
      13.890000       0.888748       0.681121       0.302698
      13.900000       0.884249       0.673687       0.303359
      13.910000       0.880601       0.665473       0.304319
      13.920000       0.877774       0.656866       0.305495
      13.930000       0.875703       0.648288       0.306799
      13.940000       0.874276       0.640203       0.308141
      13.950000       0.873312       0.633092       0.309438
      13.960000       0.872549       0.627404       0.310627
      13.970000       0.871659       0.623508       0.311675
      13.980000       0.870283       0.621634       0.312579
      13.990000       0.868044       0.621845       0.313354
      14.000000       0.864545       0.624020       0.314020
      14.010000       0.859353       0.627864       0.314593
      14.020000       0.852030       0.632952       0.315089
      14.030000       0.842217       0.638777       0.315538
      14.040000       0.829777       0.644822       0.315997
      14.050000       0.814914       0.650612       0.316552
      14.060000       0.798210       0.655751       0.317321
      14.070000       0.780542       0.659930       0.318432
      14.080000       0.762917       0.662923       0.320017
      14.090000       0.746289       0.664577       0.322191
      14.100000       0.731408       0.664825       0.325041
      14.110000       0.718745       0.663705       0.328625
      14.120000       0.708481       0.661364       0.332963
      14.130000       0.700547       0.658044       0.338046
      14.140000       0.694710       0.654028       0.343841
      14.150000       0.690649       0.649594       0.350301
      14.160000       0.688030       0.644977       0.357377
      14.170000       0.686545       0.640367       0.365016
      14.180000       0.685921       0.635932       0.373163
      14.190000       0.685907       0.631839       0.381748
      14.200000       0.686262       0.628260       0.390677
      14.210000       0.686756       0.625358       0.399825
      14.220000       0.687185       0.623265       0.409044
      14.230000       0.687402       0.622058       0.418190
      14.240000       0.687351       0.621745       0.427157
      14.250000       0.687074       0.622278       0.435905
      14.260000       0.686698       0.623570       0.444469
      14.270000       0.686390       0.625508       0.452951
      14.280000       0.686308       0.627963       0.461492
      14.290000       0.686556       0.630782       0.470239
      14.300000       0.687164       0.633779       0.479324
      14.310000       0.688090       0.636723       0.488840
      14.320000       0.689219       0.639345       0.498836
      14.330000       0.690349       0.641355       0.509305
      14.340000       0.691176       0.642478       0.520185
      14.350000       0.691299       0.642492       0.531354
      14.360000       0.690275       0.641256       0.542638
      14.370000       0.687716       0.638723       0.553820
      14.380000       0.683390       0.634942       0.564661
      14.390000       0.677288       0.630041       0.574921
      14.400000       0.669623       0.624205       0.584396
      14.410000       0.660768       0.617668       0.592935
      14.420000       0.651158       0.610702       0.600445
      14.430000       0.641204       0.603603       0.606879
      14.440000       0.631241       0.596684       0.612197
      14.450000       0.621521       0.590250       0.616334
      14.460000       0.612235       0.584579       0.619181
      14.470000       0.603550       0.579895       0.620590
      14.480000       0.595627       0.576350       0.620399
      14.490000       0.588614       0.574025       0.618469
      14.500000       0.582630       0.572929       0.614718
      14.510000       0.577736       0.573018       0.609142
      14.520000       0.573937       0.574223       0.601825
      14.530000       0.571209       0.576476       0.592946
      14.540000       0.569553       0.579727       0.582778
      14.550000       0.569027       0.583940       0.571671
      14.560000       0.569756       0.589061       0.560031
      14.570000       0.571893       0.594979       0.548274
      14.580000       0.575545       0.601481       0.536785
      14.590000       0.580709       0.608233       0.525874
      14.600000       0.587231       0.614806       0.515735
      14.610000       0.594808       0.620740       0.506433
      14.620000       0.603029       0.625643       0.497899
      14.630000       0.611438       0.629285       0.489958
      14.640000       0.619602       0.631637       0.482362
      14.650000       0.627164       0.632857       0.474843
      14.660000       0.633869       0.633229       0.467154
      14.670000       0.639564       0.633084       0.459111
      14.680000       0.644171       0.632746       0.450619
      14.690000       0.647652       0.632495       0.441685
      14.700000       0.649979       0.632550       0.432402
      14.710000       0.651138       0.633057       0.422927
      14.720000       0.651144       0.634085       0.413442
      14.730000       0.650068       0.635629       0.404116
      14.740000       0.648038       0.637619       0.395079
      14.750000       0.645204       0.639941       0.386402
      14.760000       0.641669       0.642447       0.378110
      14.770000       0.637444       0.644972       0.370198
      14.780000       0.632442       0.647345       0.362656
      14.790000       0.626541       0.649404       0.355489
      14.800000       0.619661       0.651011       0.348713
      14.810000       0.611834       0.652067       0.342345
      14.820000       0.603214       0.652519       0.336375
      14.830000       0.594033       0.652356       0.330763
      14.840000       0.584543       0.651587       0.325432
      14.850000       0.574975       0.650212       0.320285
      14.860000       0.565528       0.648185       0.315234
      14.870000       0.556369       0.645398       0.310221
      14.880000       0.547625       0.641684       0.305239
      14.890000       0.539376       0.636866       0.300335
      14.900000       0.531627       0.630816       0.295597
      14.910000       0.524283       0.623523       0.291138
      14.920000       0.517148       0.615128       0.287064
      14.930000       0.509947       0.605915       0.283468
      14.940000       0.502388       0.596251       0.280420
      14.950000       0.494245       0.586511       0.277960
      14.960000       0.485418       0.577000       0.276109
      14.970000       0.475974       0.567924       0.274859
      14.980000       0.466127       0.559381       0.274177
      14.990000       0.456183       0.551401       0.274003
      15.000000       0.446469       0.543981       0.274256
      15.010000       0.437270       0.537122       0.274838
      15.020000       0.428794       0.530841       0.275652
      15.030000       0.421172       0.525184       0.276614
      15.040000       0.414482       0.520215       0.277664
      15.050000       0.408783       0.516010       0.278770
      15.060000       0.404132       0.512640       0.279923
      15.070000       0.400588       0.510149       0.281123
      15.080000       0.398192       0.508533       0.282371
      15.090000       0.396952       0.507723       0.283657
      15.100000       0.396828       0.507582       0.284966
      15.110000       0.397733       0.507901       0.286280
      15.120000       0.399548       0.508427       0.287584
      15.130000       0.402146       0.508882       0.288869
      15.140000       0.405414       0.508996       0.290122
      15.150000       0.409279       0.508541       0.291321
      15.160000       0.413713       0.507354       0.292432
      15.170000       0.418731       0.505350       0.293403
      15.180000       0.424364       0.502522       0.294183
      15.190000       0.430620       0.498907       0.294732
      15.200000       0.437441       0.494555       0.295039
      15.210000       0.444661       0.489497       0.295135
      15.220000       0.451993       0.483739       0.295087
      15.230000       0.459039       0.477270       0.294994
      15.240000       0.465341       0.470091       0.294958
      15.250000       0.470444       0.462235       0.295077
      15.260000       0.473981       0.453778       0.295431
      15.270000       0.475759       0.444836       0.296075
      15.280000       0.475813       0.435549       0.297044
      15.290000       0.474429       0.426065       0.298359
      15.300000       0.472099       0.416517       0.300029
      15.310000       0.469435       0.407013       0.302067
      15.320000       0.467060       0.397639       0.304493
      15.330000       0.465504       0.388458       0.307349
      15.340000       0.465138       0.379523       0.310702
      15.350000       0.466141       0.370883       0.314631
      15.360000       0.468504       0.362587       0.319218
      15.370000       0.472052       0.354683       0.324529
      15.380000       0.476491       0.347219       0.330608
      15.390000       0.481471       0.340243       0.337483
      15.400000       0.486652       0.333811       0.345180
      15.410000       0.491778       0.327983       0.353737
      15.420000       0.496717       0.322817       0.363207
      15.430000       0.501489       0.318363       0.373661
      15.440000       0.506236       0.314645       0.385165
      15.450000       0.511171       0.311654       0.397764
      15.460000       0.516498       0.309345       0.411466
      15.470000       0.522345       0.307633       0.426228
      15.480000       0.528715       0.306407       0.441963
      15.490000       0.535474       0.305545       0.458540
      15.500000       0.542376       0.304919       0.475807
      15.510000       0.549089       0.304418       0.493597
      15.520000       0.555245       0.303945       0.511743
      15.530000       0.560479       0.303424       0.530071
      15.540000       0.564471       0.302794       0.548402
      15.550000       0.566994       0.302015       0.566542
      15.560000       0.567936       0.301073       0.584278
      15.570000       0.567304       0.299986       0.601384
      15.580000       0.565190       0.298810       0.617632
      15.590000       0.561727       0.297633       0.632812
      15.600000       0.557046       0.296555       0.646753
      15.610000       0.551255       0.295669       0.659330
      15.620000       0.544437       0.295026       0.670460
      15.630000       0.536668       0.294629       0.680083
      15.640000       0.528056       0.294420       0.688143
      15.650000       0.518761       0.294301       0.694577
      15.660000       0.509009       0.294147       0.699319
      15.670000       0.499068       0.293834       0.702329
      15.680000       0.489209       0.293258       0.703618
      15.690000       0.479672       0.292354       0.703270
      15.700000       0.470638       0.291105       0.701446
      15.710000       0.462234       0.289550       0.698364
      15.720000       0.454542       0.287768       0.694277
      15.730000       0.447610       0.285866       0.689447
      15.740000       0.441462       0.283954       0.684121
      15.750000       0.436091       0.282130       0.678522
      15.760000       0.431456       0.280462       0.672838
      15.770000       0.427477       0.278986       0.667213
      15.780000       0.424040       0.277701       0.661740
      15.790000       0.421009       0.276584       0.656441
      15.800000       0.418251       0.275599       0.651264
      15.810000       0.415656       0.274717       0.646076
      15.820000       0.413164       0.273919       0.640683
      15.830000       0.410760       0.273199       0.634864
      15.840000       0.408474       0.272560       0.628426
      15.850000       0.406345       0.272004       0.621261
      15.860000       0.404403       0.271527       0.613386
      15.870000       0.402640       0.271125       0.604944
      15.880000       0.401006       0.270788       0.596175
      15.890000       0.399421       0.270510       0.587350
      15.900000       0.397794       0.270283       0.578709
      15.910000       0.396052       0.270100       0.570415
      15.920000       0.394162       0.269957       0.562542
      15.930000       0.392139       0.269851       0.555086
      15.940000       0.390054       0.269778       0.547999
      15.950000       0.388022       0.269725       0.541215
      15.960000       0.386187       0.269667       0.534666
      15.970000       0.384699       0.269574       0.528290
      15.980000       0.383686       0.269408       0.522027
      15.990000       0.383239       0.269138       0.515812
      16.000000       0.383412       0.268731       0.509578
      16.010000       0.384217       0.268153       0.503256
      16.020000       0.385633       0.267358       0.496777
      16.030000       0.387614       0.266290       0.490081
      16.040000       0.390093       0.264891       0.483115
      16.050000       0.392993       0.263115       0.475836
      16.060000       0.396233       0.260943       0.468206
      16.070000       0.399742       0.258387       0.460179
      16.080000       0.403467       0.255492       0.451699
      16.090000       0.407379       0.252332       0.442703
      16.100000       0.411476       0.248999       0.433125
      16.110000       0.415779       0.245602       0.422918
      16.120000       0.420321       0.242258       0.412064
      16.130000       0.425129       0.239073       0.400580
      16.140000       0.430217       0.236133       0.388523
      16.150000       0.435590       0.233494       0.375980
      16.160000       0.441264       0.231177       0.363068
      16.170000       0.447281       0.229177       0.349925
      16.180000       0.453719       0.227477       0.336708
      16.190000       0.460677       0.226050       0.323591
      16.200000       0.468231       0.224873       0.310748
      16.210000       0.476381       0.223919       0.298335
      16.220000       0.484987       0.223158       0.286473
      16.230000       0.493744       0.222546       0.275240
      16.240000       0.502185       0.222021       0.264671
      16.250000       0.509742       0.221507       0.254765
      16.260000       0.515849       0.220918       0.245503
      16.270000       0.520049       0.220174       0.236852
      16.280000       0.522082       0.219216       0.228778
      16.290000       0.521910       0.218023       0.221252
      16.300000       0.519694       0.216612       0.214252
      16.310000       0.515730       0.215033       0.207771
      16.320000       0.510391       0.213357       0.201811
      16.330000       0.504071       0.211657       0.196379
      16.340000       0.497140       0.209993       0.191483
      16.350000       0.489898       0.208407       0.187124
      16.360000       0.482529       0.206919       0.183296
      16.370000       0.475079       0.205535       0.179980
      16.380000       0.467475       0.204248       0.177152
      16.390000       0.459571       0.203052       0.174782
      16.400000       0.451227       0.201949       0.172838
      16.410000       0.442380       0.200953       0.171284
      16.420000       0.433085       0.200092       0.170087
      16.430000       0.423512       0.199404       0.169209
      16.440000       0.413910       0.198935       0.168614
      16.450000       0.404553       0.198732       0.168259
      16.460000       0.395694       0.198841       0.168100
      16.470000       0.387533       0.199302       0.168087
      16.480000       0.380204       0.200147       0.168167
      16.490000       0.373775       0.201398       0.168285
      16.500000       0.368267       0.203065       0.168393
      16.510000       0.363664       0.205139       0.168449
      16.520000       0.359927       0.207587       0.168428
      16.530000       0.356997       0.210345       0.168325
      16.540000       0.354798       0.213312       0.168152
      16.550000       0.353224       0.216349       0.167938
      16.560000       0.352146       0.219279       0.167721
      16.570000       0.351403       0.221904       0.167534
      16.580000       0.350822       0.224022       0.167399
      16.590000       0.350229       0.225459       0.167321
      16.600000       0.349480       0.226099       0.167283
      16.610000       0.348481       0.225902       0.167254
      16.620000       0.347201       0.224913       0.167198
      16.630000       0.345672       0.223252       0.167079
      16.640000       0.343965       0.221089       0.166872
      16.650000       0.342162       0.218615       0.166568
      16.660000       0.340329       0.216015       0.166169
      16.670000       0.338507       0.213449       0.165691
      16.680000       0.336713       0.211036       0.165158
      16.690000       0.334953       0.208858       0.164593
      16.700000       0.333226       0.206960       0.164023
      16.710000       0.331531       0.205367       0.163465
      16.720000       0.329868       0.204086       0.162938
      16.730000       0.328230       0.203121       0.162458
      16.740000       0.326609       0.202471       0.162042
      16.750000       0.324993       0.202131       0.161705
      16.760000       0.323388       0.202089       0.161462
      16.770000       0.321820       0.202319       0.161313
      16.780000       0.320352       0.202781       0.161246
      16.790000       0.319071       0.203413       0.161226
      16.800000       0.318081       0.204140       0.161196
      16.810000       0.317476       0.204869       0.161089
      16.820000       0.317318       0.205494       0.160834
      16.830000       0.317624       0.205895       0.160370
      16.840000       0.318366       0.205953       0.159661
      16.850000       0.319479       0.205564       0.158700
      16.860000       0.320895       0.204659       0.157509
      16.870000       0.322564       0.203224       0.156134
      16.880000       0.324475       0.201301       0.154635
      16.890000       0.326656       0.198989       0.153070
      16.900000       0.329162       0.196423       0.151486
      16.910000       0.332046       0.193752       0.149921
      16.920000       0.335332       0.191122       0.148403
      16.930000       0.338999       0.188657       0.146956
      16.940000       0.342973       0.186450       0.145605
      16.950000       0.347136       0.184562       0.144379
      16.960000       0.351346       0.183021       0.143309
      16.970000       0.355458       0.181821       0.142423
      16.980000       0.359338       0.180930       0.141744
      16.990000       0.362876       0.180297       0.141292
      17.000000       0.365987       0.179860       0.141080
      17.010000       0.368622       0.179563       0.141118
      17.020000       0.370759       0.179366       0.141406
      17.030000       0.372413       0.179255       0.141930
      17.040000       0.373619       0.179240       0.142653
      17.050000       0.374428       0.179340       0.143514
      17.060000       0.374892       0.179572       0.144429
      17.070000       0.375067       0.179933       0.145302
      17.080000       0.375004       0.180399       0.146041
      17.090000       0.374746       0.180926       0.146570
      17.100000       0.374322       0.181453       0.146838
      17.110000       0.373736       0.181916       0.146822
      17.120000       0.372956       0.182248       0.146517
      17.130000       0.371932       0.182391       0.145933
      17.140000       0.370608       0.182297       0.145087
      17.150000       0.368953       0.181938       0.143998
      17.160000       0.366983       0.181300       0.142692
      17.170000       0.364760       0.180393       0.141202
      17.180000       0.362377       0.179247       0.139570
      17.190000       0.359932       0.177915       0.137853
      17.200000       0.357503       0.176474       0.136117
      17.210000       0.355138       0.175011       0.134430
      17.220000       0.352866       0.173617       0.132856
      17.230000       0.350700       0.172370       0.131446
      17.240000       0.348649       0.171325       0.130231
      17.250000       0.346720       0.170508       0.129229
      17.260000       0.344914       0.169921       0.128442
      17.270000       0.343223       0.169553       0.127866
      17.280000       0.341634       0.169383       0.127488
      17.290000       0.340117       0.169392       0.127293
      17.300000       0.338623       0.169565       0.127255
      17.310000       0.337066       0.169895       0.127342
      17.320000       0.335332       0.170376       0.127516
      17.330000       0.333295       0.171000       0.127733
      17.340000       0.330836       0.171752       0.127954
      17.350000       0.327883       0.172606       0.128146
      17.360000       0.324421       0.173524       0.128285
      17.370000       0.320489       0.174462       0.128357
      17.380000       0.316166       0.175373       0.128355
      17.390000       0.311549       0.176221       0.128282
      17.400000       0.306748       0.176982       0.128148
      17.410000       0.301873       0.177645       0.127966
      17.420000       0.297039       0.178211       0.127751
      17.430000       0.292349       0.178687       0.127513
      17.440000       0.287891       0.179076       0.127260
      17.450000       0.283722       0.179376       0.126991
      17.460000       0.279875       0.179582       0.126705
      17.470000       0.276370       0.179689       0.126396
      17.480000       0.273222       0.179699       0.126055
      17.490000       0.270450       0.179618       0.125668
      17.500000       0.268074       0.179453       0.125218
      17.510000       0.266118       0.179211       0.124691
      17.520000       0.264602       0.178895       0.124079
      17.530000       0.263543       0.178508       0.123382
      17.540000       0.262953       0.178046       0.122609
      17.550000       0.262830       0.177511       0.121771
      17.560000       0.263151       0.176908       0.120880
      17.570000       0.263870       0.176256       0.119947
      17.580000       0.264914       0.175581       0.118989
      17.590000       0.266199       0.174919       0.118028
      17.600000       0.267644       0.174296       0.117092
      17.610000       0.269190       0.173726       0.116216
      17.620000       0.270812       0.173196       0.115436
      17.630000       0.272514       0.172674       0.114782
      17.640000       0.274320       0.172107       0.114278
      17.650000       0.276244       0.171437       0.113935
      17.660000       0.278279       0.170604       0.113748
      17.670000       0.280378       0.169554       0.113698
      17.680000       0.282464       0.168244       0.113755
      17.690000       0.284449       0.166650       0.113882
      17.700000       0.286256       0.164772       0.114045
      17.710000       0.287838       0.162644       0.114210
      17.720000       0.289194       0.160336       0.114353
      17.730000       0.290354       0.157943       0.114449
      17.740000       0.291367       0.155574       0.114479
      17.750000       0.292276       0.153334       0.114428
      17.760000       0.293102       0.151308       0.114290
      17.770000       0.293828       0.149554       0.114071
      17.780000       0.294405       0.148106       0.113792
      17.790000       0.294762       0.146973       0.113485
      17.800000       0.294827       0.146149       0.113187
      17.810000       0.294542       0.145618       0.112934
      17.820000       0.293877       0.145355       0.112756
      17.830000       0.292837       0.145335       0.112669
      17.840000       0.291445       0.145537       0.112674
      17.850000       0.289735       0.145943       0.112759
      17.860000       0.287727       0.146537       0.112902
      17.870000       0.285424       0.147300       0.113079
      17.880000       0.282801       0.148201       0.113269
      17.890000       0.279812       0.149192       0.113468
      17.900000       0.276412       0.150209       0.113679
      17.910000       0.272578       0.151171       0.113917
      17.920000       0.268330       0.151995       0.114191
      17.930000       0.263742       0.152602       0.114496
      17.940000       0.258926       0.152933       0.114812
      17.950000       0.254011       0.152955       0.115094
      17.960000       0.249113       0.152667       0.115288
      17.970000       0.244315       0.152099       0.115330
      17.980000       0.239660       0.151306       0.115164
      17.990000       0.235156       0.150359       0.114744
      18.000000       0.230789       0.149337       0.114050
      18.010000       0.226532       0.148314       0.113089
      18.020000       0.222363       0.147357       0.111900
      18.030000       0.218276       0.146515       0.110544
      18.040000       0.214286       0.145816       0.109102
      18.050000       0.210429       0.145275       0.107660
      18.060000       0.206761       0.144887       0.106297
      18.070000       0.203341       0.144639       0.105077
      18.080000       0.200225       0.144510       0.104039
      18.090000       0.197450       0.144476       0.103197
      18.100000       0.195031       0.144511       0.102544
      18.110000       0.192954       0.144585       0.102054
      18.120000       0.191191       0.144669       0.101693
      18.130000       0.189707       0.144734       0.101423
      18.140000       0.188471       0.144761       0.101209
      18.150000       0.187464       0.144736       0.101025
      18.160000       0.186675       0.144656       0.100854
      18.170000       0.186090       0.144523       0.100689
      18.180000       0.185689       0.144339       0.100532
      18.190000       0.185433       0.144109       0.100389
      18.200000       0.185267       0.143836       0.100267
      18.210000       0.185120       0.143523       0.100171
      18.220000       0.184918       0.143176       0.100100
      18.230000       0.184596       0.142808       0.100049
      18.240000       0.184117       0.142438       0.100012
      18.250000       0.183482       0.142093       0.099985
      18.260000       0.182730       0.141808       0.099966
      18.270000       0.181932       0.141614       0.099955
      18.280000       0.181179       0.141539       0.099955
      18.290000       0.180558       0.141597       0.099971
      18.300000       0.180149       0.141778       0.100004
      18.310000       0.180008       0.142051       0.100048
      18.320000       0.180171       0.142364       0.100093
      18.330000       0.180649       0.142652       0.100119
      18.340000       0.181433       0.142856       0.100103
      18.350000       0.182493       0.142933       0.100024
      18.360000       0.183777       0.142863       0.099866
      18.370000       0.185212       0.142653       0.099631
      18.380000       0.186709       0.142329       0.099335
      18.390000       0.188173       0.141926       0.099011
      18.400000       0.189521       0.141478       0.098703
      18.410000       0.190693       0.141017       0.098457
      18.420000       0.191660       0.140565       0.098316
      18.430000       0.192430       0.140142       0.098316
      18.440000       0.193040       0.139763       0.098485
      18.450000       0.193538       0.139443       0.098845
      18.460000       0.193970       0.139195       0.099408
      18.470000       0.194363       0.139030       0.100180
      18.480000       0.194723       0.138955       0.101158
      18.490000       0.195044       0.138972       0.102329
      18.500000       0.195327       0.139078       0.103671
      18.510000       0.195586       0.139261       0.105153
      18.520000       0.195865       0.139496       0.106740
      18.530000       0.196214       0.139748       0.108397
      18.540000       0.196683       0.139975       0.110091
      18.550000       0.197295       0.140132       0.111800
      18.560000       0.198038       0.140181       0.113515
      18.570000       0.198862       0.140103       0.115238
      18.580000       0.199689       0.139894       0.116984
      18.590000       0.200422       0.139569       0.118777
      18.600000       0.200955       0.139149       0.120645
      18.610000       0.201191       0.138655       0.122613
      18.620000       0.201050       0.138096       0.124700
      18.630000       0.200489       0.137471       0.126912
      18.640000       0.199510       0.136768       0.129243
      18.650000       0.198170       0.135970       0.131673
      18.660000       0.196571       0.135064       0.134174
      18.670000       0.194845       0.134043       0.136712
      18.680000       0.193128       0.132908       0.139250
      18.690000       0.191533       0.131672       0.141752
      18.700000       0.190142       0.130349       0.144184
      18.710000       0.188992       0.128960       0.146511
      18.720000       0.188082       0.127523       0.148703
      18.730000       0.187384       0.126051       0.150733
      18.740000       0.186857       0.124552       0.152584
      18.750000       0.186464       0.123030       0.154249
      18.760000       0.186176       0.121482       0.155737
      18.770000       0.185977       0.119907       0.157079
      18.780000       0.185859       0.118303       0.158325
      18.790000       0.185811       0.116675       0.159538
      18.800000       0.185815       0.115031       0.160788
      18.810000       0.185850       0.113388       0.162126
      18.820000       0.185897       0.111763       0.163576
      18.830000       0.185947       0.110178       0.165125
      18.840000       0.186005       0.108648       0.166732
      18.850000       0.186085       0.107185       0.168341
      18.860000       0.186206       0.105800       0.169901
      18.870000       0.186384       0.104500       0.171386
      18.880000       0.186627       0.103298       0.172797
      18.890000       0.186939       0.102209       0.174168
      18.900000       0.187313       0.101251       0.175558
      18.910000       0.187731       0.100443       0.177044
      18.920000       0.188155       0.099804       0.178706
      18.930000       0.188534       0.099344       0.180620
      18.940000       0.188793       0.099067       0.182852
      18.950000       0.188842       0.098964       0.185454
      18.960000       0.188575       0.099015       0.188458
      18.970000       0.187886       0.099195       0.191879
      18.980000       0.186677       0.099471       0.195707
      18.990000       0.184885       0.099815       0.199902
      19.000000       0.182493       0.100201       0.204398
      19.010000       0.179549       0.100611       0.209114
      19.020000       0.176157       0.101031       0.213972
      19.030000       0.172467       0.101453       0.218918
      19.040000       0.168647       0.101867       0.223933
      19.050000       0.164856       0.102263       0.229027
      19.060000       0.161221       0.102625       0.234223
      19.070000       0.157821       0.102936       0.239537
      19.080000       0.154690       0.103176       0.244968
      19.090000       0.151821       0.103327       0.250493
      19.100000       0.149183       0.103377       0.256087
      19.110000       0.146737       0.103320       0.261737
      19.120000       0.144448       0.103156       0.267455
      19.130000       0.142297       0.102892       0.273287
      19.140000       0.140283       0.102541       0.279310
      19.150000       0.138415       0.102128       0.285614
      19.160000       0.136712       0.101684       0.292283
      19.170000       0.135185       0.101253       0.299365
      19.180000       0.133839       0.100876       0.306850
      19.190000       0.132671       0.100592       0.314662
      19.200000       0.131669       0.100426       0.322657
      19.210000       0.130817       0.100393       0.330633
      19.220000       0.130100       0.100493       0.338350
      19.230000       0.129504       0.100722       0.345557
      19.240000       0.129019       0.101070       0.352021
      19.250000       0.128644       0.101531       0.357564
      19.260000       0.128386       0.102100       0.362094
      19.270000       0.128262       0.102778       0.365614
      19.280000       0.128295       0.103568       0.368206
      19.290000       0.128505       0.104474       0.369998
      19.300000       0.128903       0.105494       0.371121
      19.310000       0.129487       0.106624       0.371670
      19.320000       0.130235       0.107851       0.371704
      19.330000       0.131113       0.109151       0.371248
      19.340000       0.132071       0.110493       0.370333
      19.350000       0.133059       0.111837       0.369012
      19.360000       0.134022       0.113137       0.367367
      19.370000       0.134911       0.114347       0.365503
      19.380000       0.135687       0.115423       0.363513
      19.390000       0.136324       0.116329       0.361455
      19.400000       0.136814       0.117048       0.359351
      19.410000       0.137171       0.117579       0.357189
      19.420000       0.137432       0.117945       0.354963
      19.430000       0.137650       0.118182       0.352691
      19.440000       0.137882       0.118332       0.350437
      19.450000       0.138180       0.118430       0.348302
      19.460000       0.138578       0.118497       0.346402
      19.470000       0.139092       0.118534       0.344827
      19.480000       0.139719       0.118528       0.343616
      19.490000       0.140449       0.118455       0.342737
      19.500000       0.141276       0.118290       0.342096
      19.510000       0.142211       0.118017       0.341551
      19.520000       0.143281       0.117630       0.340947
      19.530000       0.144524       0.117139       0.340131
      19.540000       0.145987       0.116566       0.338974
      19.550000       0.147707       0.115946       0.337375
      19.560000       0.149714       0.115313       0.335270
      19.570000       0.152029       0.114700       0.332631
      19.580000       0.154670       0.114126       0.329473
      19.590000       0.157658       0.113603       0.325856
      19.600000       0.161008       0.113129       0.321881
      19.610000       0.164718       0.112693       0.317680
      19.620000       0.168756       0.112278       0.313396
      19.630000       0.173043       0.111860       0.309168
      19.640000       0.177448       0.111412       0.305110
      19.650000       0.181776       0.110902       0.301305
      19.660000       0.185780       0.110304       0.297806
      19.670000       0.189165       0.109602       0.294630
      19.680000       0.191616       0.108797       0.291769
      19.690000       0.192836       0.107907       0.289186
      19.700000       0.192601       0.106967       0.286823
      19.710000       0.190823       0.106019       0.284610
      19.720000       0.187582       0.105107       0.282471
      19.730000       0.183114       0.104262       0.280342
      19.740000       0.177766       0.103507       0.278179
      19.750000       0.171925       0.102856       0.275962
      19.760000       0.165947       0.102316       0.273694
      19.770000       0.160122       0.101892       0.271395
      19.780000       0.154651       0.101587       0.269099
      19.790000       0.149650       0.101398       0.266860
      19.800000       0.145164       0.101319       0.264739
      19.810000       0.141177       0.101336       0.262804
      19.820000       0.137633       0.101432       0.261114
      19.830000       0.134453       0.101593       0.259707
      19.840000       0.131548       0.101806       0.258593
      19.850000       0.128836       0.102064       0.257747
      19.860000       0.126252       0.102364       0.257118
      19.870000       0.123762       0.102704       0.256629
      19.880000       0.121354       0.103077       0.256197
      19.890000       0.119039       0.103476       0.255744
      19.900000       0.116838       0.103889       0.255206
      19.910000       0.114766       0.104307       0.254536
      19.920000       0.112833       0.104727       0.253699
      19.930000       0.111034       0.105146       0.252666
      19.940000       0.109357       0.105570       0.251409
      19.950000       0.107786       0.106004       0.249904
      19.960000       0.106309       0.106454       0.248134
      19.970000       0.104922       0.106925       0.246094
      19.980000       0.103629       0.107417       0.243792
      19.990000       0.102443       0.107927       0.241247
      20.000000       0.101382       0.108445       0.238485
