  # energy grid [eV]     epsr_x  epsr_y  epsr_z
       0.000000            NaN            NaN            NaN
       0.010000 -108283.735483 -101037.833003       1.954973
       0.020000  -27032.387137  -25255.618477       1.955016
       0.030000  -11985.740982  -11221.874553       1.955087
       0.040000   -6719.296317   -6310.063595       1.955187
       0.050000   -4281.554507   -4036.596167       1.955316
       0.060000   -2957.210575   -2801.625524       1.955474
       0.070000   -2158.528399   -2056.976464       1.955662
       0.080000   -1640.003851   -1573.669847       1.955880
       0.090000   -1284.352690   -1242.315664       1.956129
       0.100000   -1029.802834   -1005.299192       1.956409
       0.110000    -841.308993    -829.933018       1.956721
       0.120000    -697.788533    -696.551857       1.957066
       0.130000    -585.942435    -592.749134       1.957444
       0.140000    -497.046745    -510.384022       1.957857
       0.150000    -425.188074    -443.935212       1.958305
       0.160000    -366.245711    -389.550878       1.958789
       0.170000    -317.280248    -344.477608       1.959311
       0.180000    -276.153562    -306.704893       1.959871
       0.190000    -241.285585    -274.736958       1.960470
       0.200000    -211.494683    -247.442353       1.961109
       0.210000    -185.890583    -223.952432       1.961790
       0.220000    -163.800971    -203.591365       1.962511
       0.230000    -144.719808    -185.826967       1.963274
       0.240000    -128.269278    -170.235562       1.964079
       0.250000    -114.169583    -156.476472       1.964923
       0.260000    -102.212330    -144.273247       1.965806
       0.270000     -92.234710    -133.399664       1.966724
       0.280000     -84.093656    -123.669156       1.967670
       0.290000     -77.641470    -114.926757       1.968639
       0.300000     -72.706404    -107.042891       1.969618
       0.310000     -69.082095     -99.908532       1.970593
       0.320000     -66.528290     -93.431420       1.971543
       0.330000     -64.783121     -87.533054       1.972441
       0.340000     -63.585148     -82.146305       1.973254
       0.350000     -62.700944     -77.213490       1.973940
       0.360000     -61.950766     -72.684825       1.974451
       0.370000     -61.223111     -68.517158       1.974735
       0.380000     -60.471923     -64.672936       1.974739
       0.390000     -59.697229     -61.119360       1.974419
       0.400000     -58.917078     -57.827674       1.973744
       0.410000     -58.141882     -54.772587       1.972698
       0.420000     -57.360712     -51.931780       1.971281
       0.430000     -56.543405     -49.285503       1.969491
       0.440000     -55.655004     -46.816224       1.967313
       0.450000     -54.673609     -44.508343       1.964699
       0.460000     -53.602334     -42.347942       1.961572
       0.470000     -52.470439     -40.322578       1.957837
       0.480000     -51.324361     -38.421105       1.953421
       0.490000     -50.213048     -36.633524       1.948311
       0.500000     -49.173099     -34.950853       1.942598
       0.510000     -48.218695     -33.365020       1.936490
       0.520000     -47.339776     -31.868774       1.930295
       0.530000     -46.509179     -30.455609       1.924367
       0.540000     -45.695778     -29.119705       1.919034
       0.550000     -44.877927     -27.855877       1.914538
       0.560000     -44.051603     -26.659534       1.911003
       0.570000     -43.230612     -25.526641       1.908444
       0.580000     -42.439855     -24.453676       1.906789
       0.590000     -41.705014     -23.437568       1.905917
       0.600000     -41.042776     -22.475605       1.905689
       0.610000     -40.455112     -21.565292       1.905965
       0.620000     -39.929714     -20.704169       1.906621
       0.630000     -39.446148     -19.889604       1.907550
       0.640000     -38.984676     -19.118619       1.908664
       0.650000     -38.533314     -18.387851       1.909894
       0.660000     -38.089865     -17.693687       1.911185
       0.670000     -37.658385     -17.032573       1.912496
       0.680000     -37.242338     -16.401365       1.913797
       0.690000     -36.838025     -15.797570       1.915068
       0.700000     -36.431535     -15.219358       1.916304
       0.710000     -36.000649     -14.665347       1.917506
       0.720000     -35.520620     -14.134258       1.918687
       0.730000     -34.970940     -13.624593       1.919864
       0.740000     -34.340087     -13.134470       1.921054
       0.750000     -33.626849     -12.661690       1.922275
       0.760000     -32.838674     -12.203980       1.923536
       0.770000     -31.988551     -11.759319       1.924840
       0.780000     -31.091819     -11.326168       1.926187
       0.790000     -30.163738     -10.903558       1.927571
       0.800000     -29.217993     -10.491018       1.928987
       0.810000     -28.266016     -10.088439       1.930429
       0.820000     -27.316859      -9.695915       1.931894
       0.830000     -26.377366      -9.313625       1.933380
       0.840000     -25.452507      -8.941757       1.934886
       0.850000     -24.545731      -8.580474       1.936407
       0.860000     -23.659308      -8.229905       1.937935
       0.870000     -22.794624      -7.890147       1.939457
       0.880000     -21.952423      -7.561260       1.940953
       0.890000     -21.133002      -7.243260       1.942395
       0.900000     -20.336352      -6.936085       1.943749
       0.910000     -19.562268      -6.639558       1.944972
       0.920000     -18.810421      -6.353350       1.946011
       0.930000     -18.080412      -6.076964       1.946802
       0.940000     -17.371826      -5.809758       1.947268
       0.950000     -16.684310      -5.551015       1.947327
       0.960000     -16.017707      -5.300031       1.946890
       0.970000     -15.372237      -5.056191       1.945882
       0.980000     -14.748711      -4.819003       1.944253
       0.990000     -14.148740      -4.588090       1.942003
       1.000000     -13.574879      -4.363158       1.939191
       1.010000     -13.030679      -4.143972       1.935945
       1.020000     -12.520603      -3.930357       1.932440
       1.030000     -12.049729      -3.722228       1.928866
       1.040000     -11.623203      -3.519598       1.925395
       1.050000     -11.245416      -3.322539       1.922154
       1.060000     -10.919005      -3.131090       1.919218
       1.070000     -10.643956      -2.945155       1.916627
       1.080000     -10.417164      -2.764413       1.914404
       1.090000     -10.232738      -2.588315       1.912575
       1.100000     -10.083027      -2.416155       1.911166
       1.110000      -9.960024      -2.247198       1.910196
       1.120000      -9.856667      -2.080807       1.909667
       1.130000      -9.767709      -1.916548       1.909557
       1.140000      -9.690042      -1.754246       1.909818
       1.150000      -9.622544      -1.593992       1.910386
       1.160000      -9.565597      -1.436120       1.911187
       1.170000      -9.520551      -1.281158       1.912146
       1.180000      -9.489372      -1.129767       1.913194
       1.190000      -9.474512      -0.982664       1.914270
       1.200000      -9.478839      -0.840532       1.915328
       1.210000      -9.505458      -0.703887       1.916339
       1.220000      -9.557495      -0.572930       1.917295
       1.230000      -9.637992      -0.447418       1.918207
       1.240000      -9.749940      -0.326611       1.919104
       1.250000      -9.896254      -0.209375       1.920027
       1.260000     -10.079510      -0.094436       1.921014
       1.270000     -10.301454       0.019273       1.922094
       1.280000     -10.562318       0.132313       1.923285
       1.290000     -10.860006       0.244621       1.924586
       1.300000     -11.189174       0.355613       1.925990
       1.310000     -11.540395       0.464500       1.927479
       1.320000     -11.899805       0.570700       1.929031
       1.330000     -12.249676       0.674239       1.930624
       1.340000     -12.570148       0.776007       1.932237
       1.350000     -12.841982       0.877736       1.933849
       1.360000     -13.049611       0.981702       1.935443
       1.370000     -13.183511       1.090225       1.937005
       1.380000     -13.241127       1.205175       1.938523
       1.390000     -13.226200       1.327654       1.939993
       1.400000     -13.147006       1.457942       1.941409
       1.410000     -13.014252       1.595627       1.942768
       1.420000     -12.839224       1.739833       1.944064
       1.430000     -12.632501       1.889430       1.945281
       1.440000     -12.403237       2.043193       1.946400
       1.450000     -12.158921       2.199877       1.947393
       1.460000     -11.905424       2.358253       1.948234
       1.470000     -11.647223       2.517098       1.948901
       1.480000     -11.387674       2.675190       1.949390
       1.490000     -11.129270       2.831322       1.949713
       1.500000     -10.873848       2.984348       1.949900
       1.510000     -10.622736       3.133285       1.949990
       1.520000     -10.376847       3.277431       1.950016
       1.530000     -10.136746       3.416459       1.949990
       1.540000      -9.902700       3.550412       1.949900
       1.550000      -9.674748       3.679529       1.949709
       1.560000      -9.452769       3.803932       1.949367
       1.570000      -9.236559       3.923284       1.948829
       1.580000      -9.025899       4.036571       1.948074
       1.590000      -8.820591       4.142113       1.947117
       1.600000      -8.620471       4.237780       1.946006
       1.610000      -8.425410       4.321279       1.944815
       1.620000      -8.235300       4.390342       1.943620
       1.630000      -8.050047       4.442659       1.942473
       1.640000      -7.869561       4.475550       1.941398
       1.650000      -7.693762       4.485490       1.940389
       1.660000      -7.522575       4.467790       1.939432
       1.670000      -7.355942       4.416751       1.938519
       1.680000      -7.193823       4.326557       1.937671
       1.690000      -7.036200       4.192893       1.936941
       1.700000      -6.883076       4.014955       1.936403
       1.710000      -6.734462       3.797241       1.936131
       1.720000      -6.590361       3.550366       1.936185
       1.730000      -6.450729       3.290336       1.936592
       1.740000      -6.315439       3.036178       1.937349
       1.750000      -6.184242       2.806522       1.938425
       1.760000      -6.056757       2.616184       1.939774
       1.770000      -5.932496       2.473861       1.941343
       1.780000      -5.810936       2.381526       1.943079
       1.790000      -5.691603       2.335383       1.944929
       1.800000      -5.574147       2.327722       1.946849
       1.810000      -5.458379       2.348922       1.948798
       1.820000      -5.344259       2.389029       1.950743
       1.830000      -5.231852       2.438670       1.952654
       1.840000      -5.121287       2.489304       1.954510
       1.850000      -5.012714       2.532966       1.956295
       1.860000      -4.906280       2.561752       1.958000
       1.870000      -4.802122       2.567277       1.959622
       1.880000      -4.700350       2.540337       1.961156
       1.890000      -4.601039       2.470951       1.962597
       1.900000      -4.504222       2.348886       1.963934
       1.910000      -4.409908       2.164740       1.965145
       1.920000      -4.318109       1.911501       1.966202
       1.930000      -4.228873       1.586367       1.967073
       1.940000      -4.142290       1.192447       1.967730
       1.950000      -4.058473       0.739881       1.968161
       1.960000      -3.977525       0.245955       1.968371
       1.970000      -3.899518      -0.266134       1.968392
       1.980000      -3.824515      -0.769924       1.968276
       1.990000      -3.752614      -1.239382       1.968089
       2.000000      -3.683992      -1.652772       1.967905
       2.010000      -3.618913      -1.995531       1.967802
       2.020000      -3.557698      -2.261323       1.967859
       2.030000      -3.500692      -2.451200       1.968146
       2.040000      -3.448261      -2.571505       1.968718
       2.050000      -3.400816      -2.631459       1.969606
       2.060000      -3.358838      -2.641198       1.970812
       2.070000      -3.322858      -2.610580       1.972310
       2.080000      -3.293402      -2.548684       1.974055
       2.090000      -3.270932      -2.463695       1.975985
       2.100000      -3.255798      -2.362909       1.978030
       2.110000      -3.248212      -2.252697       1.980111
       2.120000      -3.248217      -2.138444       1.982148
       2.130000      -3.255643      -2.024513       1.984054
       2.140000      -3.270043      -1.914258       1.985737
       2.150000      -3.290627      -1.810060       1.987104
       2.160000      -3.316177      -1.713297       1.988064
       2.170000      -3.344966      -1.624230       1.988535
       2.180000      -3.374720      -1.541881       1.988458
       2.190000      -3.402712      -1.464048       1.987809
       2.200000      -3.426007      -1.387603       1.986611
       2.210000      -3.441852      -1.309059       1.984942
       2.220000      -3.448101      -1.225293       1.982930
       2.230000      -3.443533      -1.134155       1.980736
       2.240000      -3.427944      -1.034815       1.978534
       2.250000      -3.402020      -0.927746       1.976483
       2.260000      -3.367063      -0.814450       1.974713
       2.270000      -3.324673      -0.697042       1.973311
       2.280000      -3.276490      -0.577835       1.972322
       2.290000      -3.224012      -0.458999       1.971760
       2.300000      -3.168503      -0.342331       1.971615
       2.310000      -3.110976      -0.229126       1.971869
       2.320000      -3.052219      -0.120150       1.972494
       2.330000      -2.992834      -0.015700       1.973453
       2.340000      -2.933288       0.084233       1.974695
       2.350000      -2.873950       0.179711       1.976161
       2.360000      -2.815111       0.270559       1.977776
       2.370000      -2.757007       0.356132       1.979465
       2.380000      -2.699818       0.435238       1.981159
       2.390000      -2.643677       0.506261       1.982798
       2.400000      -2.588669       0.567408       1.984342
       2.410000      -2.534837       0.616992       1.985766
       2.420000      -2.482192       0.653626       1.987060
       2.430000      -2.430726       0.676267       1.988218
       2.440000      -2.380434       0.684119       1.989238
       2.450000      -2.331322       0.676468       1.990109
       2.460000      -2.283415       0.652532       1.990821
       2.470000      -2.236742       0.611374       1.991367
       2.480000      -2.191323       0.551880       1.991755
       2.490000      -2.147146       0.472825       1.992009
       2.500000      -2.104146       0.373034       1.992175
       2.510000      -2.062204       0.251701       1.992316
       2.520000      -2.021158       0.108838       1.992505
       2.530000      -1.980829      -0.054182       1.992821
       2.540000      -1.941052      -0.234101       1.993334
       2.550000      -1.901702      -0.425432       1.994095
       2.560000      -1.862703      -0.620520       1.995128
       2.570000      -1.824029      -0.810164       1.996426
       2.580000      -1.785697      -0.984825       1.997954
       2.590000      -1.747752      -1.136121       1.999654
       2.600000      -1.710255      -1.258172       2.001454
       2.610000      -1.673269      -1.348308       2.003284
       2.620000      -1.636839      -1.406978       2.005087
       2.630000      -1.600974      -1.436980       2.006826
       2.640000      -1.565643      -1.442390       2.008491
       2.650000      -1.530773      -1.427541       2.010095
       2.660000      -1.496267      -1.396318       2.011659
       2.670000      -1.462024      -1.351820       2.013199
       2.680000      -1.427968      -1.296361       2.014712
       2.690000      -1.394057      -1.231673       2.016164
       2.700000      -1.360293      -1.159177       2.017497
       2.710000      -1.326709      -1.080195       2.018635
       2.720000      -1.293363      -0.996061       2.019500
       2.730000      -1.260321      -0.908132       2.020037
       2.740000      -1.227653      -0.817745       2.020225
       2.750000      -1.195419      -0.726169       2.020092
       2.760000      -1.163674      -0.634570       2.019708
       2.770000      -1.132468      -0.544010       2.019168
       2.780000      -1.101853      -0.455452       2.018575
       2.790000      -1.071888      -0.369776       2.018019
       2.800000      -1.042639      -0.287772       2.017575
       2.810000      -1.014166      -0.210113       2.017295
       2.820000      -0.986511      -0.137289       2.017219
       2.830000      -0.959669      -0.069528       2.017375
       2.840000      -0.933587      -0.006708       2.017789
       2.850000      -0.908159       0.051688       2.018489
       2.860000      -0.883258       0.106553       2.019497
       2.870000      -0.858757       0.159038       2.020830
       2.880000      -0.834566       0.210359       2.022478
       2.890000      -0.810643       0.261557       2.024397
       2.900000      -0.786988       0.313303       2.026507
       2.910000      -0.763629       0.365807       2.028695
       2.920000      -0.740609       0.418844       2.030831
       2.930000      -0.717979       0.471876       2.032776
       2.940000      -0.695788       0.524244       2.034400
       2.950000      -0.674080       0.575349       2.035584
       2.960000      -0.652883       0.624813       2.036229
       2.970000      -0.632198       0.672560       2.036261
       2.980000      -0.612001       0.718801       2.035636
       2.990000      -0.592266       0.763946       2.034346
       3.000000      -0.573002       0.808475       2.032430
       3.010000      -0.554283       0.852833       2.029979
       3.020000      -0.536263       0.897382       2.027137
       3.030000      -0.519153       0.942405       2.024093
       3.040000      -0.503186       0.988131       2.021070
       3.050000      -0.488572       1.034725       2.018301
       3.060000      -0.475463       1.082248       2.016002
       3.070000      -0.463945       1.130593       2.014348
       3.080000      -0.454029       1.179455       2.013455
       3.090000      -0.445640       1.228358       2.013367
       3.100000      -0.438599       1.276718       2.014062
       3.110000      -0.432590       1.323913       2.015463
       3.120000      -0.427160       1.369327       2.017459
       3.130000      -0.421747       1.412337       2.019922
       3.140000      -0.415752       1.452309       2.022721
       3.150000      -0.408632       1.488610       2.025731
       3.160000      -0.399980       1.520681       2.028829
       3.170000      -0.389569       1.548116       2.031893
       3.180000      -0.377351       1.570706       2.034802
       3.190000      -0.363419       1.588400       2.037438
       3.200000      -0.347962       1.601199       2.039689
       3.210000      -0.331220       1.609053       2.041463
       3.220000      -0.313456       1.611798       2.042700
       3.230000      -0.294931       1.609176       2.043381
       3.240000      -0.275881       1.600874       2.043540
       3.250000      -0.256509       1.586600       2.043264
       3.260000      -0.236973       1.566170       2.042689
       3.270000      -0.217389       1.539635       2.041981
       3.280000      -0.197836       1.507448       2.041314
       3.290000      -0.178374       1.470643       2.040850
       3.300000      -0.159053       1.430955       2.040711
       3.310000      -0.139915       1.390816       2.040974
       3.320000      -0.120993       1.353150       2.041663
       3.330000      -0.102306       1.320963       2.042758
       3.340000      -0.083856       1.296832       2.044203
       3.350000      -0.065627       1.282453       2.045918
       3.360000      -0.047595       1.278416       2.047805
       3.370000      -0.029728       1.284251       2.049754
       3.380000      -0.011995       1.298679       2.051643
       3.390000       0.005628       1.319944       2.053335
       3.400000       0.023160       1.346107       2.054694
       3.410000       0.040603       1.375268       2.055588
       3.420000       0.057942       1.405717       2.055913
       3.430000       0.075139       1.436074       2.055613
       3.440000       0.092147       1.465389       2.054689
       3.450000       0.108919       1.493208       2.053212
       3.460000       0.125428       1.519571       2.051307
       3.470000       0.141680       1.544899       2.049148
       3.480000       0.157721       1.569773       2.046934
       3.490000       0.173630       1.594649       2.044866
       3.500000       0.189504       1.619587       2.043125
       3.510000       0.205436       1.644112       2.041849
       3.520000       0.221494       1.667267       2.041118
       3.530000       0.237712       1.687869       2.040939
       3.540000       0.254088       1.704904       2.041253
       3.550000       0.270599       1.717944       2.041940
       3.560000       0.287209       1.727423       2.042839
       3.570000       0.303884       1.734640       2.043768
       3.580000       0.320602       1.741420       2.044548
       3.590000       0.337353       1.749544       2.045035
       3.600000       0.354132       1.760180       2.045140
       3.610000       0.370937       1.773523       2.044841
       3.620000       0.387757       1.788782       2.044186
       3.630000       0.404569       1.804449       2.043274
       3.640000       0.421340       1.818747       2.042242
       3.650000       0.438030       1.830104       2.041248
       3.660000       0.454593       1.837530       2.040457
       3.670000       0.470984       1.840764       2.040034
       3.680000       0.487164       1.840126       2.040125
       3.690000       0.503096       1.836106       2.040845
       3.700000       0.518752       1.828843       2.042251
       3.710000       0.534110       1.817746       2.044328
       3.720000       0.549155       1.801449       2.046989
       3.730000       0.563884       1.778141       2.050084
       3.740000       0.578312       1.746186       2.053413
       3.750000       0.592476       1.704799       2.056757
       3.760000       0.606442       1.654529       2.059895
       3.770000       0.620290       1.597314       2.062635
       3.780000       0.634102       1.536092       2.064845
       3.790000       0.647934       1.474153       2.066475
       3.800000       0.661804       1.414558       2.067575
       3.810000       0.675677       1.359899       2.068289
       3.820000       0.689474       1.312359       2.068816
       3.830000       0.703080       1.273882       2.069356
       3.840000       0.716362       1.246210       2.070053
       3.850000       0.729189       1.230705       2.070959
       3.860000       0.741443       1.228069       2.072034
       3.870000       0.753040       1.238140       2.073168
       3.880000       0.763935       1.259866       2.074224
       3.890000       0.774114       1.291450       2.075066
       3.900000       0.783581       1.330600       2.075582
       3.910000       0.792342       1.374766       2.075687
       3.920000       0.800400       1.421324       2.075322
       3.930000       0.807774       1.467679       2.074450
       3.940000       0.814533       1.511305       2.073052
       3.950000       0.820829       1.549791       2.071137
       3.960000       0.826908       1.580912       2.068746
       3.970000       0.833081       1.602776       2.065959
       3.980000       0.839656       1.614045       2.062896
       3.990000       0.846868       1.614202       2.059703
       4.000000       0.854830       1.603838       2.056547
       4.010000       0.863533       1.584810       2.053595
       4.020000       0.872881       1.560146       2.051006
       4.030000       0.882738       1.533608       2.048922
       4.040000       0.892984       1.508964       2.047451
       4.050000       0.903534       1.489232       2.046663
       4.060000       0.914346       1.476166       2.046575
       4.070000       0.925407       1.470124       2.047152
       4.080000       0.936720       1.470304       2.048318
       4.090000       0.948293       1.475160       2.049971
       4.100000       0.960134       1.482853       2.051998
       4.110000       0.972245       1.491587       2.054283
       4.120000       0.984611       1.499812       2.056710
       4.130000       0.997182       1.506267       2.059163
       4.140000       1.009856       1.509924       2.061536
       4.150000       1.022478       1.509889       2.063736
       4.160000       1.034843       1.505361       2.065690
       4.170000       1.046717       1.495714       2.067345
       4.180000       1.057875       1.480706       2.068654
       4.190000       1.068135       1.460716       2.069563
       4.200000       1.077418       1.436864       2.070007
       4.210000       1.085778       1.410897       2.069910
       4.220000       1.093435       1.384840       2.069215
       4.230000       1.100748       1.360509       2.067912
       4.240000       1.108156       1.339085       2.066061
       4.250000       1.116087       1.320880       2.063795
       4.260000       1.124872       1.305385       2.061302
       4.270000       1.134697       1.291573       2.058800
       4.280000       1.145602       1.278349       2.056495
       4.290000       1.157511       1.264959       2.054563
       4.300000       1.170288       1.251228       2.053137
       4.310000       1.183779       1.237503       2.052303
       4.320000       1.197854       1.224358       2.052108
       4.330000       1.212419       1.212222       2.052563
       4.340000       1.227419       1.201160       2.053644
       4.350000       1.242828       1.190950       2.055292
       4.360000       1.258633       1.181434       2.057406
       4.370000       1.274826       1.172939       2.059851
       4.380000       1.291395       1.166531       2.062471
       4.390000       1.308327       1.163925       2.065110
       4.400000       1.325602       1.167062       2.067637
       4.410000       1.343199       1.177548       2.069960
       4.420000       1.361083       1.196195       2.072036
       4.430000       1.379194       1.222825       2.073867
       4.440000       1.397441       1.256339       2.075481
       4.450000       1.415686       1.294943       2.076906
       4.460000       1.433740       1.336443       2.078141
       4.470000       1.451369       1.378516       2.079136
       4.480000       1.468288       1.418961       2.079782
       4.490000       1.484168       1.455939       2.079918
       4.500000       1.498636       1.488189       2.079355
       4.510000       1.511281       1.515229       2.077901
       4.520000       1.521678       1.537451       2.075400
       4.530000       1.529436       1.556019       2.071762
       4.540000       1.534274       1.572563       2.066995
       4.550000       1.536113       1.588698       2.061222
       4.560000       1.535154       1.605545       2.054683
       4.570000       1.531905       1.623421       2.047718
       4.580000       1.527128       1.641784       2.040735
       4.590000       1.521698       1.659414       2.034166
       4.600000       1.516458       1.674755       2.028416
       4.610000       1.512100       1.686327       2.023817
       4.620000       1.509137       1.693118       2.020595
       4.630000       1.507922       1.694910       2.018857
       4.640000       1.508693       1.692424       2.018596
       4.650000       1.511586       1.687259       2.019713
       4.660000       1.516637       1.681610       2.022039
       4.670000       1.523791       1.677851       2.025363
       4.680000       1.532912       1.678124       2.029444
       4.690000       1.543811       1.684020       2.034033
       4.700000       1.556255       1.696397       2.038880
       4.710000       1.569983       1.715302       2.043746
       4.720000       1.584708       1.739994       2.048405
       4.730000       1.600152       1.769039       2.052644
       4.740000       1.616084       1.800475       2.056265
       4.750000       1.632372       1.832019       2.059084
       4.760000       1.649015       1.861293       2.060935
       4.770000       1.666140       1.886034       2.061677
       4.780000       1.683954       1.904245       2.061203
       4.790000       1.702663       1.914254       2.059456
       4.800000       1.722402       1.914688       2.056450
       4.810000       1.743186       1.904441       2.052289
       4.820000       1.764908       1.882712       2.047180
       4.830000       1.787366       1.849187       2.041421
       4.840000       1.810320       1.804318       2.035374
       4.850000       1.833539       1.749568       2.029405
       4.860000       1.856860       1.687498       2.023824
       4.870000       1.880226       1.621586       2.018841
       4.880000       1.903712       1.555794       2.014556
       4.890000       1.927520       1.493944       2.010994
       4.900000       1.951928       1.439091       2.008137
       4.910000       1.977231       1.393072       2.005959
       4.920000       2.003662       1.356390       2.004433
       4.930000       2.031343       1.328419       2.003522
       4.940000       2.060265       1.307822       2.003163
       4.950000       2.090296       1.293000       2.003277
       4.960000       2.121203       1.282433       2.003773
       4.970000       2.152677       1.274838       2.004580
       4.980000       2.184355       1.269189       2.005652
       4.990000       2.215835       1.264661       2.006965
       5.000000       2.246696       1.260613       2.008502
       5.010000       2.276492       1.256653       2.010227
       5.020000       2.304737       1.252774       2.012075
       5.030000       2.330867       1.249440       2.013949
       5.040000       2.354186       1.247534       2.015744
       5.050000       2.373836       1.248109       2.017368
       5.060000       2.388789       1.252021       2.018768
       5.070000       2.397900       1.259572       2.019942
       5.080000       2.400017       1.270283       2.020928
       5.090000       2.394140       1.282858       2.021795
       5.100000       2.379608       1.295312       2.022623
       5.110000       2.356274       1.305221       2.023494
       5.120000       2.324618       1.310062       2.024492
       5.130000       2.285771       1.307602       2.025691
       5.140000       2.241387       1.296307       2.027149
       5.150000       2.193420       1.275697       2.028889
       5.160000       2.143830       1.246573       2.030894
       5.170000       2.094335       1.211018       2.033101
       5.180000       2.046256       1.172088       2.035415
       5.190000       2.000448       1.133224       2.037713
       5.200000       1.957289       1.097499       2.039875
       5.210000       1.916685       1.066939       2.041800
       5.220000       1.878106       1.042162       2.043431
       5.230000       1.840675       1.022435       2.044773
       5.240000       1.803314       1.006129       2.045886
       5.250000       1.764959       0.991385       2.046866
       5.260000       1.724770       0.976781       2.047819
       5.270000       1.682286       0.961784       2.048833
       5.280000       1.637447       0.946851       2.049955
       5.290000       1.590522       0.933139       2.051194
       5.300000       1.541986       0.921979       2.052533
       5.310000       1.492473       0.914322       2.053942
       5.320000       1.442852       0.910423       2.055398
       5.330000       1.394362       0.909844       2.056884
       5.340000       1.348694       0.911731       2.058385
       5.350000       1.307876       0.915209       2.059881
       5.360000       1.273976       0.919729       2.061344
       5.370000       1.248720       0.925267       2.062747
       5.380000       1.233176       0.932334       2.064080
       5.390000       1.227604       0.941801       2.065364
       5.400000       1.231468       0.954619       2.066653
       5.410000       1.243595       0.971519       2.068031
       5.420000       1.262379       0.992783       2.069600
       5.430000       1.286023       1.018166       2.071476
       5.440000       1.312746       1.046954       2.073772
       5.450000       1.340948       1.078128       2.076580
       5.460000       1.369315       1.110540       2.079948
       5.470000       1.396847       1.143032       2.083859
       5.480000       1.422835       1.174479       2.088231
       5.490000       1.446827       1.203790       2.092926
       5.500000       1.468610       1.229926       2.097775
       5.510000       1.488231       1.251989       2.102598
       5.520000       1.506011       1.269374       2.107234
       5.530000       1.522501       1.281918       2.111548
       5.540000       1.538343       1.290010       2.115440
       5.550000       1.554068       1.294588       2.118841
       5.560000       1.569901       1.297018       2.121711
       5.570000       1.585624       1.298856       2.124031
       5.580000       1.600575       1.301564       2.125801
       5.590000       1.613754       1.306268       2.127037
       5.600000       1.624017       1.313620       2.127770
       5.610000       1.630283       1.323796       2.128045
       5.620000       1.631682       1.336589       2.127926
       5.630000       1.627615       1.351528       2.127493
       5.640000       1.617741       1.367967       2.126839
       5.650000       1.601959       1.385123       2.126063
       5.660000       1.580436       1.402072       2.125257
       5.670000       1.553688       1.417741       2.124500
       5.680000       1.522676       1.430925       2.123847
       5.690000       1.488823       1.440391       2.123333
       5.700000       1.453901       1.445072       2.122970
       5.710000       1.419772       1.444299       2.122751
       5.720000       1.388047       1.438010       2.122662
       5.730000       1.359767       1.426816       2.122692
       5.740000       1.335214       1.411882       2.122849
       5.750000       1.313923       1.394658       2.123173
       5.760000       1.294873       1.376518       2.123733
       5.770000       1.276808       1.358449       2.124623
       5.780000       1.258568       1.340870       2.125945
       5.790000       1.239318       1.323624       2.127785
       5.800000       1.218639       1.306113       2.130199
       5.810000       1.196471       1.287532       2.133208
       5.820000       1.172986       1.267125       2.136799
       5.830000       1.148456       1.244440       2.140938
       5.840000       1.123181       1.219533       2.145577
       5.850000       1.097498       1.193060       2.150664
       5.860000       1.071862       1.166214       2.156151
       5.870000       1.046938       1.140493       2.161994
       5.880000       1.023638       1.117374       2.168152
       5.890000       1.003071       1.098003       2.174577
       5.900000       0.986423       1.083040       2.181210
       5.910000       0.974800       1.072673       2.187969
       5.920000       0.969073       1.066789       2.194756
       5.930000       0.969752       1.065223       2.201456
       5.940000       0.976911       1.067983       2.207951
       5.950000       0.990191       1.075377       2.214131
       5.960000       1.008869       1.087955       2.219910
       5.970000       1.031986       1.106289       2.225229
       5.980000       1.058489       1.130673       2.230054
       5.990000       1.087364       1.160875       2.234370
       6.000000       1.117737       1.196012       2.238163
       6.010000       1.148896       1.234574       2.241411
       6.020000       1.180258       1.274551       2.244082
       6.030000       1.211299       1.313613       2.246149
       6.040000       1.241480       1.349328       2.247607
       6.050000       1.270244       1.379399       2.248499
       6.060000       1.297063       1.401940       2.248924
       6.070000       1.321535       1.415742       2.249029
       6.080000       1.343454       1.420487       2.248988
       6.090000       1.362838       1.416821       2.248961
       6.100000       1.379881       1.406248       2.249070
       6.110000       1.394863       1.390841       2.249375
       6.120000       1.408081       1.372862       2.249878
       6.130000       1.419833       1.354393       2.250536
       6.140000       1.430432       1.337079       2.251282
       6.150000       1.440210       1.322019       2.252046
       6.160000       1.449477       1.309824       2.252768
       6.170000       1.458437       1.300782       2.253409
       6.180000       1.467118       1.295051       2.253955
       6.190000       1.475355       1.292780       2.254420
       6.200000       1.482838       1.294097       2.254854
       6.210000       1.489168       1.298992       2.255344
       6.220000       1.493906       1.307157       2.256021
       6.230000       1.496597       1.317908       2.257045
       6.240000       1.496774       1.330214       2.258592
       6.250000       1.494000       1.342871       2.260825
       6.260000       1.487943       1.354726       2.263859
       6.270000       1.478511       1.364891       2.267742
       6.280000       1.465967       1.372857       2.272440
       6.290000       1.450967       1.378459       2.277851
       6.300000       1.434447       1.381709       2.283821
       6.310000       1.417389       1.382596       2.290169
       6.320000       1.400563       1.380932       2.296716
       6.330000       1.384356       1.376340       2.303298
       6.340000       1.368764       1.368396       2.309771
       6.350000       1.353515       1.356886       2.316018
       6.360000       1.338270       1.342098       2.321939
       6.370000       1.322804       1.325027       2.327457
       6.380000       1.307127       1.307399       2.332511
       6.390000       1.291536       1.291469       2.337064
       6.400000       1.276593       1.279650       2.341103
       6.410000       1.263047       1.274072       2.344642
       6.420000       1.251719       1.276200       2.347723
       6.430000       1.243371       1.286587       2.350421
       6.440000       1.238568       1.304804       2.352838
       6.450000       1.237550       1.329547       2.355099
       6.460000       1.240163       1.358866       2.357332
       6.470000       1.245871       1.390451       2.359653
       6.480000       1.253865       1.421913       2.362149
       6.490000       1.263245       1.451039       2.364873
       6.500000       1.273211       1.475965       2.367836
       6.510000       1.283202       1.495280       2.371014
       6.520000       1.292935       1.508078       2.374356
       6.530000       1.302329       1.513981       2.377789
       6.540000       1.311346       1.513159       2.381240
       6.550000       1.319837       1.506346       2.384645
       6.560000       1.327456       1.494769       2.387952
       6.570000       1.333703       1.479956       2.391119
       6.580000       1.338083       1.463456       2.394103
       6.590000       1.340311       1.446543       2.396848
       6.600000       1.340483       1.430030       2.399285
       6.610000       1.339127       1.414211       2.401337
       6.620000       1.337103       1.398922       2.402949
       6.630000       1.335407       1.383662       2.404100
       6.640000       1.334949       1.367781       2.404829
       6.650000       1.336388       1.350683       2.405233
       6.660000       1.340037       1.332035       2.405453
       6.670000       1.345861       1.311921       2.405656
       6.680000       1.353550       1.290927       2.405998
       6.690000       1.362642       1.270101       2.406595
       6.700000       1.372664       1.250778       2.407504
       6.710000       1.383210       1.234289       2.408712
       6.720000       1.393928       1.221635       2.410147
       6.730000       1.404416       1.213252       2.411704
       6.740000       1.414119       1.208939       2.413275
       6.750000       1.422293       1.207994       2.414775
       6.760000       1.428086       1.209489       2.416162
       6.770000       1.430695       1.212593       2.417440
       6.780000       1.429543       1.216828       2.418662
       6.790000       1.424402       1.222173       2.419920
       6.800000       1.415465       1.229009       2.421326
       6.810000       1.403368       1.237959       2.422994
       6.820000       1.389190       1.249689       2.425016
       6.830000       1.374389       1.264703       2.427455
       6.840000       1.360611       1.283175       2.430342
       6.850000       1.349383       1.304813       2.433682
       6.860000       1.341775       1.328807       2.437466
       6.870000       1.338185       1.353867       2.441671
       6.880000       1.338317       1.378352       2.446264
       6.890000       1.341356       1.400481       2.451203
       6.900000       1.346248       1.418587       2.456445
       6.910000       1.351978       1.431396       2.461955
       6.920000       1.357802       1.438274       2.467711
       6.930000       1.363381       1.439381       2.473708
       6.940000       1.368806       1.435670       2.479957
       6.950000       1.374497       1.428692       2.486475
       6.960000       1.381013       1.420250       2.493275
       6.970000       1.388830       1.411979       2.500354
       6.980000       1.398179       1.404995       2.507685
       6.990000       1.408981       1.399710       2.515216
       7.000000       1.420903       1.395888       2.522863
       7.010000       1.433469       1.392914       2.530513
       7.020000       1.446202       1.390187       2.538031
       7.030000       1.458729       1.387507       2.545266
       7.040000       1.470862       1.385319       2.552069
       7.050000       1.482609       1.384752       2.558318
       7.060000       1.494119       1.387413       2.563938
       7.070000       1.505548       1.395028       2.568929
       7.080000       1.516908       1.409026       2.573380
       7.090000       1.527945       1.430187       2.577465
       7.100000       1.538128       1.458459       2.581417
       7.110000       1.546724       1.492934       2.585476
       7.120000       1.552947       1.531960       2.589847
       7.130000       1.556093       1.573303       2.594659
       7.140000       1.555630       1.614346       2.599958
       7.150000       1.551198       1.652278       2.605725
       7.160000       1.542547       1.684295       2.611902
       7.170000       1.529453       1.707827       2.618421
       7.180000       1.511678       1.720777       2.625213
       7.190000       1.489021       1.721791       2.632213
       7.200000       1.461469       1.710479       2.639360
       7.210000       1.429365       1.687537       2.646593
       7.220000       1.393501       1.654660       2.653861
       7.230000       1.355051       1.614222       2.661135
       7.240000       1.315357       1.568803       2.668409
       7.250000       1.275681       1.520710       2.675710
       7.260000       1.237027       1.471644       2.683088
       7.270000       1.200073       1.422618       2.690616
       7.280000       1.165185       1.374085       2.698385
       7.290000       1.132446       1.326205       2.706509
       7.300000       1.101696       1.279130       2.715123
       7.310000       1.072617       1.233229       2.724381
       7.320000       1.044866       1.189195       2.734445
       7.330000       1.018206       1.148018       2.745462
       7.340000       0.992570       1.110823       2.757537
       7.350000       0.968009       1.078645       2.770709
       7.360000       0.944559       1.052160       2.784929
       7.370000       0.922132       1.031500       2.800062
       7.380000       0.900498       1.016209       2.815903
       7.390000       0.879394       1.005402       2.832208
       7.400000       0.858689       0.998061       2.848731
       7.410000       0.838491       0.993330       2.865263
       7.420000       0.819106       0.990653       2.881662
       7.430000       0.800846       0.989658       2.897860
       7.440000       0.783756       0.989849       2.913870
       7.450000       0.767389       0.990253       2.929772
       7.460000       0.750739       0.989227       2.945688
       7.470000       0.732380       0.984543       2.961760
       7.480000       0.710766       0.973731       2.978128
       7.490000       0.684611       0.954604       2.994910
       7.500000       0.653216       0.925775       3.012187
       7.510000       0.616648       0.887028       3.029986
       7.520000       0.575741       0.839442       3.048283
       7.530000       0.531931       0.785232       3.066994
       7.540000       0.486985       0.727349       3.085984
       7.550000       0.442684       0.668961       3.105059
       7.560000       0.400514       0.612924       3.123972
       7.570000       0.361422       0.561411       3.142415
       7.580000       0.325704       0.515761       3.160024
       7.590000       0.293027       0.476532       3.176380
       7.600000       0.262562       0.443640       3.191029
       7.610000       0.233172       0.416490       3.203514
       7.620000       0.203633       0.394079       3.213423
       7.630000       0.172889       0.375139       3.220442
       7.640000       0.140300       0.358387       3.224404
       7.650000       0.105847       0.342859       3.225291
       7.660000       0.070216       0.328209       3.223214
       7.670000       0.034714       0.314842       3.218335
       7.680000       0.001041       0.303790       3.210800
       7.690000      -0.029033       0.296374       3.200676
       7.700000      -0.053968       0.293782       3.187946
       7.710000      -0.072686       0.296734       3.172553
       7.720000      -0.084675       0.305346       3.154489
       7.730000      -0.089996       0.319196       3.133889
       7.740000      -0.089212       0.337514       3.111119
       7.750000      -0.083286       0.359365       3.086804
       7.760000      -0.073470       0.383762       3.061789
       7.770000      -0.061192       0.409667       3.037040
       7.780000      -0.047926       0.435934       3.013492
       7.790000      -0.035057       0.461260       2.991883
       7.800000      -0.023733       0.484192       2.972628
       7.810000      -0.014749       0.503201       2.955760
       7.820000      -0.008491       0.516811       2.940968
       7.830000      -0.004957       0.523759       2.927733
       7.840000      -0.003830       0.523172       2.915503
       7.850000      -0.004592       0.514735       2.903886
       7.860000      -0.006625       0.498819       2.892781
       7.870000      -0.009311       0.476528       2.882405
       7.880000      -0.012111       0.449652       2.873211
       7.890000      -0.014613       0.420495       2.865711
       7.900000      -0.016558       0.391602       2.860261
       7.910000      -0.017835       0.365425       2.856908
       7.920000      -0.018446       0.343984       2.855312
       7.930000      -0.018469       0.328597       2.854800
       7.940000      -0.018028       0.319710       2.854491
       7.950000      -0.017278       0.316879       2.853477
       7.960000      -0.016393       0.318909       2.850993
       7.970000      -0.015556       0.324097       2.846553
       7.980000      -0.014946       0.330527       2.840008
       7.990000      -0.014711       0.336331       2.831526
       8.000000      -0.014937       0.339874       2.821524
       8.010000      -0.015624       0.339869       2.810560
       8.020000      -0.016675       0.335449       2.799231
       8.030000      -0.017895       0.326224       2.788101
       8.040000      -0.019021       0.312315       2.777639
       8.050000      -0.019754       0.294320       2.768200
       8.060000      -0.019820       0.273172       2.760021
       8.070000      -0.019028       0.249921       2.753238
       8.080000      -0.017308       0.225513       2.747931
       8.090000      -0.014719       0.200648       2.744159
       8.100000      -0.011437       0.175744       2.742006
       8.110000      -0.007726       0.150958       2.741615
       8.120000      -0.003901       0.126210       2.743207
       8.130000      -0.000288       0.101162       2.747062
       8.140000       0.002828       0.075231       2.753477
       8.150000       0.005279       0.047653       2.762691
       8.160000       0.007075       0.017659       2.774833
       8.170000       0.008431      -0.015315       2.789907
       8.180000       0.009726      -0.051431       2.807832
       8.190000       0.011418      -0.090368       2.828495
       8.200000       0.013928      -0.131350       2.851790
       8.210000       0.017562      -0.173265       2.877613
       8.220000       0.022490      -0.214813       2.905821
       8.230000       0.028774      -0.254639       2.936171
       8.240000       0.036426      -0.291441       2.968275
       8.250000       0.045454      -0.324036       3.001581
       8.260000       0.055888      -0.351410       3.035392
       8.270000       0.067784      -0.372765       3.068903
       8.280000       0.081193      -0.387607       3.101256
       8.290000       0.096127      -0.395819       3.131589
       8.300000       0.112505      -0.397693       3.159092
       8.310000       0.130122      -0.393877       3.183059
       8.320000       0.148640      -0.385249       3.202928
       8.330000       0.167608      -0.372795       3.218316
       8.340000       0.186504      -0.357525       3.229039
       8.350000       0.204788      -0.340461       3.235134
       8.360000       0.221955      -0.322660       3.236867
       8.370000       0.237588      -0.305231       3.234742
       8.380000       0.251420      -0.289294       3.229481
       8.390000       0.263380      -0.275873       3.221961
       8.400000       0.273628      -0.265766       3.213097
       8.410000       0.282543      -0.259426       3.203707
       8.420000       0.290661      -0.256920       3.194378
       8.430000       0.298558      -0.257962       3.185398
       8.440000       0.306704      -0.262012       3.176763
       8.450000       0.315348      -0.268391       3.168263
       8.460000       0.324439      -0.276395       3.159592
       8.470000       0.333629      -0.285410       3.150459
       8.480000       0.342334      -0.295003       3.140630
       8.490000       0.349830      -0.304983       3.129906
       8.500000       0.355374      -0.315383       3.118053
       8.510000       0.358314      -0.326396       3.104719
       8.520000       0.358157      -0.338268       3.089413
       8.530000       0.354597      -0.351207       3.071548
       8.540000       0.347521      -0.365301       3.050573
       8.550000       0.337006      -0.380452       3.026133
       8.560000       0.323348      -0.396299       2.998208
       8.570000       0.307118      -0.412173       2.967173
       8.580000       0.289194      -0.427107       2.933779
       8.590000       0.270741      -0.439916       2.899066
       8.600000       0.253104      -0.449339       2.864232
       8.610000       0.237632      -0.454204       2.830485
       8.620000       0.225469      -0.453585       2.798900
       8.630000       0.217397      -0.446922       2.770277
       8.640000       0.213759      -0.434087       2.745049
       8.650000       0.214484      -0.415392       2.723269
       8.660000       0.219187      -0.391533       2.704690
       8.670000       0.227290      -0.363499       2.688939
       8.680000       0.238135      -0.332452       2.675719
       8.690000       0.251059      -0.299603       2.664964
       8.700000       0.265434      -0.266107       2.656886
       8.710000       0.280686      -0.232977       2.651886
       8.720000       0.296297      -0.201046       2.650385
       8.730000       0.311822      -0.170972       2.652649
       8.740000       0.326896      -0.143264       2.658664
       8.750000       0.341243      -0.118316       2.668130
       8.760000       0.354671      -0.096424       2.680548
       8.770000       0.367059      -0.077768       2.695372
       8.780000       0.378340      -0.062362       2.712156
       8.790000       0.388507      -0.050010       2.730641
       8.800000       0.397622      -0.040305       2.750748
       8.810000       0.405833      -0.032699       2.772487
       8.820000       0.413355      -0.026616       2.795849
       8.830000       0.420437      -0.021579       2.820721
       8.840000       0.427299      -0.017268       2.846881
       8.850000       0.434083      -0.013493       2.874061
       8.860000       0.440835      -0.010113       2.902026
       8.870000       0.447525      -0.006937       2.930652
       8.880000       0.454082      -0.003667       2.959964
       8.890000       0.460426       0.000095       2.990154
       8.900000       0.466472       0.004795       3.021575
       8.910000       0.472128       0.010849       3.054703
       8.920000       0.477272       0.018553       3.090054
       8.930000       0.481741       0.028029       3.128082
       8.940000       0.485316       0.039183       3.169078
       8.950000       0.487737       0.051726       3.213104
       8.960000       0.488718       0.065234       3.259973
       8.970000       0.488008       0.079250       3.309273
       8.980000       0.485466       0.093399       3.360414
       8.990000       0.481145       0.107484       3.412661
       9.000000       0.475350       0.121540       3.465148
       9.010000       0.468635       0.135815       3.516850
       9.020000       0.461724       0.150702       3.566525
       9.030000       0.455389       0.166613       3.612658
       9.040000       0.450314       0.183872       3.653427
       9.050000       0.447007       0.202631       3.686693
       9.060000       0.445755       0.222853       3.710056
       9.070000       0.446650       0.244349       3.720949
       9.080000       0.449611       0.266848       3.716811
       9.090000       0.454424       0.290062       3.695320
       9.100000       0.460779       0.313731       3.654664
       9.110000       0.468312       0.337628       3.593775
       9.120000       0.476653       0.361528       3.512435
       9.130000       0.485472       0.385173       3.411234
       9.140000       0.494497       0.408249       3.291408
       9.150000       0.503517       0.430386       3.154697
       9.160000       0.512352       0.451196       3.003325
       9.170000       0.520835       0.470312       2.840108
       9.180000       0.528801       0.487448       2.668577
       9.190000       0.536103       0.502443       2.492951
       9.200000       0.542632       0.515305       2.317868
       9.210000       0.548337       0.526233       2.147938
       9.220000       0.553233       0.535629       1.987261
       9.230000       0.557402       0.544058       1.839065
       9.240000       0.560990       0.552184       1.705536
       9.250000       0.564203       0.560652       1.587803
       9.260000       0.567295       0.569947       1.486033
       9.270000       0.570535       0.580271       1.399576
       9.280000       0.574160       0.591479       1.327173
       9.290000       0.578326       0.603108       1.267233
       9.300000       0.583075       0.614497       1.218109
       9.310000       0.588334       0.624938       1.178310
       9.320000       0.593939       0.633816       1.146531
       9.330000       0.599688       0.640690       1.121539
       9.340000       0.605383       0.645307       1.102003
       9.350000       0.610876       0.647547       1.086429
       9.360000       0.616078       0.647332       1.073266
       9.370000       0.620959       0.644542       1.061162
       9.380000       0.625542       0.638997       1.049259
       9.390000       0.629890       0.630522       1.037386
       9.400000       0.634091       0.619093       1.026089
       9.410000       0.638253       0.604988       1.016449
       9.420000       0.642489       0.588886       1.009754
       9.430000       0.646908       0.571820       1.007108
       9.440000       0.651607       0.555014       1.009110
       9.450000       0.656674       0.539626       1.015674
       9.460000       0.662193       0.526521       1.026005
       9.470000       0.668252       0.516162       1.038730
       9.480000       0.674934       0.508633       1.052123
       9.490000       0.682317       0.503769       1.064423
       9.500000       0.690454       0.501283       1.074189
       9.510000       0.699364       0.500841       1.080644
       9.520000       0.709029       0.502060       1.083900
       9.530000       0.719379       0.504465       1.084967
       9.540000       0.730291       0.507485       1.085511
       9.550000       0.741591       0.510491       1.087400
       9.560000       0.753064       0.512867       1.092186
       9.570000       0.764474       0.514068       1.100678
       9.580000       0.775580       0.513650       1.112744
       9.590000       0.786142       0.511267       1.127347
       9.600000       0.795925       0.506672       1.142782
       9.610000       0.804708       0.499720       1.157014
       9.620000       0.812302       0.490369       1.168051
       9.630000       0.818569       0.478693       1.174267
       9.640000       0.823450       0.464882       1.174672
       9.650000       0.826970       0.449258       1.169064
       9.660000       0.829241       0.432257       1.158072
       9.670000       0.830451       0.414387       1.143027
       9.680000       0.830848       0.396152       1.125694
       9.690000       0.830709       0.377990       1.107905
       9.700000       0.830307       0.360252       1.091208
       9.710000       0.829863       0.343203       1.076639
       9.720000       0.829522       0.327035       1.064656
       9.730000       0.829348       0.311872       1.055221
       9.740000       0.829343       0.297780       1.047974
       9.750000       0.829478       0.284831       1.042430
       9.760000       0.829726       0.273186       1.038142
       9.770000       0.830069       0.263169       1.034794
       9.780000       0.830501       0.255268       1.032228
       9.790000       0.831030       0.250032       1.030431
       9.800000       0.831686       0.247894       1.029529
       9.810000       0.832530       0.248981       1.029778
       9.820000       0.833653       0.252980       1.031562
       9.830000       0.835153       0.259118       1.035345
       9.840000       0.837115       0.266254       1.041579
       9.850000       0.839590       0.273061       1.050565
       9.860000       0.842610       0.278259       1.062311
       9.870000       0.846201       0.280834       1.076454
       9.880000       0.850403       0.280216       1.092266
       9.890000       0.855264       0.276360       1.108761
       9.900000       0.860828       0.269739       1.124868
       9.910000       0.867103       0.261254       1.139612
       9.920000       0.874053       0.252086       1.152257
       9.930000       0.881591       0.243501       1.162369
       9.940000       0.889591       0.236604       1.169797
       9.950000       0.897912       0.232099       1.174611
       9.960000       0.906414       0.230106       1.177032
       9.970000       0.914978       0.230104       1.177391
       9.980000       0.923515       0.231022       1.176096
       9.990000       0.931960       0.231463       1.173584
      10.000000       0.940278       0.230016       1.170260
      10.010000       0.948465       0.225579       1.166412
      10.020000       0.956553       0.217654       1.162151
      10.030000       0.964613       0.206501       1.157373
      10.040000       0.972725       0.193130       1.151741
      10.050000       0.980945       0.179099       1.144686
      10.060000       0.989274       0.166193       1.135425
      10.070000       0.997623       0.156085       1.123029
      10.080000       1.005821       0.150059       1.106546
      10.090000       1.013626       0.148866       1.085185
      10.100000       1.020774       0.152707       1.058525
      10.110000       1.027032       0.161331       1.026713
      10.120000       1.032249       0.174199       0.990563
      10.130000       1.036393       0.190639       0.951510
      10.140000       1.039553       0.209957       0.911404
      10.150000       1.041901       0.231479       0.872208
      10.160000       1.043628       0.254543       0.835653
      10.170000       1.044875       0.278485       0.802967
      10.180000       1.045706       0.302651       0.774703
      10.190000       1.046107       0.326467       0.750710
      10.200000       1.046024       0.349526       0.730228
      10.210000       1.045398       0.371664       0.712087
      10.220000       1.044186       0.392978       0.694948
      10.230000       1.042373       0.413759       0.677540
      10.240000       1.039978       0.434385       0.658849
      10.250000       1.037071       0.455215       0.638245
      10.260000       1.033791       0.476529       0.615527
      10.270000       1.030336       0.498507       0.590916
      10.280000       1.026930       0.521238       0.564983
      10.290000       1.023757       0.544726       0.538546
      10.300000       1.020923       0.568869       0.512536
      10.310000       1.018441       0.593438       0.487858
      10.320000       1.016279       0.618041       0.465272
      10.330000       1.014418       0.642101       0.445316
      10.340000       1.012891       0.664832       0.428267
      10.350000       1.011775       0.685236       0.414143
      10.360000       1.011132       0.702135       0.402747
      10.370000       1.010939       0.714243       0.393733
      10.380000       1.011048       0.720278       0.386674
      10.390000       1.011198       0.719106       0.381107
      10.400000       1.011063       0.709889       0.376553
      10.410000       1.010323       0.692208       0.372552
      10.420000       1.008728       0.666129       0.368729
      10.430000       1.006143       0.632203       0.364893
      10.440000       1.002560       0.591386       0.361124
      10.450000       0.998092       0.544933       0.357789
      10.460000       0.992934       0.494239       0.355451
      10.470000       0.987324       0.440686       0.354697
      10.480000       0.981484       0.385494       0.355947
      10.490000       0.975572       0.329621       0.359321
      10.500000       0.969658       0.273765       0.364602
      10.510000       0.963727       0.218448       0.371298
      10.520000       0.957728       0.164142       0.378741
      10.530000       0.951643       0.111362       0.386203
      10.540000       0.945533       0.060676       0.392984
      10.550000       0.939551       0.012659       0.398474
      10.560000       0.933913      -0.032176       0.402200
      10.570000       0.928841      -0.073410       0.403876
      10.580000       0.924517      -0.110735       0.403434
      10.590000       0.921055      -0.143955       0.401062
      10.600000       0.918502      -0.173016       0.397202
      10.610000       0.916850      -0.198028       0.392517
      10.620000       0.916058      -0.219252       0.387789
      10.630000       0.916074      -0.237063       0.383784
      10.640000       0.916840      -0.251869       0.381120
      10.650000       0.918294      -0.264048       0.380192
      10.660000       0.920351      -0.273890       0.381168
      10.670000       0.922891      -0.281581       0.384038
      10.680000       0.925751      -0.287208       0.388680
      10.690000       0.928734      -0.290805       0.394914
      10.700000       0.931633      -0.292407       0.402526
      10.710000       0.934253      -0.292109       0.411294
      10.720000       0.936433      -0.290107       0.421007
      10.730000       0.938053      -0.286710       0.431520
      10.740000       0.939030      -0.282321       0.442794
      10.750000       0.939293      -0.277387       0.454927
      10.760000       0.938770      -0.272340       0.468141
      10.770000       0.937388      -0.267534       0.482718
      10.780000       0.935105      -0.263193       0.498919
      10.790000       0.931960      -0.259393       0.516900
      10.800000       0.928114      -0.256060       0.536667
      10.810000       0.923859      -0.252994       0.558058
      10.820000       0.919585      -0.249906       0.580759
      10.830000       0.915705      -0.246458       0.604347
      10.840000       0.912579      -0.242302       0.628345
      10.850000       0.910449      -0.237130       0.652300
      10.860000       0.909414      -0.230707       0.675840
      10.870000       0.909436      -0.222909       0.698727
      10.880000       0.910382      -0.213748       0.720863
      10.890000       0.912086      -0.203400       0.742271
      10.900000       0.914409      -0.192199       0.763035
      10.910000       0.917269      -0.180615       0.783233
      10.920000       0.920642      -0.169177       0.802895
      10.930000       0.924537      -0.158383       0.822003
      10.940000       0.928967      -0.148593       0.840525
      10.950000       0.933927      -0.139968       0.858464
      10.960000       0.939391      -0.132471       0.875861
      10.970000       0.945312      -0.125960       0.892755
      10.980000       0.951631      -0.120315       0.909122
      10.990000       0.958273      -0.115576       0.924805
      11.000000       0.965154      -0.111992       0.939488
      11.010000       0.972183      -0.109986       0.952704
      11.020000       0.979272      -0.110032       0.963867
      11.030000       0.986343      -0.112510       0.972289
      11.040000       0.993325      -0.117594       0.977175
      11.050000       1.000157      -0.125213       0.977578
      11.060000       1.006772      -0.135091       0.972333
      11.070000       1.013079      -0.146813       0.960016
      11.080000       1.018954      -0.159899       0.938951
      11.090000       1.024247      -0.173840       0.907321
      11.100000       1.028819      -0.188119       0.863368
      11.110000       1.032588      -0.202221       0.805678
      11.120000       1.035584      -0.215644       0.733498
      11.130000       1.037968      -0.227938       0.647031
      11.140000       1.040010      -0.238753       0.547621
      11.150000       1.042030      -0.247914       0.437756
      11.160000       1.044320      -0.255475       0.320858
      11.170000       1.047088      -0.261706       0.200881
      11.180000       1.050434      -0.267025       0.081829
      11.190000       1.054361      -0.271860      -0.032700
      11.200000       1.058826      -0.276513      -0.139842
      11.210000       1.063770      -0.281058      -0.237642
      11.220000       1.069144      -0.285317      -0.325069
      11.230000       1.074900      -0.288925      -0.401916
      11.240000       1.080984      -0.291441      -0.468585
      11.250000       1.087333      -0.292479      -0.525836
      11.260000       1.093881      -0.291814      -0.574541
      11.270000       1.100568      -0.289424      -0.615501
      11.280000       1.107350      -0.285486      -0.649360
      11.290000       1.114199      -0.280316      -0.676597
      11.300000       1.121094      -0.274302      -0.697565
      11.310000       1.128009      -0.267818      -0.712536
      11.320000       1.134897      -0.261166      -0.721747
      11.330000       1.141683      -0.254550      -0.725433
      11.340000       1.148259      -0.248079      -0.723837
      11.350000       1.154490      -0.241810      -0.717235
      11.360000       1.160228      -0.235791      -0.705960
      11.370000       1.165332      -0.230091      -0.690443
      11.380000       1.169694      -0.224813      -0.671266
      11.390000       1.173261      -0.220080      -0.649182
      11.400000       1.176044      -0.216012      -0.625095
      11.410000       1.178118      -0.212708      -0.599995
      11.420000       1.179601      -0.210231      -0.574862
      11.430000       1.180641      -0.208604      -0.550582
      11.440000       1.181402      -0.207809      -0.527897
      11.450000       1.182068      -0.207792      -0.507384
      11.460000       1.182859      -0.208458      -0.489443
      11.470000       1.184041      -0.209669      -0.474283
      11.480000       1.185920      -0.211221      -0.461910
      11.490000       1.188810      -0.212830      -0.452130
      11.500000       1.192975      -0.214121      -0.444584
      11.510000       1.198572      -0.214636      -0.438809
      11.520000       1.205615      -0.213877      -0.434320
      11.530000       1.213971      -0.211369      -0.430684
      11.540000       1.223390      -0.206750      -0.427583
      11.550000       1.233559      -0.199828      -0.424839
      11.560000       1.244161      -0.190611      -0.422421
      11.570000       1.254915      -0.179298      -0.420406
      11.580000       1.265612      -0.166234      -0.418934
      11.590000       1.276108      -0.151864      -0.418162
      11.600000       1.286320      -0.136683      -0.418211
      11.610000       1.296191      -0.121210      -0.419132
      11.620000       1.305658      -0.105963      -0.420893
      11.630000       1.314609      -0.091441      -0.423377
      11.640000       1.322866      -0.078100      -0.426405
      11.650000       1.330174      -0.066325      -0.429762
      11.660000       1.336231      -0.056388      -0.433203
      11.670000       1.340738      -0.048408      -0.436448
      11.680000       1.343466      -0.042323      -0.439168
      11.690000       1.344337      -0.037896      -0.440992
      11.700000       1.343475      -0.034765      -0.441555
      11.710000       1.341223      -0.032529      -0.440572
      11.720000       1.338108      -0.030837      -0.437911
      11.730000       1.334770      -0.029455      -0.433640
      11.740000       1.331860      -0.028281      -0.428014
      11.750000       1.329950      -0.027314      -0.421399
      11.760000       1.329444      -0.026609      -0.414176
      11.770000       1.330528      -0.026229      -0.406645
      11.780000       1.333143      -0.026206      -0.398985
      11.790000       1.336994      -0.026526      -0.391266
      11.800000       1.341599      -0.027117      -0.383516
      11.810000       1.346356      -0.027856      -0.375800
      11.820000       1.350619      -0.028578      -0.368297
      11.830000       1.353780      -0.029102      -0.361336
      11.840000       1.355359      -0.029244      -0.355383
      11.850000       1.355106      -0.028840      -0.350977
      11.860000       1.353086      -0.027754      -0.348624
      11.870000       1.349721      -0.025891      -0.348679
      11.880000       1.345745      -0.023195      -0.351242
      11.890000       1.342062      -0.019647      -0.356096
      11.900000       1.339560      -0.015260      -0.362709
      11.910000       1.338927      -0.010081      -0.370298
      11.920000       1.340535      -0.004188      -0.377945
      11.930000       1.344389       0.002305      -0.384744
      11.940000       1.350154       0.009259      -0.389948
      11.950000       1.357226       0.016531      -0.393064
      11.960000       1.364844       0.023999      -0.393884
      11.970000       1.372218       0.031586      -0.392446
      11.980000       1.378686       0.039271      -0.388964
      11.990000       1.383855       0.047082      -0.383740
      12.000000       1.387695       0.055082      -0.377107
      12.010000       1.390566       0.063335      -0.369396
      12.020000       1.393124       0.071893      -0.360930
      12.030000       1.396150       0.080772      -0.352024
      12.040000       1.400327       0.089951      -0.342978
      12.050000       1.406070       0.099363      -0.334063
      12.060000       1.413429       0.108905      -0.325501
      12.070000       1.422083       0.118444      -0.317443
      12.080000       1.431405       0.127834      -0.309959
      12.090000       1.440543       0.136932      -0.303031
      12.100000       1.448548       0.145617      -0.296537
      12.110000       1.454513       0.153802      -0.290254
      12.120000       1.457737       0.161447      -0.283867
      12.130000       1.457868       0.168546      -0.277011
      12.140000       1.454975       0.175119      -0.269328
      12.150000       1.449501       0.181187      -0.260540
      12.160000       1.442095       0.186762      -0.250500
      12.170000       1.433385       0.191855      -0.239200
      12.180000       1.423783       0.196500      -0.226744
      12.190000       1.413399       0.200779      -0.213293
      12.200000       1.402083       0.204840      -0.199023
      12.210000       1.389565       0.208885      -0.184101
      12.220000       1.375634       0.213137      -0.168692
      12.230000       1.360299       0.217793      -0.152981
      12.240000       1.343871       0.222986      -0.137191
      12.250000       1.326934       0.228762      -0.121577
      12.260000       1.310204       0.235086      -0.106422
      12.270000       1.294331       0.241855      -0.092026
      12.280000       1.279704       0.248932      -0.078707
      12.290000       1.266311       0.256168      -0.066792
      12.300000       1.253709       0.263426      -0.056599
      12.310000       1.241099       0.270595      -0.048402
      12.320000       1.227479       0.277593      -0.042381
      12.330000       1.211832       0.284365      -0.038575
      12.340000       1.193318       0.290875      -0.036841
      12.350000       1.171441       0.297093      -0.036836
      12.360000       1.146161       0.302979      -0.038033
      12.370000       1.117906       0.308477      -0.039779
      12.380000       1.087468       0.313516      -0.041376
      12.390000       1.055788       0.318018      -0.042178
      12.400000       1.023739       0.321919      -0.041685
      12.410000       0.991973       0.325180      -0.039601
      12.420000       0.960883       0.327796      -0.035847
      12.430000       0.930640       0.329785      -0.030538
      12.440000       0.901247       0.331190      -0.023925
      12.450000       0.872575       0.332076      -0.016320
      12.460000       0.844386       0.332538      -0.008029
      12.470000       0.816385       0.332716       0.000685
      12.480000       0.788343       0.332802       0.009624
      12.490000       0.760263       0.333042       0.018635
      12.500000       0.732523       0.333709       0.027587
      12.510000       0.705923       0.335057       0.036342
      12.520000       0.681583       0.337271       0.044749
      12.530000       0.660721       0.340435       0.052654
      12.540000       0.644386       0.344529       0.059929
      12.550000       0.633224       0.349449       0.066484
      12.560000       0.627360       0.355051       0.072280
      12.570000       0.626424       0.361190       0.077318
      12.580000       0.629701       0.367748       0.081646
      12.590000       0.636347       0.374642       0.085354
      12.600000       0.645585       0.381826       0.088582
      12.610000       0.656828       0.389276       0.091521
      12.620000       0.669707       0.396974       0.094399
      12.630000       0.683993       0.404904       0.097456
      12.640000       0.699464       0.413039       0.100922
      12.650000       0.715771       0.421345       0.104972
      12.660000       0.732359       0.429777       0.109700
      12.670000       0.748471       0.438290       0.115096
      12.680000       0.763245       0.446830       0.121045
      12.690000       0.775841       0.455342       0.127355
      12.700000       0.785582       0.463774       0.133796
      12.710000       0.792042       0.472086       0.140149
      12.720000       0.795049       0.480252       0.146236
      12.730000       0.794614       0.488270       0.151938
      12.740000       0.790831       0.496149       0.157187
      12.750000       0.783787       0.503907       0.161959
      12.760000       0.773552       0.511552       0.166259
      12.770000       0.760231       0.519074       0.170113
      12.780000       0.744038       0.526445       0.173556
      12.790000       0.725326       0.533618       0.176608
      12.800000       0.704542       0.540532       0.179248
      12.810000       0.682143       0.547117       0.181391
      12.820000       0.658529       0.553300       0.182888
      12.830000       0.634060       0.559000       0.183547
      12.840000       0.609131       0.564127       0.183185
      12.850000       0.584275       0.568582       0.181681
      12.860000       0.560217       0.572268       0.179020
      12.870000       0.537871       0.575109       0.175324
      12.880000       0.518244       0.577070       0.170854
      12.890000       0.502297       0.578184       0.166002
      12.900000       0.490779       0.578560       0.161261
      12.910000       0.484081       0.578382       0.157167
      12.920000       0.482163       0.577900       0.154229
      12.930000       0.484562       0.577400       0.152854
      12.940000       0.490476       0.577173       0.153281
      12.950000       0.498901       0.577482       0.155554
      12.960000       0.508766       0.578523       0.159535
      12.970000       0.519040       0.580403       0.164955
      12.980000       0.528795       0.583139       0.171482
      12.990000       0.537244       0.586668       0.178783
      13.000000       0.543776       0.590888       0.186569
      13.010000       0.548008       0.595687       0.194595
      13.020000       0.549861       0.600972       0.202651
      13.030000       0.549604       0.606681       0.210528
      13.040000       0.547831       0.612780       0.217987
      13.050000       0.545332       0.619245       0.224741
      13.060000       0.542895       0.626040       0.230458
      13.070000       0.541100       0.633100       0.234793
      13.080000       0.540192       0.640326       0.237433
      13.090000       0.540073       0.647588       0.238154
      13.100000       0.540410       0.654738       0.236876
      13.110000       0.540806       0.661625       0.233703
      13.120000       0.540959       0.668117       0.228939
      13.130000       0.540759       0.674122       0.223069
      13.140000       0.540291       0.679592       0.216713
      13.150000       0.539765       0.684529       0.210540
      13.160000       0.539412       0.688981       0.205174
      13.170000       0.539384       0.693019       0.201110
      13.180000       0.539695       0.696724       0.198673
      13.190000       0.540222       0.700160       0.198020
      13.200000       0.540746       0.703357       0.199171
      13.210000       0.541014       0.706302       0.202061
      13.220000       0.540792       0.708944       0.206575
      13.230000       0.539895       0.711214       0.212574
      13.240000       0.538170       0.713049       0.219890
      13.250000       0.535457       0.714429       0.228324
      13.260000       0.531529       0.715396       0.237637
      13.270000       0.526047       0.716059       0.247544
      13.280000       0.518557       0.716579       0.257727
      13.290000       0.508565       0.717134       0.267848
      13.300000       0.495661       0.717877       0.277564
      13.310000       0.479655       0.718902       0.286554
      13.320000       0.460660       0.720219       0.294534
      13.330000       0.439061       0.721754       0.301291
      13.340000       0.415411       0.723361       0.306701
      13.350000       0.390310       0.724864       0.310744
      13.360000       0.364346       0.726087       0.313511
      13.370000       0.338132       0.726903       0.315190
      13.380000       0.312370       0.727244       0.316036
      13.390000       0.287875       0.727103       0.316327
      13.400000       0.265502       0.726519       0.316314
      13.410000       0.246005       0.725560       0.316183
      13.420000       0.229903       0.724317       0.316040
      13.430000       0.217423       0.722906       0.315930
      13.440000       0.208544       0.721464       0.315868
      13.450000       0.203093       0.720134       0.315893
      13.460000       0.200842       0.719044       0.316093
      13.470000       0.201577       0.718272       0.316624
      13.480000       0.205110       0.717836       0.317688
      13.490000       0.211279       0.717687       0.319500
      13.500000       0.219932       0.717731       0.322242
      13.510000       0.230918       0.717848       0.326022
      13.520000       0.244068       0.717908       0.330851
      13.530000       0.259163       0.717773       0.336643
      13.540000       0.275902       0.717287       0.343227
      13.550000       0.293887       0.716253       0.350379
      13.560000       0.312634       0.714433       0.357848
      13.570000       0.331618       0.711569       0.365398
      13.580000       0.350326       0.707426       0.372829
      13.590000       0.368323       0.701856       0.379995
      13.600000       0.385280       0.694830       0.386806
      13.610000       0.400986       0.686450       0.393228
      13.620000       0.415317       0.676928       0.399267
      13.630000       0.428202       0.666547       0.404953
      13.640000       0.439592       0.655642       0.410324
      13.650000       0.449460       0.644584       0.415409
      13.660000       0.457816       0.633774       0.420218
      13.670000       0.464718       0.623626       0.424737
      13.680000       0.470251       0.614522       0.428923
      13.690000       0.474464       0.606758       0.432706
      13.700000       0.477317       0.600497       0.435996
      13.710000       0.478646       0.595740       0.438700
      13.720000       0.478209       0.592332       0.440750
      13.730000       0.475761       0.589991       0.442137
      13.740000       0.471157       0.588365       0.442944
      13.750000       0.464407       0.587086       0.443358
      13.760000       0.455701       0.585816       0.443658
      13.770000       0.445375       0.584262       0.444177
      13.780000       0.433877       0.582160       0.445240
      13.790000       0.421713       0.579261       0.447107
      13.800000       0.409401       0.575329       0.449928
      13.810000       0.397438       0.570170       0.453732
      13.820000       0.386262       0.563674       0.458436
      13.830000       0.376229       0.555871       0.463882
      13.840000       0.367586       0.546954       0.469873
      13.850000       0.360453       0.537279       0.476211
      13.860000       0.354812       0.527320       0.482716
      13.870000       0.350515       0.517599       0.489242
      13.880000       0.347306       0.508611       0.495674
      13.890000       0.344872       0.500764       0.501932
      13.900000       0.342893       0.494366       0.507956
      13.910000       0.341075       0.489640       0.513708
      13.920000       0.339155       0.486740       0.519163
      13.930000       0.336881       0.485752       0.524314
      13.940000       0.334000       0.486665       0.529179
      13.950000       0.330266       0.489340       0.533799
      13.960000       0.325473       0.493498       0.538243
      13.970000       0.319489       0.498719       0.542593
      13.980000       0.312270       0.504475       0.546928
      13.990000       0.303846       0.510185       0.551311
      14.000000       0.294328       0.515269       0.555792
      14.010000       0.283930       0.519222       0.560417
      14.020000       0.273036       0.521660       0.565240
      14.030000       0.262254       0.522363       0.570326
      14.040000       0.252394       0.521278       0.575750
      14.050000       0.244355       0.518500       0.581571
      14.060000       0.238936       0.514228       0.587827
      14.070000       0.236660       0.508730       0.594516
      14.080000       0.237670       0.502317       0.601597
      14.090000       0.241721       0.495328       0.608991
      14.100000       0.248273       0.488132       0.616590
      14.110000       0.256614       0.481104       0.624271
      14.120000       0.265997       0.474588       0.631903
      14.130000       0.275747       0.468847       0.639364
      14.140000       0.285329       0.464038       0.646545
      14.150000       0.294368       0.460214       0.653357
      14.160000       0.302632       0.457363       0.659724
      14.170000       0.309992       0.455445       0.665578
      14.180000       0.316380       0.454411       0.670850
      14.190000       0.321768       0.454205       0.675469
      14.200000       0.326164       0.454739       0.679370
      14.210000       0.329629       0.455878       0.682508
      14.220000       0.332284       0.457439       0.684884
      14.230000       0.334310       0.459203       0.686559
      14.240000       0.335916       0.460942       0.687651
      14.250000       0.337301       0.462444       0.688315
      14.260000       0.338601       0.463527       0.688700
      14.270000       0.339854       0.464036       0.688915
      14.280000       0.340999       0.463836       0.689010
      14.290000       0.341896       0.462804       0.688962
      14.300000       0.342366       0.460833       0.688689
      14.310000       0.342211       0.457851       0.688059
      14.320000       0.341235       0.453841       0.686907
      14.330000       0.339252       0.448869       0.685048
      14.340000       0.336126       0.443096       0.682295
      14.350000       0.331833       0.436765       0.678475
      14.360000       0.326525       0.430183       0.673445
      14.370000       0.320550       0.423685       0.667114
      14.380000       0.314418       0.417594       0.659454
      14.390000       0.308703       0.412206       0.650508
      14.400000       0.303925       0.407768       0.640380
      14.410000       0.300462       0.404478       0.629215
      14.420000       0.298511       0.402475       0.617159
      14.430000       0.298105       0.401839       0.604335
      14.440000       0.299177       0.402576       0.590822
      14.450000       0.301612       0.404613       0.576670
      14.460000       0.305295       0.407801       0.561934
      14.470000       0.310118       0.411933       0.546704
      14.480000       0.315966       0.416754       0.531140
      14.490000       0.322692       0.422001       0.515473
      14.500000       0.330119       0.427418       0.499996
      14.510000       0.338054       0.432788       0.485040
      14.520000       0.346327       0.437936       0.470948
      14.530000       0.354818       0.442724       0.458049
      14.540000       0.363464       0.447025       0.446624
      14.550000       0.372214       0.450692       0.436878
      14.560000       0.380979       0.453537       0.428907
      14.570000       0.389568       0.455330       0.422683
      14.580000       0.397682       0.455831       0.418051
      14.590000       0.404937       0.454854       0.414748
      14.600000       0.410929       0.452337       0.412436
      14.610000       0.415312       0.448396       0.410747
      14.620000       0.417859       0.443337       0.409342
      14.630000       0.418496       0.437604       0.407949
      14.640000       0.417296       0.431675       0.406403
      14.650000       0.414444       0.425973       0.404654
      14.660000       0.410192       0.420791       0.402764
      14.670000       0.404801       0.416278       0.400884
      14.680000       0.398512       0.412456       0.399221
      14.690000       0.391527       0.409246       0.397991
      14.700000       0.384025       0.406494       0.397378
      14.710000       0.376188       0.404000       0.397506
      14.720000       0.368209       0.401545       0.398415
      14.730000       0.360275       0.398910       0.400077
      14.740000       0.352523       0.395904       0.402406
      14.750000       0.345006       0.392371       0.405293
      14.760000       0.337695       0.388202       0.408638
      14.770000       0.330525       0.383333       0.412367
      14.780000       0.323476       0.377749       0.416435
      14.790000       0.316633       0.371484       0.420809
      14.800000       0.310193       0.364612       0.425450
      14.810000       0.304408       0.357238       0.430298
      14.820000       0.299504       0.349471       0.435278
      14.830000       0.295627       0.341407       0.440315
      14.840000       0.292824       0.333103       0.445356
      14.850000       0.291063       0.324570       0.450391
      14.860000       0.290262       0.315794       0.455460
      14.870000       0.290299       0.306772       0.460647
      14.880000       0.291013       0.297562       0.466055
      14.890000       0.292204       0.288325       0.471781
      14.900000       0.293644       0.279331       0.477889
      14.910000       0.295108       0.270927       0.484401
      14.920000       0.296425       0.263470       0.491294
      14.930000       0.297530       0.257238       0.498507
      14.940000       0.298506       0.252376       0.505961
      14.950000       0.299582       0.248876       0.513559
      14.960000       0.301085       0.246602       0.521202
      14.970000       0.303361       0.245353       0.528784
      14.980000       0.306693       0.244924       0.536205
      14.990000       0.311245       0.245147       0.543376
      15.000000       0.317044       0.245904       0.550230
      15.010000       0.324005       0.247123       0.556729
      15.020000       0.331974       0.248751       0.562867
      15.030000       0.340781       0.250740       0.568671
      15.040000       0.350274       0.253025       0.574184
      15.050000       0.360323       0.255511       0.579458
      15.060000       0.370805       0.258062       0.584532
      15.070000       0.381585       0.260504       0.589431
      15.080000       0.392505       0.262626       0.594164
      15.090000       0.403386       0.264208       0.598734
      15.100000       0.414048       0.265039       0.603146
      15.110000       0.424335       0.264952       0.607409
      15.120000       0.434128       0.263844       0.611536
      15.130000       0.443360       0.261694       0.615540
      15.140000       0.452010       0.258566       0.619423
      15.150000       0.460086       0.254601       0.623188
      15.160000       0.467597       0.249993       0.626839
      15.170000       0.474522       0.244959       0.630396
      15.180000       0.480782       0.239694       0.633910
      15.190000       0.486228       0.234352       0.637457
      15.200000       0.490653       0.229032       0.641139
      15.210000       0.493830       0.223803       0.645063
      15.220000       0.495566       0.218728       0.649321
      15.230000       0.495766       0.213890       0.653973
      15.240000       0.494491       0.209401       0.659045
      15.250000       0.491983       0.205394       0.664527
      15.260000       0.488669       0.202000       0.670386
      15.270000       0.485118       0.199329       0.676581
      15.280000       0.481962       0.197448       0.683069
      15.290000       0.479785       0.196384       0.689815
      15.300000       0.479017       0.196122       0.696798
      15.310000       0.479861       0.196625       0.704012
      15.320000       0.482269       0.197845       0.711467
      15.330000       0.485976       0.199736       0.719178
      15.340000       0.490562       0.202257       0.727151
      15.350000       0.495539       0.205373       0.735370
      15.360000       0.500420       0.209047       0.743790
      15.370000       0.504791       0.213245       0.752344
      15.380000       0.508358       0.217928       0.760957
      15.390000       0.510983       0.223058       0.769560
      15.400000       0.512684       0.228589       0.778096
      15.410000       0.513613       0.234463       0.786516
      15.420000       0.513997       0.240604       0.794758
      15.430000       0.514068       0.246908       0.802740
      15.440000       0.513982       0.253254       0.810339
      15.450000       0.513771       0.259508       0.817397
      15.460000       0.513326       0.265536       0.823728
      15.470000       0.512420       0.271225       0.829135
      15.480000       0.510761       0.276488       0.833432
      15.490000       0.508064       0.281277       0.836455
      15.500000       0.504097       0.285581       0.838073
      15.510000       0.498730       0.289419       0.838186
      15.520000       0.491943       0.292835       0.836718
      15.530000       0.483843       0.295885       0.833611
      15.540000       0.474650       0.298640       0.828817
      15.550000       0.464673       0.301180       0.822305
      15.560000       0.454264       0.303597       0.814070
      15.570000       0.443761       0.305984       0.804141
      15.580000       0.433447       0.308418       0.792598
      15.590000       0.423528       0.310947       0.779569
      15.600000       0.414146       0.313570       0.765221
      15.610000       0.405407       0.316233       0.749741
      15.620000       0.397417       0.318841       0.733310
      15.630000       0.390302       0.321280       0.716094
      15.640000       0.384214       0.323445       0.698247
      15.650000       0.379309       0.325266       0.679928
      15.660000       0.375710       0.326720       0.661327
      15.670000       0.373467       0.327838       0.642671
      15.680000       0.372550       0.328699       0.624224
      15.690000       0.372850       0.329417       0.606256
      15.700000       0.374215       0.330124       0.589013
      15.710000       0.376474       0.330945       0.572685
      15.720000       0.379459       0.331975       0.557393
      15.730000       0.383002       0.333269       0.543184
      15.740000       0.386943       0.334834       0.530044
      15.750000       0.391119       0.336639       0.517899
      15.760000       0.395374       0.338621       0.506634
      15.770000       0.399568       0.340705       0.496092
      15.780000       0.403595       0.342821       0.486086
      15.790000       0.407397       0.344915       0.476410
      15.800000       0.410971       0.346958       0.466869
      15.810000       0.414360       0.348942       0.457301
      15.820000       0.417637       0.350872       0.447622
      15.830000       0.420877       0.352753       0.437853
      15.840000       0.424127       0.354583       0.428127
      15.850000       0.427393       0.356355       0.418668
      15.860000       0.430643       0.358057       0.409739
      15.870000       0.433824       0.359679       0.401572
      15.880000       0.436887       0.361211       0.394308
      15.890000       0.439817       0.362648       0.387965
      15.900000       0.442646       0.363983       0.382446
      15.910000       0.445451       0.365213       0.377581
      15.920000       0.448343       0.366330       0.373174
      15.930000       0.451447       0.367325       0.369048
      15.940000       0.454879       0.368183       0.365066
      15.950000       0.458722       0.368883       0.361134
      15.960000       0.463009       0.369404       0.357185
      15.970000       0.467718       0.369734       0.353173
      15.980000       0.472775       0.369870       0.349059
      15.990000       0.478072       0.369817       0.344813
      16.000000       0.483485       0.369581       0.340416
      16.010000       0.488888       0.369166       0.335862
      16.020000       0.494165       0.368582       0.331159
      16.030000       0.499218       0.367853       0.326329
      16.040000       0.503968       0.367030       0.321400
      16.050000       0.508367       0.366189       0.316403
      16.060000       0.512392       0.365426       0.311368
      16.070000       0.516047       0.364844       0.306320
      16.080000       0.519359       0.364542       0.301292
      16.090000       0.522364       0.364600       0.296337
      16.100000       0.525098       0.365077       0.291534
      16.110000       0.527583       0.366006       0.286994
      16.120000       0.529818       0.367382       0.282849
      16.130000       0.531781       0.369167       0.279239
      16.140000       0.533438       0.371290       0.276303
      16.150000       0.534765       0.373664       0.274165
      16.160000       0.535746       0.376200       0.272928
      16.170000       0.536364       0.378817       0.272673
      16.180000       0.536572       0.381451       0.273450
      16.190000       0.536256       0.384052       0.275270
      16.200000       0.535214       0.386579       0.278100
      16.210000       0.533153       0.388991       0.281859
      16.220000       0.529734       0.391247       0.286430
      16.230000       0.524636       0.393305       0.291680
      16.240000       0.517652       0.395133       0.297475
      16.250000       0.508767       0.396715       0.303698
      16.260000       0.498195       0.398064       0.310253
      16.270000       0.486364       0.399229       0.317067
      16.280000       0.473837       0.400286       0.324090
      16.290000       0.461208       0.401330       0.331285
      16.300000       0.449007       0.402456       0.338632
      16.310000       0.437644       0.403738       0.346110
      16.320000       0.427386       0.405220       0.353700
      16.330000       0.418354       0.406913       0.361374
      16.340000       0.410534       0.408804       0.369092
      16.350000       0.403794       0.410862       0.376811
      16.360000       0.397926       0.413053       0.384480
      16.370000       0.392708       0.415351       0.392051
      16.380000       0.387974       0.417740       0.399480
      16.390000       0.383672       0.420220       0.406728
      16.400000       0.379878       0.422800       0.413763
      16.410000       0.376772       0.425498       0.420556
      16.420000       0.374570       0.428325       0.427083
      16.430000       0.373458       0.431287       0.433322
      16.440000       0.373539       0.434374       0.439253
      16.450000       0.374814       0.437565       0.444861
      16.460000       0.377191       0.440823       0.450131
      16.470000       0.380506       0.444098       0.455058
      16.480000       0.384562       0.447329       0.459645
      16.490000       0.389155       0.450441       0.463906
      16.500000       0.394092       0.453350       0.467870
      16.510000       0.399197       0.455958       0.471579
      16.520000       0.404315       0.458160       0.475084
      16.530000       0.409301       0.459847       0.478439
      16.540000       0.414025       0.460917       0.481691
      16.550000       0.418365       0.461289       0.484876
      16.560000       0.422223       0.460919       0.488010
      16.570000       0.425536       0.459821       0.491085
      16.580000       0.428286       0.458075       0.494079
      16.590000       0.430514       0.455834       0.496961
      16.600000       0.432317       0.453305       0.499701
      16.610000       0.433833       0.450730       0.502285
      16.620000       0.435213       0.448343       0.504711
      16.630000       0.436588       0.446346       0.506997
      16.640000       0.438048       0.444878       0.509173
      16.650000       0.439632       0.444010       0.511276
      16.660000       0.441340       0.443747       0.513341
      16.670000       0.443153       0.444043       0.515400
      16.680000       0.445051       0.444817       0.517474
      16.690000       0.447021       0.445976       0.519572
      16.700000       0.449058       0.447428       0.521696
      16.710000       0.451162       0.449088       0.523843
      16.720000       0.453334       0.450884       0.526006
      16.730000       0.455579       0.452752       0.528177
      16.740000       0.457908       0.454633       0.530344
      16.750000       0.460351       0.456466       0.532487
      16.760000       0.462949       0.458185       0.534577
      16.770000       0.465759       0.459721       0.536576
      16.780000       0.468827       0.461009       0.538440
      16.790000       0.472176       0.461988       0.540126
      16.800000       0.475790       0.462610       0.541607
      16.810000       0.479607       0.462840       0.542877
      16.820000       0.483530       0.462669       0.543958
      16.830000       0.487447       0.462116       0.544902
      16.840000       0.491255       0.461237       0.545780
      16.850000       0.494886       0.460136       0.546676
      16.860000       0.498317       0.458955       0.547663
      16.870000       0.501561       0.457855       0.548801
      16.880000       0.504650       0.456999       0.550125
      16.890000       0.507603       0.456522       0.551648
      16.900000       0.510404       0.456514       0.553363
      16.910000       0.512989       0.457011       0.555260
      16.920000       0.515258       0.458002       0.557325
      16.930000       0.517088       0.459433       0.559550
      16.940000       0.518363       0.461221       0.561925
      16.950000       0.518996       0.463269       0.564440
      16.960000       0.518944       0.465474       0.567077
      16.970000       0.518211       0.467738       0.569808
      16.980000       0.516843       0.469979       0.572603
      16.990000       0.514914       0.472137       0.575424
      17.000000       0.512523       0.474177       0.578230
      17.010000       0.509779       0.476097       0.580974
      17.020000       0.506796       0.477915       0.583599
      17.030000       0.503676       0.479654       0.586040
      17.040000       0.500507       0.481330       0.588232
      17.050000       0.497350       0.482939       0.590117
      17.060000       0.494247       0.484452       0.591656
      17.070000       0.491221       0.485826       0.592843
      17.080000       0.488280       0.487015       0.593703
      17.090000       0.485411       0.487983       0.594293
      17.100000       0.482587       0.488708       0.594683
      17.110000       0.479771       0.489189       0.594949
      17.120000       0.476933       0.489447       0.595159
      17.130000       0.474073       0.489521       0.595373
      17.140000       0.471231       0.489466       0.595643
      17.150000       0.468485       0.489349       0.596015
      17.160000       0.465930       0.489244       0.596533
      17.170000       0.463647       0.489231       0.597240
      17.180000       0.461681       0.489383       0.598176
      17.190000       0.460030       0.489768       0.599370
      17.200000       0.458659       0.490435       0.600836
      17.210000       0.457514       0.491405       0.602570
      17.220000       0.456547       0.492668       0.604544
      17.230000       0.455712       0.494182       0.606716
      17.240000       0.454970       0.495887       0.609035
      17.250000       0.454281       0.497715       0.611448
      17.260000       0.453602       0.499603       0.613905
      17.270000       0.452887       0.501503       0.616363
      17.280000       0.452086       0.503380       0.618782
      17.290000       0.451145       0.505210       0.621125
      17.300000       0.450004       0.506978       0.623359
      17.310000       0.448617       0.508669       0.625455
      17.320000       0.446966       0.510264       0.627395
      17.330000       0.445084       0.511739       0.629174
      17.340000       0.443061       0.513066       0.630799
      17.350000       0.441032       0.514215       0.632287
      17.360000       0.439151       0.515166       0.633662
      17.370000       0.437561       0.515911       0.634950
      17.380000       0.436376       0.516458       0.636179
      17.390000       0.435679       0.516829       0.637372
      17.400000       0.435520       0.517056       0.638550
      17.410000       0.435927       0.517169       0.639723
      17.420000       0.436897       0.517195       0.640896
      17.430000       0.438400       0.517148       0.642066
      17.440000       0.440380       0.517038       0.643228
      17.450000       0.442770       0.516869       0.644374
      17.460000       0.445506       0.516651       0.645498
      17.470000       0.448536       0.516397       0.646595
      17.480000       0.451816       0.516122       0.647660
      17.490000       0.455311       0.515839       0.648692
      17.500000       0.458983       0.515556       0.649699
      17.510000       0.462789       0.515278       0.650694
      17.520000       0.466681       0.515008       0.651699
      17.530000       0.470604       0.514748       0.652738
      17.540000       0.474492       0.514506       0.653831
      17.550000       0.478271       0.514292       0.654993
      17.560000       0.481860       0.514123       0.656238
      17.570000       0.485183       0.514016       0.657578
      17.580000       0.488183       0.513977       0.659026
      17.590000       0.490831       0.513997       0.660597
      17.600000       0.493135       0.514049       0.662298
      17.610000       0.495128       0.514090       0.664127
      17.620000       0.496853       0.514072       0.666073
      17.630000       0.498341       0.513955       0.668110
      17.640000       0.499595       0.513715       0.670204
      17.650000       0.500587       0.513350       0.672311
      17.660000       0.501265       0.512879       0.674387
      17.670000       0.501576       0.512344       0.676392
      17.680000       0.501491       0.511802       0.678298
      17.690000       0.501018       0.511331       0.680088
      17.700000       0.500205       0.511021       0.681758
      17.710000       0.499127       0.510965       0.683313
      17.720000       0.497861       0.511241       0.684765
      17.730000       0.496465       0.511903       0.686129
      17.740000       0.494962       0.512965       0.687427
      17.750000       0.493339       0.514402       0.688684
      17.760000       0.491555       0.516161       0.689934
      17.770000       0.489560       0.518172       0.691211
      17.780000       0.487317       0.520358       0.692546
      17.790000       0.484816       0.522646       0.693961
      17.800000       0.482083       0.524972       0.695461
      17.810000       0.479174       0.527281       0.697036
      17.820000       0.476162       0.529530       0.698664
      17.830000       0.473116       0.531688       0.700311
      17.840000       0.470090       0.533729       0.701945
      17.850000       0.467111       0.535629       0.703534
      17.860000       0.464182       0.537360       0.705059
      17.870000       0.461298       0.538889       0.706515
      17.880000       0.458457       0.540177       0.707908
      17.890000       0.455683       0.541184       0.709250
      17.900000       0.453033       0.541883       0.710550
      17.910000       0.450603       0.542267       0.711801
      17.920000       0.448507       0.542356       0.712986
      17.930000       0.446852       0.542197       0.714072
      17.940000       0.445706       0.541865       0.715025
      17.950000       0.445087       0.541448       0.715820
      17.960000       0.444964       0.541042       0.716449
      17.970000       0.445271       0.540736       0.716927
      17.980000       0.445933       0.540600       0.717292
      17.990000       0.446880       0.540682       0.717606
      18.000000       0.448063       0.541002       0.717948
      18.010000       0.449459       0.541555       0.718400
      18.020000       0.451069       0.542314       0.719043
      18.030000       0.452915       0.543237       0.719937
      18.040000       0.455022       0.544274       0.721118
      18.050000       0.457413       0.545374       0.722591
      18.060000       0.460092       0.546488       0.724334
      18.070000       0.463041       0.547579       0.726298
      18.080000       0.466217       0.548616       0.728421
      18.090000       0.469556       0.549578       0.730639
      18.100000       0.472988       0.550447       0.732891
      18.110000       0.476446       0.551215       0.735129
      18.120000       0.479876       0.551883       0.737323
      18.130000       0.483247       0.552460       0.739456
      18.140000       0.486541       0.552963       0.741530
      18.150000       0.489746       0.553412       0.743553
      18.160000       0.492845       0.553829       0.745542
      18.170000       0.495813       0.554229       0.747515
      18.180000       0.498617       0.554625       0.749484
      18.190000       0.501224       0.555028       0.751458
      18.200000       0.503608       0.555446       0.753439
      18.210000       0.505766       0.555892       0.755422
      18.220000       0.507723       0.556378       0.757402
      18.230000       0.509534       0.556921       0.759375
      18.240000       0.511284       0.557533       0.761342
      18.250000       0.513064       0.558220       0.763306
      18.260000       0.514961       0.558979       0.765271
      18.270000       0.517037       0.559790       0.767242
      18.280000       0.519319       0.560620       0.769220
      18.290000       0.521797       0.561423       0.771203
      18.300000       0.524434       0.562144       0.773185
      18.310000       0.527167       0.562735       0.775157
      18.320000       0.529923       0.563164       0.777112
      18.330000       0.532625       0.563425       0.779047
      18.340000       0.535194       0.563540       0.780969
      18.350000       0.537554       0.563554       0.782900
      18.360000       0.539640       0.563523       0.784872
      18.370000       0.541401       0.563503       0.786926
      18.380000       0.542813       0.563535       0.789101
      18.390000       0.543883       0.563646       0.791431
      18.400000       0.544655       0.563844       0.793934
      18.410000       0.545194       0.564129       0.796613
      18.420000       0.545585       0.564491       0.799459
      18.430000       0.545905       0.564921       0.802448
      18.440000       0.546215       0.565410       0.805554
      18.450000       0.546545       0.565943       0.808744
      18.460000       0.546899       0.566505       0.811983
      18.470000       0.547263       0.567078       0.815235
      18.480000       0.547621       0.567640       0.818462
      18.490000       0.547971       0.568164       0.821629
      18.500000       0.548331       0.568623       0.824703
      18.510000       0.548724       0.568986       0.827661
      18.520000       0.549165       0.569224       0.830491
      18.530000       0.549641       0.569318       0.833196
      18.540000       0.550109       0.569261       0.835786
      18.550000       0.550497       0.569062       0.838286
      18.560000       0.550725       0.568748       0.840722
      18.570000       0.550719       0.568358       0.843123
      18.580000       0.550428       0.567933       0.845510
      18.590000       0.549832       0.567502       0.847896
      18.600000       0.548947       0.567083       0.850280
      18.610000       0.547828       0.566677       0.852647
      18.620000       0.546566       0.566274       0.854972
      18.630000       0.545284       0.565864       0.857223
      18.640000       0.544118       0.565443       0.859364
      18.650000       0.543196       0.565014       0.861364
      18.660000       0.542617       0.564593       0.863199
      18.670000       0.542433       0.564201       0.864856
      18.680000       0.542640       0.563863       0.866329
      18.690000       0.543186       0.563599       0.867623
      18.700000       0.543988       0.563426       0.868748
      18.710000       0.544950       0.563351       0.869722
      18.720000       0.545982       0.563376       0.870574
      18.730000       0.547018       0.563496       0.871337
      18.740000       0.548013       0.563704       0.872057
      18.750000       0.548951       0.563996       0.872784
      18.760000       0.549825       0.564369       0.873576
      18.770000       0.550635       0.564826       0.874484
      18.780000       0.551376       0.565376       0.875553
      18.790000       0.552037       0.566030       0.876799
      18.800000       0.552610       0.566800       0.878214
      18.810000       0.553092       0.567697       0.879756
      18.820000       0.553493       0.568725       0.881366
      18.830000       0.553828       0.569882       0.882986
      18.840000       0.554113       0.571161       0.884579
      18.850000       0.554355       0.572555       0.886140
      18.860000       0.554550       0.574056       0.887699
      18.870000       0.554680       0.575659       0.889310
      18.880000       0.554721       0.577362       0.891042
      18.890000       0.554641       0.579159       0.892957
      18.900000       0.554401       0.581042       0.895104
      18.910000       0.553958       0.582994       0.897507
      18.920000       0.553270       0.584992       0.900162
      18.930000       0.552295       0.587006       0.903041
      18.940000       0.551007       0.589001       0.906097
      18.950000       0.549396       0.590942       0.909266
      18.960000       0.547480       0.592796       0.912472
      18.970000       0.545318       0.594539       0.915633
      18.980000       0.543008       0.596160       0.918660
      18.990000       0.540688       0.597654       0.921472
      19.000000       0.538523       0.599026       0.924007
      19.010000       0.536680       0.600285       0.926235
      19.020000       0.535304       0.601438       0.928165
      19.030000       0.534491       0.602491       0.929833
      19.040000       0.534275       0.603448       0.931289
      19.050000       0.534627       0.604309       0.932566
      19.060000       0.535474       0.605077       0.933674
      19.070000       0.536712       0.605756       0.934600
      19.080000       0.538236       0.606359       0.935322
      19.090000       0.539953       0.606903       0.935825
      19.100000       0.541799       0.607414       0.936119
      19.110000       0.543737       0.607918       0.936230
      19.120000       0.545757       0.608445       0.936198
      19.130000       0.547865       0.609023       0.936054
      19.140000       0.550068       0.609682       0.935804
      19.150000       0.552370       0.610451       0.935409
      19.160000       0.554762       0.611350       0.934776
      19.170000       0.557224       0.612390       0.933765
      19.180000       0.559732       0.613565       0.932203
      19.190000       0.562259       0.614855       0.929915
      19.200000       0.564787       0.616231       0.926746
      19.210000       0.567301       0.617658       0.922590
      19.220000       0.569794       0.619107       0.917407
      19.230000       0.572267       0.620554       0.911238
      19.240000       0.574723       0.621981       0.904212
      19.250000       0.577174       0.623378       0.896530
      19.260000       0.579628       0.624737       0.888440
      19.270000       0.582085       0.626051       0.880187
      19.280000       0.584538       0.627307       0.871980
      19.290000       0.586963       0.628490       0.863955
      19.300000       0.589323       0.629578       0.856176
      19.310000       0.591576       0.630546       0.848660
      19.320000       0.593678       0.631366       0.841411
      19.330000       0.595595       0.632011       0.834447
      19.340000       0.597302       0.632460       0.827813
      19.350000       0.598796       0.632699       0.821568
      19.360000       0.600084       0.632726       0.815758
      19.370000       0.601193       0.632550       0.810395
      19.380000       0.602162       0.632199       0.805447
      19.390000       0.603045       0.631713       0.800859
      19.400000       0.603900       0.631143       0.796574
      19.410000       0.604789       0.630542       0.792562
      19.420000       0.605762       0.629958       0.788834
      19.430000       0.606852       0.629421       0.785425
      19.440000       0.608065       0.628943       0.782369
      19.450000       0.609388       0.628513       0.779670
      19.460000       0.610788       0.628108       0.777272
      19.470000       0.612232       0.627701       0.775065
      19.480000       0.613694       0.627273       0.772894
      19.490000       0.615161       0.626818       0.770596
      19.500000       0.616640       0.626345       0.768034
      19.510000       0.618142       0.625878       0.765119
      19.520000       0.619681       0.625448       0.761823
      19.530000       0.621253       0.625086       0.758171
      19.540000       0.622838       0.624821       0.754233
      19.550000       0.624399       0.624665       0.750111
      19.560000       0.625889       0.624619       0.745933
      19.570000       0.627256       0.624668       0.741838
      19.580000       0.628446       0.624790       0.737969
      19.590000       0.629392       0.624955       0.734463
      19.600000       0.630007       0.625136       0.731431
      19.610000       0.630183       0.625309       0.728944
      19.620000       0.629784       0.625456       0.727027
      19.630000       0.628666       0.625564       0.725654
      19.640000       0.626688       0.625632       0.724764
      19.650000       0.623733       0.625670       0.724271
      19.660000       0.619735       0.625699       0.724075
      19.670000       0.614697       0.625755       0.724075
      19.680000       0.608727       0.625882       0.724176
      19.690000       0.602049       0.626119       0.724294
      19.700000       0.595008       0.626496       0.724366
      19.710000       0.588033       0.627025       0.724355
      19.720000       0.581565       0.627702       0.724255
      19.730000       0.575984       0.628508       0.724089
      19.740000       0.571543       0.629422       0.723901
      19.750000       0.568344       0.630419       0.723742
      19.760000       0.566351       0.631477       0.723663
      19.770000       0.565430       0.632576       0.723711
      19.780000       0.565391       0.633695       0.723921
      19.790000       0.566025       0.634812       0.724318
      19.800000       0.567130       0.635907       0.724906
      19.810000       0.568532       0.636963       0.725663
      19.820000       0.570093       0.637969       0.726537
      19.830000       0.571716       0.638922       0.727456
      19.840000       0.573347       0.639822       0.728332
      19.850000       0.574972       0.640673       0.729076
      19.860000       0.576605       0.641475       0.729616
      19.870000       0.578278       0.642226       0.729900
      19.880000       0.580024       0.642920       0.729910
      19.890000       0.581865       0.643554       0.729651
      19.900000       0.583806       0.644129       0.729151
      19.910000       0.585838       0.644651       0.728444
      19.920000       0.587943       0.645126       0.727567
      19.930000       0.590100       0.645565       0.726554
      19.940000       0.592295       0.645970       0.725439
      19.950000       0.594526       0.646345       0.724265
      19.960000       0.596798       0.646685       0.723079
      19.970000       0.599123       0.646986       0.721937
      19.980000       0.601513       0.647236       0.720889
      19.990000       0.603977       0.647424       0.719981
      20.000000       0.606516       0.647538       0.719248
