  # energy grid [eV]     epsi_x  epsi_y  epsi_z
       0.000000            NaN            NaN            NaN
       0.010000       0.003138       0.001855       0.037480
       0.020000       0.006280       0.003712       0.065782
       0.030000       0.009431       0.005574       0.083221
       0.040000       0.012596       0.007442       0.092945
       0.050000       0.015779       0.009319       0.098478
       0.060000       0.018985       0.011208       0.102151
       0.070000       0.022218       0.013110       0.105168
       0.080000       0.025484       0.015028       0.108000
       0.090000       0.028788       0.016965       0.110704
       0.100000       0.032135       0.018923       0.113127
       0.110000       0.035530       0.020904       0.115050
       0.120000       0.038980       0.022912       0.116285
       0.130000       0.042490       0.024950       0.116740
       0.140000       0.046067       0.027020       0.116446
       0.150000       0.049718       0.029125       0.115559
       0.160000       0.053449       0.031270       0.114328
       0.170000       0.057269       0.033456       0.113055
       0.180000       0.061187       0.035689       0.112049
       0.190000       0.065210       0.037972       0.111585
       0.200000       0.069348       0.040309       0.111879
       0.210000       0.073612       0.042705       0.113068
       0.220000       0.078014       0.045165       0.115201
       0.230000       0.082565       0.047693       0.118233
       0.240000       0.087279       0.050297       0.122011
       0.250000       0.092170       0.052980       0.126265
       0.260000       0.097256       0.055751       0.130610
       0.270000       0.102553       0.058617       0.134561
       0.280000       0.108081       0.061584       0.137586
       0.290000       0.113861       0.064663       0.139188
       0.300000       0.119917       0.067861       0.139013
       0.310000       0.126274       0.071189       0.136929
       0.320000       0.132959       0.074659       0.133057
       0.330000       0.139999       0.078281       0.127731
       0.340000       0.147426       0.082068       0.121416
       0.350000       0.155266       0.086035       0.114599
       0.360000       0.163547       0.090195       0.107717
       0.370000       0.172290       0.094564       0.101112
       0.380000       0.181510       0.099156       0.095020
       0.390000       0.191213       0.103988       0.089587
       0.400000       0.201395       0.109074       0.084883
       0.410000       0.212045       0.114433       0.080928
       0.420000       0.223157       0.120085       0.077706
       0.430000       0.234736       0.126052       0.075179
       0.440000       0.246821       0.132367       0.073295
       0.450000       0.259492       0.139070       0.071999
       0.460000       0.272874       0.146211       0.071232
       0.470000       0.287134       0.153849       0.070944
       0.480000       0.302467       0.162053       0.071093
       0.490000       0.319088       0.170896       0.071651
       0.500000       0.337222       0.180460       0.072601
       0.510000       0.357101       0.190832       0.073935
       0.520000       0.378969       0.202102       0.075656
       0.530000       0.403084       0.214363       0.077770
       0.540000       0.429727       0.227710       0.080291
       0.550000       0.459205       0.242232       0.083232
       0.560000       0.491856       0.258007       0.086600
       0.570000       0.528057       0.275095       0.090378
       0.580000       0.568221       0.293530       0.094517
       0.590000       0.612796       0.313315       0.098917
       0.600000       0.662254       0.334428       0.103438
       0.610000       0.717068       0.356833       0.107904
       0.620000       0.777674       0.380499       0.112131
       0.630000       0.844403       0.405424       0.115951
       0.640000       0.917375       0.431632       0.119230
       0.650000       0.996346       0.459162       0.121856
       0.660000       1.080512       0.488042       0.123727
       0.670000       1.168287       0.518258       0.124734
       0.680000       1.257100       0.549750       0.124761
       0.690000       1.343314       0.582425       0.123714
       0.700000       1.422352       0.616164       0.121562
       0.710000       1.489137       0.650829       0.118376
       0.720000       1.538867       0.686235       0.114332
       0.730000       1.567985       0.722129       0.109687
       0.740000       1.575050       0.758181       0.104738
       0.750000       1.561166       0.793997       0.099765
       0.760000       1.529757       0.829152       0.095007
       0.770000       1.485774       0.863229       0.090637
       0.780000       1.434680       0.895868       0.086772
       0.790000       1.381563       0.926858       0.083481
       0.800000       1.330597       0.956264       0.080798
       0.810000       1.284860       0.984555       0.078727
       0.820000       1.246412       1.012637       0.077253
       0.830000       1.216491       1.041756       0.076341
       0.840000       1.195749       1.073245       0.075936
       0.850000       1.184442       1.108211       0.075964
       0.860000       1.182593       1.147219       0.076332
       0.870000       1.190093       1.190062       0.076942
       0.880000       1.206769       1.235649       0.077698
       0.890000       1.232431       1.282062       0.078530
       0.900000       1.266893       1.326782       0.079401
       0.910000       1.309989       1.367111       0.080317
       0.920000       1.361577       1.400708       0.081320
       0.930000       1.421549       1.426137       0.082467
       0.940000       1.489861       1.443252       0.083808
       0.950000       1.566607       1.453281       0.085365
       0.960000       1.652134       1.458542       0.087119
       0.970000       1.747198       1.461861       0.089010
       0.980000       1.853075       1.465871       0.090944
       0.990000       1.971586       1.472381       0.092813
       1.000000       2.104992       1.481942       0.094517
       1.010000       2.255771       1.493673       0.095980
       1.020000       2.426325       1.505367       0.097171
       1.030000       2.618637       1.513906       0.098096
       1.040000       2.833880       1.515949       0.098800
       1.050000       3.071960       1.508773       0.099340
       1.060000       3.330972       1.491010       0.099761
       1.070000       3.606617       1.463018       0.100077
       1.080000       3.891717       1.426723       0.100265
       1.090000       4.176051       1.385047       0.100272
       1.100000       4.446793       1.341172       0.100044
       1.110000       4.689740       1.297940       0.099546
       1.120000       4.891238       1.257524       0.098776
       1.130000       5.040352       1.221376       0.097763
       1.140000       5.130514       1.190354       0.096543
       1.150000       5.159977       1.164907       0.095145
       1.160000       5.130926       1.145225       0.093582
       1.170000       5.047780       1.131337       0.091857
       1.180000       4.915714       1.123148       0.089972
       1.190000       4.740124       1.120457       0.087942
       1.200000       4.527068       1.122966       0.085802
       1.210000       4.284016       1.130255       0.083610
       1.220000       4.020074       1.141722       0.081443
       1.230000       3.745376       1.156503       0.079390
       1.240000       3.469894       1.173437       0.077535
       1.250000       3.202247       1.191138       0.075949
       1.260000       2.948942       1.208228       0.074681
       1.270000       2.714155       1.223688       0.073745
       1.280000       2.499940       1.237205       0.073132
       1.290000       2.306653       1.249372       0.072805
       1.300000       2.133437       1.261626       0.072715
       1.310000       1.978670       1.275964       0.072806
       1.320000       1.840365       1.294546       0.073029
       1.330000       1.716496       1.319311       0.073342
       1.340000       1.605244       1.351695       0.073719
       1.350000       1.505138       1.392425       0.074143
       1.360000       1.415096       1.441380       0.074612
       1.370000       1.334358       1.497468       0.075137
       1.380000       1.262390       1.558539       0.075745
       1.390000       1.198774       1.621400       0.076477
       1.400000       1.143133       1.682005       0.077388
       1.410000       1.095085       1.735917       0.078543
       1.420000       1.054223       1.779011       0.080001
       1.430000       1.020106       1.808307       0.081806
       1.440000       0.992249       1.822649       0.083980
       1.450000       0.970112       1.823019       0.086518
       1.460000       0.953081       1.812330       0.089393
       1.470000       0.940458       1.794806       0.092561
       1.480000       0.931448       1.775155       0.095978
       1.490000       0.925145       1.757812       0.099606
       1.500000       0.920530       1.746402       0.103416
       1.510000       0.916479       1.743440       0.107378
       1.520000       0.911817       1.750215       0.111444
       1.530000       0.905440       1.766774       0.115534
       1.540000       0.896498       1.791962       0.119524
       1.550000       0.884589       1.823562       0.123252
       1.560000       0.869869       1.858572       0.126527
       1.570000       0.853021       1.893697       0.129151
       1.580000       0.835094       1.925997       0.130939
       1.590000       0.817274       1.953545       0.131745
       1.600000       0.800685       1.975823       0.131493
       1.610000       0.786252       1.993655       0.130200
       1.620000       0.774641       2.008686       0.127989
       1.630000       0.766257       2.022644       0.125068
       1.640000       0.761278       2.036695       0.121704
       1.650000       0.759696       2.051137       0.118178
       1.660000       0.761373       2.065484       0.114741
       1.670000       0.766091       2.078790       0.111594
       1.680000       0.773585       2.090015       0.108876
       1.690000       0.783569       2.098246       0.106671
       1.700000       0.795749       2.102751       0.105028
       1.710000       0.809834       2.103010       0.103976
       1.720000       0.825577       2.098828       0.103538
       1.730000       0.842806       2.090554       0.103737
       1.740000       0.861468       2.079228       0.104594
       1.750000       0.881628       2.066488       0.106117
       1.760000       0.903448       2.054218       0.108291
       1.770000       0.927120       2.044070       0.111064
       1.780000       0.952792       2.037062       0.114343
       1.790000       0.980484       2.033390       0.117987
       1.800000       1.010035       2.032470       0.121821
       1.810000       1.041116       2.033151       0.125652
       1.820000       1.073335       2.034055       0.129307
       1.830000       1.106422       2.033966       0.132660
       1.840000       1.140419       2.032204       0.135661
       1.850000       1.175773       2.028810       0.138336
       1.860000       1.213269       2.024424       0.140763
       1.870000       1.253807       2.019817       0.143044
       1.880000       1.298096       2.015260       0.145270
       1.890000       1.346377       2.009974       0.147509
       1.900000       1.398270       2.001920       0.149804
       1.910000       1.452798       1.988075       0.152186
       1.920000       1.508591       1.965145       0.154688
       1.930000       1.564245       1.930524       0.157347
       1.940000       1.618688       1.883121       0.160198
       1.950000       1.671407       1.823737       0.163257
       1.960000       1.722406       1.754839       0.166508
       1.970000       1.771915       1.679889       0.169882
       1.980000       1.819997       1.602542       0.173253
       1.990000       1.866260       1.526010       0.176433
       2.000000       1.909860       1.452741       0.179191
       2.010000       1.949803       1.384399       0.181269
       2.020000       1.985439       1.322037       0.182410
       2.030000       2.016877       1.266316       0.182395
       2.040000       2.045109       1.217680       0.181091
       2.050000       2.071751       1.176441       0.178484
       2.060000       2.098551       1.142771       0.174705
       2.070000       2.126917       1.116653       0.170006
       2.080000       2.157689       1.097826       0.164719
       2.090000       2.191173       1.085728       0.159190
       2.100000       2.227340       1.079464       0.153723
       2.110000       2.265963       1.077799       0.148551
       2.120000       2.306624       1.079214       0.143820
       2.130000       2.348602       1.082051       0.139600
       2.140000       2.390760       1.084767       0.135903
       2.150000       2.431531       1.086241       0.132708
       2.160000       2.468947       1.086037       0.129971
       2.170000       2.500668       1.084494       0.127643
       2.180000       2.523965       1.082584       0.125681
       2.190000       2.535750       1.081581       0.124047
       2.200000       2.532731       1.082663       0.122719
       2.210000       2.511759       1.086570       0.121680
       2.220000       2.470349       1.093374       0.120922
       2.230000       2.407262       1.102394       0.120434
       2.240000       2.322985       1.112253       0.120205
       2.250000       2.219909       1.121064       0.120229
       2.260000       2.102082       1.126727       0.120505
       2.270000       1.974594       1.127307       0.121040
       2.280000       1.842783       1.121416       0.121846
       2.290000       1.711523       1.108530       0.122923
       2.300000       1.584762       1.089123       0.124257
       2.310000       1.465333       1.064577       0.125799
       2.320000       1.355000       1.036874       0.127472
       2.330000       1.254634       1.008165       0.129172
       2.340000       1.164428       0.980356       0.130783
       2.350000       1.084108       0.954804       0.132204
       2.360000       1.013099       0.932180       0.133373
       2.370000       0.950651       0.912471       0.134290
       2.380000       0.895915       0.895092       0.135016
       2.390000       0.847999       0.879086       0.135665
       2.400000       0.806003       0.863357       0.136364
       2.410000       0.769050       0.846898       0.137226
       2.420000       0.736328       0.828983       0.138316
       2.430000       0.707128       0.809280       0.139648
       2.440000       0.680882       0.787891       0.141182
       2.450000       0.657169       0.765310       0.142852
       2.460000       0.635695       0.742322       0.144584
       2.470000       0.616244       0.719861       0.146315
       2.480000       0.598625       0.698863       0.147986
       2.490000       0.582635       0.680169       0.149530
       2.500000       0.568051       0.664455       0.150842
       2.510000       0.554660       0.652218       0.151779
       2.520000       0.542308       0.643790       0.152172
       2.530000       0.530942       0.639360       0.151860
       2.540000       0.520631       0.638997       0.150738
       2.550000       0.511546       0.642651       0.148783
       2.560000       0.503911       0.650131       0.146067
       2.570000       0.497938       0.661053       0.142748
       2.580000       0.493777       0.674780       0.139036
       2.590000       0.491474       0.690375       0.135159
       2.600000       0.490954       0.706604       0.131326
       2.610000       0.492017       0.722022       0.127705
       2.620000       0.494357       0.735168       0.124403
       2.630000       0.497588       0.744813       0.121472
       2.640000       0.501306       0.750210       0.118915
       2.650000       0.505160       0.751224       0.116704
       2.660000       0.508928       0.748291       0.114798
       2.670000       0.512580       0.742226       0.113166
       2.680000       0.516294       0.733948       0.111799
       2.690000       0.520425       0.724226       0.110715
       2.700000       0.525415       0.713522       0.109957
       2.710000       0.531697       0.701958       0.109581
       2.720000       0.539604       0.689420       0.109634
       2.730000       0.549312       0.675744       0.110135
       2.740000       0.560820       0.660894       0.111062
       2.750000       0.573962       0.645071       0.112343
       2.760000       0.588431       0.628701       0.113860
       2.770000       0.603823       0.612335       0.115461
       2.780000       0.619681       0.596528       0.116978
       2.790000       0.635566       0.581747       0.118252
       2.800000       0.651125       0.568338       0.119156
       2.810000       0.666167       0.556548       0.119604
       2.820000       0.680696       0.546561       0.119564
       2.830000       0.694901       0.538551       0.119056
       2.840000       0.709084       0.532688       0.118141
       2.850000       0.723558       0.529131       0.116916
       2.860000       0.738556       0.527987       0.115500
       2.870000       0.754164       0.529279       0.114029
       2.880000       0.770316       0.532912       0.112638
       2.890000       0.786803       0.538677       0.111456
       2.900000       0.803298       0.546271       0.110592
       2.910000       0.819361       0.555339       0.110130
       2.920000       0.834408       0.565512       0.110125
       2.930000       0.847694       0.576422       0.110601
       2.940000       0.858327       0.587674       0.111555
       2.950000       0.865324       0.598794       0.112949
       2.960000       0.867711       0.609185       0.114723
       2.970000       0.864624       0.618130       0.116795
       2.980000       0.855442       0.624892       0.119081
       2.990000       0.839918       0.628874       0.121509
       3.000000       0.818289       0.629803       0.124021
       3.010000       0.791306       0.627836       0.126570
       3.020000       0.760151       0.623552       0.129095
       3.030000       0.726248       0.617818       0.131508
       3.040000       0.691034       0.611584       0.133682
       3.050000       0.655767       0.605676       0.135455
       3.060000       0.621407       0.600652       0.136657
       3.070000       0.588586       0.596731       0.137138
       3.080000       0.557642       0.593816       0.136800
       3.090000       0.528695       0.591572       0.135609
       3.100000       0.501739       0.589544       0.133602
       3.110000       0.476724       0.587279       0.130869
       3.120000       0.453603       0.584420       0.127537
       3.130000       0.432351       0.580757       0.123755
       3.140000       0.412945       0.576253       0.119682
       3.150000       0.395338       0.571022       0.115476
       3.160000       0.379440       0.565288       0.111286
       3.170000       0.365107       0.559305       0.107252
       3.180000       0.352159       0.553273       0.103491
       3.190000       0.340406       0.547284       0.100102
       3.200000       0.329679       0.541328       0.097158
       3.210000       0.319865       0.535359       0.094712
       3.220000       0.310909       0.529397       0.092799
       3.230000       0.302808       0.523609       0.091441
       3.240000       0.295581       0.518335       0.090651
       3.250000       0.289248       0.514043       0.090432
       3.260000       0.283803       0.511251       0.090779
       3.270000       0.279221       0.510443       0.091671
       3.280000       0.275452       0.512012       0.093068
       3.290000       0.272438       0.516233       0.094899
       3.300000       0.270114       0.523252       0.097068
       3.310000       0.268401       0.533079       0.099445
       3.320000       0.267200       0.545579       0.101880
       3.330000       0.266388       0.560464       0.104211
       3.340000       0.265821       0.577284       0.106279
       3.350000       0.265350       0.595443       0.107945
       3.360000       0.264849       0.614211       0.109106
       3.370000       0.264227       0.632756       0.109701
       3.380000       0.263444       0.650191       0.109724
       3.390000       0.262507       0.665624       0.109231
       3.400000       0.261464       0.678255       0.108333
       3.410000       0.260390       0.687470       0.107183
       3.420000       0.259385       0.692959       0.105960
       3.430000       0.258570       0.694797       0.104835
       3.440000       0.258082       0.693473       0.103954
       3.450000       0.258073       0.689828       0.103423
       3.460000       0.258701       0.684932       0.103299
       3.470000       0.260114       0.679913       0.103594
       3.480000       0.262431       0.675805       0.104279
       3.490000       0.265725       0.673426       0.105299
       3.500000       0.270006       0.673303       0.106579
       3.510000       0.275203       0.675645       0.108040
       3.520000       0.281160       0.680364       0.109597
       3.530000       0.287633       0.687126       0.111170
       3.540000       0.294304       0.695430       0.112675
       3.550000       0.300811       0.704676       0.114029
       3.560000       0.306788       0.714218       0.115160
       3.570000       0.311924       0.723410       0.116012
       3.580000       0.316021       0.731643       0.116559
       3.590000       0.319043       0.738428       0.116805
       3.600000       0.321137       0.743487       0.116774
       3.610000       0.322610       0.746839       0.116495
       3.620000       0.323880       0.748829       0.115987
       3.630000       0.325390       0.750058       0.115250
       3.640000       0.327539       0.751244       0.114269
       3.650000       0.330620       0.753053       0.113029
       3.660000       0.334783       0.755964       0.111526
       3.670000       0.340031       0.760212       0.109784
       3.680000       0.346225       0.765820       0.107854
       3.690000       0.353122       0.772675       0.105812
       3.700000       0.360424       0.780626       0.103754
       3.710000       0.367831       0.789570       0.101784
       3.720000       0.375074       0.799504       0.100013
       3.730000       0.381929       0.810530       0.098539
       3.740000       0.388189       0.822837       0.097445
       3.750000       0.393622       0.836643       0.096793
       3.760000       0.397948       0.852143       0.096615
       3.770000       0.400849       0.869461       0.096917
       3.780000       0.402018       0.888616       0.097678
       3.790000       0.401231       0.909491       0.098849
       3.800000       0.398407       0.931810       0.100356
       3.810000       0.393649       0.955123       0.102106
       3.820000       0.387232       0.978821       0.103987
       3.830000       0.379560       1.002203       0.105884
       3.840000       0.371092       1.024554       0.107677
       3.850000       0.362284       1.045198       0.109253
       3.860000       0.353537       1.063472       0.110506
       3.870000       0.345184       1.078651       0.111345
       3.880000       0.337488       1.089868       0.111705
       3.890000       0.330648       1.096102       0.111558
       3.900000       0.324810       1.096279       0.110925
       3.910000       0.320063       1.089471       0.109878
       3.920000       0.316438       1.075152       0.108529
       3.930000       0.313909       1.053426       0.107015
       3.940000       0.312395       1.025122       0.105483
       3.950000       0.311760       0.991708       0.104068
       3.960000       0.311836       0.955045       0.102886
       3.970000       0.312439       0.917055       0.102025
       3.980000       0.313404       0.879450       0.101551
       3.990000       0.314611       0.843557       0.101508
       4.000000       0.316006       0.810278       0.101925
       4.010000       0.317611       0.780134       0.102821
       4.020000       0.319513       0.753345       0.104211
       4.030000       0.321848       0.729901       0.106102
       4.040000       0.324766       0.709625       0.108493
       4.050000       0.328407       0.692219       0.111363
       4.060000       0.332879       0.677309       0.114672
       4.070000       0.338251       0.664507       0.118348
       4.080000       0.344564       0.653466       0.122291
       4.090000       0.351837       0.643915       0.126379
       4.100000       0.360089       0.635652       0.130484
       4.110000       0.369345       0.628507       0.134498
       4.120000       0.379647       0.622286       0.138361
       4.130000       0.391057       0.616755       0.142075
       4.140000       0.403665       0.611671       0.145699
       4.150000       0.417592       0.606846       0.149324
       4.160000       0.433000       0.602224       0.153042
       4.170000       0.450096       0.597906       0.156911
       4.180000       0.469121       0.594117       0.160939
       4.190000       0.490337       0.591130       0.165076
       4.200000       0.514002       0.589177       0.169225
       4.210000       0.540340       0.588388       0.173250
       4.220000       0.569515       0.588770       0.176991
       4.230000       0.601599       0.590210       0.180274
       4.240000       0.636546       0.592495       0.182933
       4.250000       0.674162       0.595346       0.184828
       4.260000       0.714084       0.598443       0.185867
       4.270000       0.755772       0.601470       0.186028
       4.280000       0.798514       0.604141       0.185365
       4.290000       0.841475       0.606234       0.184006
       4.300000       0.883784       0.607609       0.182138
       4.310000       0.924642       0.608229       0.179993
       4.320000       0.963421       0.608178       0.177812
       4.330000       0.999711       0.607668       0.175827
       4.340000       1.033299       0.607020       0.174233
       4.350000       1.064097       0.606626       0.173177
       4.360000       1.092045       0.606891       0.172748
       4.370000       1.117052       0.608181       0.172981
       4.380000       1.138999       0.610793       0.173859
       4.390000       1.157809       0.614942       0.175329
       4.400000       1.173530       0.620760       0.177305
       4.410000       1.186384       0.628307       0.179681
       4.420000       1.196778       0.637563       0.182336
       4.430000       1.205280       0.648436       0.185141
       4.440000       1.212600       0.660759       0.187963
       4.450000       1.219531       0.674312       0.190673
       4.460000       1.226832       0.688852       0.193152
       4.470000       1.235030       0.704153       0.195306
       4.480000       1.244212       0.720038       0.197081
       4.490000       1.253900       0.736379       0.198476
       4.500000       1.263123       0.753058       0.199543
       4.510000       1.270688       0.769915       0.200372
       4.520000       1.275607       0.786713       0.201062
       4.530000       1.277495       0.803181       0.201700
       4.540000       1.276782       0.819112       0.202339
       4.550000       1.274613       0.834501       0.202999
       4.560000       1.272502       0.849629       0.203674
       4.570000       1.271871       0.865053       0.204355
       4.580000       1.273659       0.881505       0.205043
       4.590000       1.278102       0.899741       0.205760
       4.600000       1.284715       0.920430       0.206544
       4.610000       1.292470       0.944085       0.207437
       4.620000       1.300112       0.971059       0.208473
       4.630000       1.306524       1.001543       0.209668
       4.640000       1.311061       1.035565       0.211013
       4.650000       1.313742       1.072967       0.212480
       4.660000       1.315263       1.113379       0.214028
       4.670000       1.316830       1.156219       0.215601
       4.680000       1.319853       1.200721       0.217131
       4.690000       1.325603       1.246014       0.218536
       4.700000       1.334895       1.291228       0.219714
       4.710000       1.347888       1.335625       0.220555
       4.720000       1.364042       1.378693       0.220951
       4.730000       1.382237       1.420210       0.220811
       4.740000       1.401056       1.460223       0.220075
       4.750000       1.419181       1.498967       0.218719
       4.760000       1.435775       1.536751       0.216758
       4.770000       1.450716       1.573814       0.214234
       4.780000       1.464592       1.610177       0.211213
       4.790000       1.478472       1.645495       0.207775
       4.800000       1.493589       1.678948       0.204019
       4.810000       1.511060       1.709234       0.200059
       4.820000       1.531720       1.734706       0.196021
       4.830000       1.556016       1.753639       0.192040
       4.840000       1.583908       1.764596       0.188245
       4.850000       1.614735       1.766770       0.184754
       4.860000       1.647103       1.760210       0.181668
       4.870000       1.678906       1.745840       0.179065
       4.880000       1.707570       1.725260       0.176996
       4.890000       1.730554       1.700406       0.175484
       4.900000       1.745970       1.673196       0.174518
       4.910000       1.753075       1.645253       0.174059
       4.920000       1.752435       1.617759       0.174031
       4.930000       1.745677       1.591421       0.174332
       4.940000       1.735028       1.566498       0.174830
       4.950000       1.722842       1.542876       0.175381
       4.960000       1.711334       1.520196       0.175836
       4.970000       1.702500       1.498022       0.176058
       4.980000       1.698147       1.476070       0.175938
       4.990000       1.699907       1.454395       0.175404
       5.000000       1.709194       1.433484       0.174424
       5.010000       1.727081       1.414184       0.173006
       5.020000       1.754147       1.397513       0.171190
       5.030000       1.790320       1.384452       0.169036
       5.040000       1.834754       1.375796       0.166620
       5.050000       1.885789       1.372107       0.164026
       5.060000       1.941031       1.373734       0.161339
       5.070000       1.997579       1.380853       0.158638
       5.080000       2.052355       1.393502       0.155990
       5.090000       2.102450       1.411603       0.153449
       5.100000       2.145384       1.434973       0.151053
       5.110000       2.179245       1.463325       0.148829
       5.120000       2.202730       1.496239       0.146791
       5.130000       2.215168       1.533104       0.144951
       5.140000       2.216547       1.573052       0.143311
       5.150000       2.207552       1.614916       0.141878
       5.160000       2.189532       1.657248       0.140662
       5.170000       2.164371       1.698410       0.139683
       5.180000       2.134266       1.736718       0.138976
       5.190000       2.101487       1.770641       0.138586
       5.200000       2.068200       1.798996       0.138562
       5.210000       2.036391       1.821107       0.138953
       5.220000       2.007832       1.836840       0.139797
       5.230000       1.984051       1.846484       0.141114
       5.240000       1.966207       1.850475       0.142906
       5.250000       1.954888       1.849073       0.145151
       5.260000       1.949880       1.842127       0.147801
       5.270000       1.950010       1.829005       0.150780
       5.280000       1.953160       1.808728       0.153981
       5.290000       1.956532       1.780242       0.157275
       5.300000       1.957142       1.742769       0.160526
       5.310000       1.952475       1.696154       0.163602
       5.320000       1.941105       1.641117       0.166398
       5.330000       1.923044       1.579319       0.168842
       5.340000       1.899666       1.513188       0.170895
       5.350000       1.873222       1.445545       0.172540
       5.360000       1.846142       1.379174       0.173774
       5.370000       1.820379       1.316455       0.174588
       5.380000       1.796992       1.259168       0.174964
       5.390000       1.776008       1.208459       0.174870
       5.400000       1.756542       1.164941       0.174265
       5.410000       1.737077       1.128846       0.173109
       5.420000       1.715855       1.100192       0.171373
       5.430000       1.691296       1.078908       0.169051
       5.440000       1.662373       1.064904       0.166169
       5.450000       1.628857       1.058087       0.162797
       5.460000       1.591365       1.058335       0.159048
       5.470000       1.551232       1.065447       0.155075
       5.480000       1.510252       1.079098       0.151052
       5.490000       1.470383       1.098799       0.147152
       5.500000       1.433480       1.123881       0.143533
       5.510000       1.401108       1.153494       0.140322
       5.520000       1.374456       1.186620       0.137611
       5.530000       1.354323       1.222106       0.135455
       5.540000       1.341157       1.258704       0.133875
       5.550000       1.335099       1.295150       0.132859
       5.560000       1.336014       1.330277       0.132368
       5.570000       1.343503       1.363143       0.132340
       5.580000       1.356884       1.393134       0.132703
       5.590000       1.375187       1.420020       0.133378
       5.600000       1.397193       1.443939       0.134296
       5.610000       1.421544       1.465344       0.135398
       5.620000       1.446919       1.484928       0.136638
       5.630000       1.472223       1.503556       0.137988
       5.640000       1.496714       1.522153       0.139428
       5.650000       1.520038       1.541563       0.140948
       5.660000       1.542197       1.562357       0.142545
       5.670000       1.563517       1.584675       0.144229
       5.680000       1.584636       1.608157       0.146017
       5.690000       1.606494       1.631993       0.147941
       5.700000       1.630249       1.655093       0.150035
       5.710000       1.657083       1.676302       0.152338
       5.720000       1.687930       1.694599       0.154879
       5.730000       1.723179       1.709219       0.157673
       5.740000       1.762478       1.719690       0.160724
       5.750000       1.804672       1.725814       0.164027
       5.760000       1.847912       1.727609       0.167577
       5.770000       1.889905       1.725246       0.171370
       5.780000       1.928253       1.718972       0.175402
       5.790000       1.960775       1.709055       0.179658
       5.800000       1.985738       1.695775       0.184105
       5.810000       2.001943       1.679461       0.188679
       5.820000       2.008686       1.660528       0.193279
       5.830000       2.005691       1.639482       0.197766
       5.840000       1.993112       1.616900       0.201970
       5.850000       1.971642       1.593403       0.205705
       5.860000       1.942646       1.569649       0.208791
       5.870000       1.908194       1.546333       0.211085
       5.880000       1.870914       1.524160       0.212500
       5.890000       1.833689       1.503747       0.213017
       5.900000       1.799263       1.485487       0.212683
       5.910000       1.769895       1.469418       0.211587
       5.920000       1.747152       1.455172       0.209844
       5.930000       1.731857       1.442055       0.207578
       5.940000       1.724177       1.429213       0.204914
       5.950000       1.723792       1.415832       0.201974
       5.960000       1.730079       1.401301       0.198886
       5.970000       1.742268       1.385291       0.195775
       5.980000       1.759531       1.367758       0.192764
       5.990000       1.780983       1.348881       0.189968
       6.000000       1.805612       1.328968       0.187483
       6.010000       1.832170       1.308331       0.185382
       6.020000       1.859112       1.287167       0.183706
       6.030000       1.884626       1.265487       0.182463
       6.040000       1.906786       1.243117       0.181628
       6.050000       1.923779       1.219803       0.181153
       6.060000       1.934153       1.195359       0.180974
       6.070000       1.936993       1.169815       0.181031
       6.080000       1.931999       1.143486       0.181277
       6.090000       1.919455       1.116956       0.181691
       6.100000       1.900125       1.090975       0.182284
       6.110000       1.875113       1.066306       0.183097
       6.120000       1.845725       1.043586       0.184191
       6.130000       1.813367       1.023221       0.185633
       6.140000       1.779500       1.005374       0.187485
       6.150000       1.745629       0.990016       0.189784
       6.160000       1.713300       0.977036       0.192543
       6.170000       1.684041       0.966339       0.195745
       6.180000       1.659251       0.957898       0.199354
       6.190000       1.640045       0.951742       0.203319
       6.200000       1.627107       0.947905       0.207572
       6.210000       1.620600       0.946376       0.212027
       6.220000       1.620166       0.947093       0.216569
       6.230000       1.625024       0.949971       0.221044
       6.240000       1.634141       0.954936       0.225277
       6.250000       1.646446       0.961939       0.229083
       6.260000       1.661028       0.970929       0.232310
       6.270000       1.677270       0.981812       0.234863
       6.280000       1.694880       0.994436       0.236731
       6.290000       1.713808       1.008618       0.237989
       6.300000       1.734076       1.024185       0.238776
       6.310000       1.755570       1.041005       0.239276
       6.320000       1.777889       1.058939       0.239682
       6.330000       1.800276       1.077746       0.240166
       6.340000       1.821666       1.096977       0.240852
       6.350000       1.840823       1.115944       0.241798
       6.360000       1.856509       1.133804       0.242987
       6.370000       1.867645       1.149753       0.244327
       6.380000       1.873449       1.163253       0.245665
       6.390000       1.873544       1.174208       0.246808
       6.400000       1.868061       1.183016       0.247567
       6.410000       1.857726       1.190470       0.247790
       6.420000       1.843875       1.197544       0.247397
       6.430000       1.828375       1.205156       0.246385
       6.440000       1.813401       1.213984       0.244820
       6.450000       1.801124       1.224387       0.242809
       6.460000       1.793394       1.236442       0.240476
       6.470000       1.791482       1.250020       0.237946
       6.480000       1.795941       1.264857       0.235337
       6.490000       1.806579       1.280560       0.232768
       6.500000       1.822501       1.296603       0.230362
       6.510000       1.842219       1.312314       0.228241
       6.520000       1.863811       1.326910       0.226520
       6.530000       1.885124       1.339549       0.225291
       6.540000       1.903988       1.349371       0.224612
       6.550000       1.918408       1.355545       0.224509
       6.560000       1.926720       1.357332       0.224973
       6.570000       1.927726       1.354198       0.225974
       6.580000       1.920789       1.345967       0.227470
       6.590000       1.905865       1.332927       0.229404
       6.600000       1.883417       1.315820       0.231710
       6.610000       1.854230       1.295696       0.234312
       6.620000       1.819229       1.273696       0.237122
       6.630000       1.779395       1.250860       0.240055
       6.640000       1.735816       1.228041       0.243029
       6.650000       1.689804       1.205917       0.245969
       6.660000       1.642942       1.185064       0.248806
       6.670000       1.597010       1.166039       0.251480
       6.680000       1.553806       1.149427       0.253940
       6.690000       1.514928       1.135834       0.256159
       6.700000       1.481604       1.125818       0.258137
       6.710000       1.454581       1.119774       0.259902
       6.720000       1.434084       1.117816       0.261494
       6.730000       1.419826       1.119695       0.262953
       6.740000       1.411089       1.124794       0.264299
       6.750000       1.406864       1.132203       0.265535
       6.760000       1.406041       1.140883       0.266645
       6.770000       1.407622       1.149842       0.267617
       6.780000       1.410874       1.158284       0.268449
       6.790000       1.415368       1.165630       0.269162
       6.800000       1.420874       1.171444       0.269802
       6.810000       1.427144       1.175284       0.270427
       6.820000       1.433681       1.176605       0.271103
       6.830000       1.439607       1.174760       0.271885
       6.840000       1.443711       1.169135       0.272820
       6.850000       1.444694       1.159357       0.273943
       6.860000       1.441534       1.145498       0.275278
       6.870000       1.433823       1.128166       0.276837
       6.880000       1.421938       1.108448       0.278627
       6.890000       1.406946       1.087711       0.280646
       6.900000       1.390312       1.067331       0.282885
       6.910000       1.373514       1.048467       0.285320
       6.920000       1.357714       1.031918       0.287911
       6.930000       1.343586       1.018097       0.290596
       6.940000       1.331304       1.007073       0.293296
       6.950000       1.320675       0.998673       0.295928
       6.960000       1.311367       0.992586       0.298414
       6.970000       1.303163       0.988482       0.300700
       6.980000       1.296172       0.986110       0.302763
       6.990000       1.290917       0.985386       0.304612
       7.000000       1.288292       0.986419       0.306270
       7.010000       1.289410       0.989485       0.307750
       7.020000       1.295381       0.994943       0.309038
       7.030000       1.307120       1.003129       0.310090
       7.040000       1.325195       1.014264       0.310847
       7.050000       1.349751       1.028395       0.311263
       7.060000       1.380484       1.045369       0.311330
       7.070000       1.416658       1.064842       0.311091
       7.080000       1.457149       1.086303       0.310630
       7.090000       1.500533       1.109117       0.310049
       7.100000       1.545201       1.132596       0.309435
       7.110000       1.589513       1.156066       0.308838
       7.120000       1.631944       1.178902       0.308266
       7.130000       1.671184       1.200523       0.307701
       7.140000       1.706181       1.220362       0.307123
       7.150000       1.736116       1.237842       0.306537
       7.160000       1.760380       1.252417       0.305981
       7.170000       1.778577       1.263643       0.305535
       7.180000       1.790563       1.271248       0.305301
       7.190000       1.796504       1.275156       0.305380
       7.200000       1.796899       1.275490       0.305847
       7.210000       1.792550       1.272569       0.306728
       7.220000       1.784485       1.266909       0.307993
       7.230000       1.773878       1.259223       0.309558
       7.240000       1.761980       1.250384       0.311303
       7.250000       1.750087       1.241348       0.313102
       7.260000       1.739490       1.233051       0.314855
       7.270000       1.731388       1.226295       0.316518
       7.280000       1.726796       1.221678       0.318113
       7.290000       1.726475       1.219564       0.319728
       7.300000       1.730906       1.220111       0.321486
       7.310000       1.740312       1.223312       0.323525
       7.320000       1.754652       1.229035       0.325968
       7.330000       1.773587       1.237021       0.328906
       7.340000       1.796434       1.246867       0.332387
       7.350000       1.822151       1.257979       0.336411
       7.360000       1.849385       1.269540       0.340932
       7.370000       1.876580       1.280515       0.345858
       7.380000       1.902117       1.289710       0.351057
       7.390000       1.924465       1.295897       0.356372
       7.400000       1.942312       1.297993       0.361632
       7.410000       1.954662       1.295235       0.366669
       7.420000       1.960880       1.287317       0.371337
       7.430000       1.960696       1.274458       0.375517
       7.440000       1.954193       1.257404       0.379136
       7.450000       1.941750       1.237340       0.382174
       7.460000       1.923991       1.215720       0.384671
       7.470000       1.901704       1.194029       0.386716
       7.480000       1.875797       1.173564       0.388429
       7.490000       1.847265       1.155286       0.389933
       7.500000       1.817175       1.139797       0.391334
       7.510000       1.786653       1.127417       0.392712
       7.520000       1.756857       1.118297       0.394138
       7.530000       1.728938       1.112530       0.395689
       7.540000       1.703951       1.110194       0.397475
       7.550000       1.682751       1.111355       0.399654
       7.560000       1.665889       1.116045       0.402434
       7.570000       1.653569       1.124261       0.406053
       7.580000       1.645694       1.136013       0.410751
       7.590000       1.642000       1.151362       0.416745
       7.600000       1.642221       1.170436       0.424197
       7.610000       1.646215       1.193357       0.433203
       7.620000       1.653987       1.220111       0.443784
       7.630000       1.665578       1.250395       0.455880
       7.640000       1.680854       1.283510       0.469361
       7.650000       1.699279       1.318326       0.484042
       7.660000       1.719778       1.353368       0.499707
       7.670000       1.740764       1.386952       0.516134
       7.680000       1.760332       1.417360       0.533123
       7.690000       1.776592       1.442985       0.550500
       7.700000       1.788039       1.462446       0.568119
       7.710000       1.793874       1.474697       0.585852
       7.720000       1.794191       1.479148       0.603582
       7.730000       1.789968       1.475752       0.621199
       7.740000       1.782873       1.465019       0.638605
       7.750000       1.774947       1.447938       0.655718
       7.760000       1.768270       1.425832       0.672477
       7.770000       1.764671       1.400213       0.688842
       7.780000       1.765546       1.372664       0.704784
       7.790000       1.771736       1.344738       0.720275
       7.800000       1.783458       1.317844       0.735290
       7.810000       1.800288       1.293131       0.749809
       7.820000       1.821234       1.271387       0.763848
       7.830000       1.844917       1.252987       0.777494
       7.840000       1.869837       1.237916       0.790936
       7.850000       1.894651       1.225849       0.804463
       7.860000       1.918366       1.216271       0.818428
       7.870000       1.940387       1.208611       0.833181
       7.880000       1.960413       1.202361       0.848979
       7.890000       1.978269       1.197189       0.865913
       7.900000       1.993736       1.193007       0.883869
       7.910000       2.006477       1.190005       0.902529
       7.920000       2.016067       1.188602       0.921430
       7.930000       2.022141       1.189350       0.940046
       7.940000       2.024613       1.192815       0.957885
       7.950000       2.023878       1.199483       0.974552
       7.960000       2.020912       1.209717       0.989773
       7.970000       2.017235       1.223757       1.003378
       7.980000       2.014728       1.241742       1.015261
       7.990000       2.015360       1.263708       1.025350
       8.000000       2.020895       1.289547       1.033593
       8.010000       2.032635       1.318946       1.039970
       8.020000       2.051255       1.351326       1.044525
       8.030000       2.076778       1.385846       1.047400
       8.040000       2.108677       1.421490       1.048860
       8.050000       2.146061       1.457216       1.049300
       8.060000       2.187862       1.492124       1.049225
       8.070000       2.232943       1.525569       1.049210
       8.080000       2.280103       1.557206       1.049848
       8.090000       2.328009       1.586945       1.051693
       8.100000       2.375109       1.614846       1.055199
       8.110000       2.419620       1.640980       1.060675
       8.120000       2.459629       1.665291       1.068251
       8.130000       2.493317       1.687522       1.077876
       8.140000       2.519217       1.707250       1.089334
       8.150000       2.536403       1.724015       1.102280
       8.160000       2.544512       1.737492       1.116301
       8.170000       2.543628       1.747646       1.130971
       8.180000       2.534122       1.754808       1.145900
       8.190000       2.516560       1.759670       1.160747
       8.200000       2.491727       1.763206       1.175204
       8.210000       2.460705       1.766527       1.188970
       8.220000       2.424909       1.770687       1.201725
       8.230000       2.386020       1.776473       1.213137
       8.240000       2.345838       1.784257       1.222902
       8.250000       2.306127       1.793955       1.230803
       8.260000       2.268489       1.805112       1.236775
       8.270000       2.234282       1.817060       1.240959
       8.280000       2.204565       1.829091       1.243712
       8.290000       2.180044       1.840610       1.245580
       8.300000       2.161039       1.851214       1.247218
       8.310000       2.147452       1.860710       1.249294
       8.320000       2.138767       1.869051       1.252390
       8.330000       2.134074       1.876220       1.256932
       8.340000       2.132105       1.882078       1.263170
       8.350000       2.131309       1.886270       1.271202
       8.360000       2.129974       1.888213       1.281005
       8.370000       2.126439       1.887240       1.292469
       8.380000       2.119356       1.882818       1.305397
       8.390000       2.107944       1.874778       1.319505
       8.400000       2.092086       1.863415       1.334421
       8.410000       2.072239       1.849433       1.349725
       8.420000       2.049181       1.833748       1.365008
       8.430000       2.023729       1.817254       1.379964
       8.440000       1.996556       1.800643       1.394475
       8.450000       1.968167       1.784313       1.408664
       8.460000       1.938978       1.768354       1.422886
       8.470000       1.909424       1.752568       1.437663
       8.480000       1.880004       1.736521       1.453566
       8.490000       1.851251       1.719626       1.471084
       8.500000       1.823682       1.701275       1.490521
       8.510000       1.797738       1.680998       1.511926
       8.520000       1.773761       1.658606       1.535063
       8.530000       1.751977       1.634261       1.559437
       8.540000       1.732502       1.608448       1.584338
       8.550000       1.715359       1.581890       1.608932
       8.560000       1.700496       1.555427       1.632357
       8.570000       1.687781       1.529904       1.653830
       8.580000       1.676968       1.506059       1.672722
       8.590000       1.667641       1.484442       1.688615
       8.600000       1.659200       1.465374       1.701317
       8.610000       1.650909       1.448944       1.710850
       8.620000       1.642022       1.435062       1.717426
       8.630000       1.631927       1.423554       1.721403
       8.640000       1.620252       1.414239       1.723235
       8.650000       1.606877       1.406958       1.723422
       8.660000       1.591863       1.401529       1.722453
       8.670000       1.575360       1.397641       1.720756
       8.680000       1.557530       1.394743       1.718651
       8.690000       1.538490       1.391974       1.716337
       8.700000       1.518284       1.388179       1.713915
       8.710000       1.496866       1.382012       1.711451
       8.720000       1.474118       1.372140       1.709023
       8.730000       1.449911       1.357492       1.706751
       8.740000       1.424177       1.337508       1.704768
       8.750000       1.396964       1.312274       1.703155
       8.760000       1.368442       1.282506       1.701874
       8.770000       1.338864       1.249372       1.700735
       8.780000       1.308530       1.214248       1.699438
       8.790000       1.277785       1.178496       1.697674
       8.800000       1.247052       1.143319       1.695247
       8.810000       1.216873       1.109701       1.692158
       8.820000       1.187900       1.078397       1.688630
       8.830000       1.160850       1.049943       1.685083
       8.840000       1.136413       1.024682       1.682077
       8.850000       1.115165       1.002785       1.680270
       8.860000       1.097513       0.984285       1.680380
       8.870000       1.083675       0.969115       1.683173
       8.880000       1.073692       0.957155       1.689426
       8.890000       1.067465       0.948253       1.699900
       8.900000       1.064770       0.942234       1.715279
       8.910000       1.065266       0.938870       1.736127
       8.920000       1.068469       0.937859       1.762861
       8.930000       1.073743       0.938807       1.795757
       8.940000       1.080291       0.941248       1.835013
       8.950000       1.087220       0.944683       1.880842
       8.960000       1.093645       0.948643       1.933580
       8.970000       1.098852       0.952762       1.993763
       8.980000       1.102440       0.956842       2.062169
       8.990000       1.104390       0.960881       2.139794
       9.000000       1.105013       0.965028       2.227774
       9.010000       1.104764       0.969470       2.327286
       9.020000       1.104009       0.974276       2.439427
       9.030000       1.102812       0.979266       2.565085
       9.040000       1.100850       0.983947       2.704785
       9.050000       1.097471       0.987565       2.858498
       9.060000       1.091889       0.989241       3.025405
       9.070000       1.083444       0.988185       3.203657
       9.080000       1.071830       0.983905       3.390176
       9.090000       1.057222       0.976348       3.580607
       9.100000       1.040264       0.965936       3.769514
       9.110000       1.021945       0.953481       3.950873
       9.120000       1.003414       0.940010       4.118760
       9.130000       0.985792       0.926570       4.268071
       9.140000       0.970016       0.914060       4.395063
       9.150000       0.956721       0.903118       4.497573
       9.160000       0.946176       0.894081       4.574944
       9.170000       0.938268       0.886999       4.627741
       9.180000       0.932543       0.881702       4.657398
       9.190000       0.928310       0.877886       4.665880
       9.200000       0.924765       0.875211       4.655409
       9.210000       0.921126       0.873370       4.628265
       9.220000       0.916735       0.872136       4.586663
       9.230000       0.911138       0.871370       4.532689
       9.240000       0.904137       0.871025       4.468290
       9.250000       0.895803       0.871136       4.395268
       9.260000       0.886443       0.871814       4.315276
       9.270000       0.876519       0.873223       4.229827
       9.280000       0.866525       0.875542       4.140363
       9.290000       0.856893       0.878913       4.048355
       9.300000       0.847923       0.883397       3.955401
       9.310000       0.839771       0.888951       3.863179
       9.320000       0.832468       0.895438       3.773257
       9.330000       0.825955       0.902661       3.686796
       9.340000       0.820109       0.910391       3.604313
       9.350000       0.814767       0.918377       3.525624
       9.360000       0.809722       0.926338       3.449996
       9.370000       0.804725       0.933964       3.376445
       9.380000       0.799491       0.940943       3.304047
       9.390000       0.793716       0.947034       3.232172
       9.400000       0.787121       0.952159       3.160585
       9.410000       0.779490       0.956470       3.089451
       9.420000       0.770726       0.960366       3.019262
       9.430000       0.760877       0.964446       2.950704
       9.440000       0.750155       0.969434       2.884461
       9.450000       0.738909       0.976075       2.820999
       9.460000       0.727562       0.985031       2.760393
       9.470000       0.716518       0.996790       2.702278
       9.480000       0.706073       1.011589       2.645958
       9.490000       0.696347       1.029381       2.590648
       9.500000       0.687275       1.049847       2.535766
       9.510000       0.678661       1.072459       2.481157
       9.520000       0.670265       1.096580       2.427189
       9.530000       0.661910       1.121579       2.374679
       9.540000       0.653560       1.146929       2.324714
       9.550000       0.645353       1.172258       2.278413
       9.560000       0.637575       1.197354       2.236721
       9.570000       0.630595       1.222145       2.200262
       9.580000       0.624786       1.246670       2.169274
       9.590000       0.620453       1.271066       2.143596
       9.600000       0.617785       1.295542       2.122702
       9.610000       0.616841       1.320334       2.105776
       9.620000       0.617556       1.345616       2.091825
       9.630000       0.619770       1.371380       2.079833
       9.640000       0.623273       1.397295       2.068917
       9.650000       0.627844       1.422594       2.058460
       9.660000       0.633290       1.445995       2.048148
       9.670000       0.639451       1.465760       2.037885
       9.680000       0.646216       1.479907       2.027639
       9.690000       0.653515       1.486590       2.017275
       9.700000       0.661320       1.484546       2.006471
       9.710000       0.669628       1.473437       1.994747
       9.720000       0.678424       1.453979       1.981604
       9.730000       0.687652       1.427833       1.966705
       9.740000       0.697187       1.397305       1.950022
       9.750000       0.706839       1.364984       1.931902
       9.760000       0.716394       1.333383       1.913022
       9.770000       0.725667       1.304671       1.894268
       9.780000       0.734564       1.280511       1.876567
       9.790000       0.743120       1.262010       1.860733
       9.800000       0.751497       1.249743       1.847366
       9.810000       0.759947       1.243800       1.836807
       9.820000       0.768760       1.243832       1.829152
       9.830000       0.778194       1.249080       1.824297
       9.840000       0.788432       1.258434       1.822009
       9.850000       0.799546       1.270535       1.822014
       9.860000       0.811497       1.283953       1.824066
       9.870000       0.824156       1.297411       1.827980
       9.880000       0.837322       1.309993       1.833625
       9.890000       0.850760       1.321283       1.840888
       9.900000       0.864213       1.331389       1.849645
       9.910000       0.877427       1.340871       1.859760
       9.920000       0.890176       1.350604       1.871104
       9.930000       0.902299       1.361605       1.883559
       9.940000       0.913742       1.374857       1.896998
       9.950000       0.924588       1.391122       1.911267
       9.960000       0.935055       1.410780       1.926170
       9.970000       0.945449       1.433700       1.941499
       9.980000       0.956087       1.459190       1.957073
       9.990000       0.967216       1.486057       1.972765
      10.000000       0.978971       1.512793       1.988483
      10.010000       0.991351       1.537878       2.004124
      10.020000       1.004249       1.560092       2.019524
      10.030000       1.017485       1.578763       2.034447
      10.040000       1.030859       1.593828       2.048621
      10.050000       1.044192       1.605729       2.061809
      10.060000       1.057368       1.615190       2.073895
      10.070000       1.070357       1.622984       2.084939
      10.080000       1.083214       1.629740       2.095198
      10.090000       1.096043       1.635815       2.105095
      10.100000       1.108941       1.641241       2.115155
      10.110000       1.121952       1.645759       2.125930
      10.120000       1.135034       1.648916       2.137939
      10.130000       1.148055       1.650202       2.151627
      10.140000       1.160796       1.649187       2.167321
      10.150000       1.172963       1.645600       2.185179
      10.160000       1.184203       1.639379       2.205149
      10.170000       1.194141       1.630663       2.226936
      10.180000       1.202411       1.619771       2.250022
      10.190000       1.208703       1.607140       2.273710
      10.200000       1.212806       1.593271       2.297194
      10.210000       1.214657       1.578661       2.319626
      10.220000       1.214417       1.563726       2.340203
      10.230000       1.212510       1.548732       2.358237
      10.240000       1.209608       1.533759       2.373237
      10.250000       1.206543       1.518727       2.384982
      10.260000       1.204170       1.503487       2.393575
      10.270000       1.203240       1.487946       2.399484
      10.280000       1.204311       1.472196       2.403511
      10.290000       1.207717       1.456577       2.406711
      10.300000       1.213577       1.441680       2.410227
      10.310000       1.221825       1.428255       2.415097
      10.320000       1.232262       1.417091       2.422055
      10.330000       1.244600       1.408876       2.431372
      10.340000       1.258500       1.404104       2.442783
      10.350000       1.273588       1.403017       2.455521
      10.360000       1.289446       1.405603       2.468463
      10.370000       1.305575       1.411638       2.480372
      10.380000       1.321393       1.420781       2.490177
      10.390000       1.336263       1.432715       2.497228
      10.400000       1.349565       1.447283       2.501429
      10.410000       1.360772       1.464589       2.503214
      10.420000       1.369489       1.485023       2.503346
      10.430000       1.375453       1.509215       2.502617
      10.440000       1.378535       1.537935       2.501548
      10.450000       1.378735       1.571959       2.500193
      10.460000       1.376203       1.611907       2.498121
      10.470000       1.371260       1.658089       2.494555
      10.480000       1.364411       1.710369       2.488627
      10.490000       1.356325       1.768109       2.479629
      10.500000       1.347784       1.830202       2.467189
      10.510000       1.339594       1.895196       2.451335
      10.520000       1.332459       1.961451       2.432451
      10.530000       1.326867       2.027276       2.411175
      10.540000       1.323006       2.091026       2.388291
      10.550000       1.320743       2.151169       2.364636
      10.560000       1.319689       2.206358       2.341045
      10.570000       1.319317       2.255495       2.318318
      10.580000       1.319110       2.297777       2.297175
      10.590000       1.318652       2.332666       2.278194
      10.600000       1.317669       2.359837       2.261746
      10.610000       1.315996       2.379143       2.247929
      10.620000       1.313513       2.390647       2.236540
      10.630000       1.310095       2.394688       2.227080
      10.640000       1.305580       2.391933       2.218812
      10.650000       1.299765       2.383321       2.210862
      10.660000       1.292425       2.369873       2.202370
      10.670000       1.283359       2.352387       2.192643
      10.680000       1.272447       2.331149       2.181279
      10.690000       1.259713       2.305758       2.168205
      10.700000       1.245351       2.275187       2.153648
      10.710000       1.229716       2.238072       2.138036
      10.720000       1.213282       2.193158       2.121908
      10.730000       1.196605       2.139772       2.105829
      10.740000       1.180288       2.078176       2.090337
      10.750000       1.164980       2.009678       2.075917
      10.760000       1.151349       1.936466       2.062980
      10.770000       1.140028       1.861227       2.051854
      10.780000       1.131500       1.786694       2.042805
      10.790000       1.125965       1.715277       2.036072
      10.800000       1.123202       1.648834       2.031929
      10.810000       1.122526       1.588611       2.030727
      10.820000       1.122844       1.535277       2.032896
      10.830000       1.122849       1.489021       2.038897
      10.840000       1.121276       1.449659       2.049122
      10.850000       1.117173       1.416737       2.063785
      10.860000       1.110063       1.389631       2.082828
      10.870000       1.099979       1.367655       2.105878
      10.880000       1.087359       1.350136       2.132277
      10.890000       1.072879       1.336476       2.161163
      10.900000       1.057280       1.326149       2.191599
      10.910000       1.041246       1.318656       2.222684
      10.920000       1.025328       1.313451       2.253643
      10.930000       1.009931       1.309869       2.283860
      10.940000       0.995345       1.307083       2.312880
      10.950000       0.981800       1.304113       2.340389
      10.960000       0.969530       1.299865       2.366194
      10.970000       0.958810       1.293208       2.390202
      10.980000       0.949925       1.283057       2.412406
      10.990000       0.943096       1.268485       2.432866
      11.000000       0.938388       1.248860       2.451718
      11.010000       0.935652       1.223987       2.469197
      11.020000       0.934534       1.194218       2.485681
      11.030000       0.934553       1.160460       2.501720
      11.040000       0.935205       1.124065       2.518006
      11.050000       0.936042       1.086612       2.535294
      11.060000       0.936706       1.049661       2.554273
      11.070000       0.936911       1.014548       2.575450
      11.080000       0.936422       0.982262       2.599073
      11.090000       0.935077       0.953420       2.625085
      11.100000       0.932833       0.928319       2.653116
      11.110000       0.929834       0.907041       2.682496
      11.120000       0.926428       0.889568       2.712309
      11.130000       0.923151       0.875873       2.741489
      11.140000       0.920670       0.865958       2.768969
      11.150000       0.919709       0.859845       2.793831
      11.160000       0.920962       0.857524       2.815406
      11.170000       0.925019       0.858891       2.833287
      11.180000       0.932292       0.863712       2.847245
      11.190000       0.942962       0.871620       2.857114
      11.200000       0.956947       0.882142       2.862704
      11.210000       0.973889       0.894747       2.863760
      11.220000       0.993155       0.908877       2.859967
      11.230000       1.013882       0.923950       2.850963
      11.240000       1.035053       0.939338       2.836347
      11.250000       1.055645       0.954337       2.815696
      11.260000       1.074808       0.968169       2.788621
      11.270000       1.092059       0.980025       2.754882
      11.280000       1.107390       0.989140       2.714522
      11.290000       1.121261       0.994880       2.667975
      11.300000       1.134443       0.996815       2.616107
      11.310000       1.147793       0.994754       2.560171
      11.320000       1.162038       0.988748       2.501704
      11.330000       1.177640       0.979063       2.442374
      11.340000       1.194763       0.966126       2.383805
      11.350000       1.213303       0.950468       2.327404
      11.360000       1.232921       0.932666       2.274192
      11.370000       1.253071       0.913313       2.224705
      11.380000       1.273035       0.892995       2.178982
      11.390000       1.291992       0.872282       2.136669
      11.400000       1.309150       0.851705       2.097214
      11.410000       1.323895       0.831723       2.060103
      11.420000       1.335919       0.812676       2.025039
      11.430000       1.345240       0.794762       1.992016
      11.440000       1.352151       0.778027       1.961265
      11.450000       1.357090       0.762388       1.933115
      11.460000       1.360518       0.747656       1.907838
      11.470000       1.362811       0.733583       1.885547
      11.480000       1.364175       0.719913       1.866169
      11.490000       1.364586       0.706438       1.849479
      11.500000       1.363772       0.693053       1.835173
      11.510000       1.361239       0.679773       1.822914
      11.520000       1.356367       0.666702       1.812365
      11.530000       1.348551       0.653977       1.803179
      11.540000       1.337344       0.641709       1.794984
      11.550000       1.322574       0.629961       1.787377
      11.560000       1.304398       0.618765       1.779939
      11.570000       1.283279       0.608160       1.772286
      11.580000       1.259944       0.598238       1.764148
      11.590000       1.235299       0.589146       1.755425
      11.600000       1.210342       0.581073       1.746216
      11.610000       1.186048       0.574211       1.736793
      11.620000       1.163234       0.568714       1.727546
      11.630000       1.142451       0.564665       1.718921
      11.640000       1.123932       0.562065       1.711368
      11.650000       1.107612       0.560835       1.705288
      11.660000       1.093226       0.560833       1.700989
      11.670000       1.080436       0.561879       1.698649
      11.680000       1.068965       0.563769       1.698295
      11.690000       1.058690       0.566292       1.699805
      11.700000       1.049693       0.569242       1.702937
      11.710000       1.042232       0.572433       1.707346
      11.720000       1.036671       0.575722       1.712609
      11.730000       1.033363       0.579018       1.718227
      11.740000       1.032544       0.582280       1.723629
      11.750000       1.034258       0.585477       1.728189
      11.760000       1.038328       0.588550       1.731265
      11.770000       1.044382       0.591358       1.732251
      11.780000       1.051889       0.593670       1.730645
      11.790000       1.060218       0.595183       1.726111
      11.800000       1.068667       0.595596       1.718540
      11.810000       1.076490       0.594693       1.708092
      11.820000       1.082919       0.592430       1.695201
      11.830000       1.087204       0.588968       1.680517
      11.840000       1.088666       0.584650       1.664804
      11.850000       1.086793       0.579936       1.648809
      11.860000       1.081323       0.575310       1.633134
      11.870000       1.072314       0.571212       1.618149
      11.880000       1.060151       0.567994       1.603948
      11.890000       1.045503       0.565922       1.590352
      11.900000       1.029238       0.565191       1.576953
      11.910000       1.012346       0.565949       1.563201
      11.920000       0.995860       0.568318       1.548514
      11.930000       0.980801       0.572395       1.532379
      11.940000       0.968105       0.578246       1.514436
      11.950000       0.958553       0.585899       1.494515
      11.960000       0.952702       0.595328       1.472633
      11.970000       0.950829       0.606470       1.448974
      11.980000       0.952898       0.619243       1.423851
      11.990000       0.958554       0.633579       1.397661
      12.000000       0.967136       0.649443       1.370839
      12.010000       0.977718       0.666836       1.343809
      12.020000       0.989186       0.685760       1.316953
      12.030000       1.000352       0.706175       1.290600
      12.040000       1.010101       0.727937       1.265022
      12.050000       1.017529       0.750752       1.240431
      12.060000       1.022045       0.774167       1.216966
      12.070000       1.023393       0.797605       1.194694
      12.080000       1.021603       0.820452       1.173628
      12.090000       1.016890       0.842157       1.153772
      12.100000       1.009557       0.862318       1.135157
      12.110000       0.999933       0.880713       1.117847
      12.120000       0.988371       0.897276       1.101894
      12.130000       0.975272       0.912046       1.087278
      12.140000       0.961117       0.925116       1.073857
      12.150000       0.946460       0.936603       1.061366
      12.160000       0.931905       0.946653       1.049453
      12.170000       0.918047       0.955452       1.037759
      12.180000       0.905420       0.963238       1.025996
      12.190000       0.894430       0.970284       1.014001
      12.200000       0.885302       0.976850       1.001753
      12.210000       0.878034       0.983114       0.989351
      12.220000       0.872385       0.989106       0.976979
      12.230000       0.867920       0.994688       0.964871
      12.240000       0.864089       0.999584       0.953290
      12.250000       0.860343       1.003450       0.942507
      12.260000       0.856251       1.005958       0.932764
      12.270000       0.851572       1.006865       0.924233
      12.280000       0.846285       1.006048       0.916971
      12.290000       0.840547       1.003534       0.910887
      12.300000       0.834620       0.999505       0.905742
      12.310000       0.828775       0.994312       0.901166
      12.320000       0.823214       0.988454       0.896697
      12.330000       0.818029       0.982538       0.891832
      12.340000       0.813216       0.977218       0.886084
      12.350000       0.808740       0.973107       0.879045
      12.360000       0.804619       0.970701       0.870444
      12.370000       0.800997       0.970306       0.860190
      12.380000       0.798179       0.971996       0.848386
      12.390000       0.796589       0.975588       0.835312
      12.400000       0.796697       0.980661       0.821370
      12.410000       0.798917       0.986607       0.807017
      12.420000       0.803537       0.992725       0.792686
      12.430000       0.810682       0.998364       0.778739
      12.440000       0.820323       1.003063       0.765431
      12.450000       0.832300       1.006659       0.752900
      12.460000       0.846355       1.009314       0.741164
      12.470000       0.862152       1.011454       0.730117
      12.480000       0.879277       1.013654       0.719540
      12.490000       0.897226       1.016506       0.709134
      12.500000       0.915364       1.020512       0.698587
      12.510000       0.932890       1.026013       0.687647
      12.520000       0.948829       1.033148       0.676192
      12.530000       0.962084       1.041833       0.664263
      12.540000       0.971553       1.051765       0.652036
      12.550000       0.976304       1.062449       0.639773
      12.560000       0.975742       1.073267       0.627746
      12.570000       0.969747       1.083557       0.616190
      12.580000       0.958702       1.092704       0.605269
      12.590000       0.943410       1.100194       0.595074
      12.600000       0.924932       1.105665       0.585630
      12.610000       0.904395       1.108930       0.576910
      12.620000       0.882844       1.109987       0.568854
      12.630000       0.861149       1.109021       0.561390
      12.640000       0.839972       1.106357       0.554455
      12.650000       0.819755       1.102390       0.548035
      12.660000       0.800722       1.097497       0.542180
      12.670000       0.782909       1.091959       0.537002
      12.680000       0.766206       1.085906       0.532644
      12.690000       0.750425       1.079311       0.529225
      12.700000       0.735357       1.072029       0.526808
      12.710000       0.720818       1.063868       0.525373
      12.720000       0.706676       1.054679       0.524836
      12.730000       0.692866       1.044421       0.525077
      12.740000       0.679390       1.033187       0.525966
      12.750000       0.666308       1.021180       0.527383
      12.760000       0.653696       1.008668       0.529203
      12.770000       0.641619       0.995939       0.531291
      12.780000       0.630097       0.983284       0.533488
      12.790000       0.619112       0.970997       0.535622
      12.800000       0.608628       0.959387       0.537532
      12.810000       0.598615       0.948780       0.539101
      12.820000       0.589065       0.939516       0.540284
      12.830000       0.579989       0.931943       0.541130
      12.840000       0.571417       0.926406       0.541765
      12.850000       0.563391       0.923215       0.542371
      12.860000       0.555955       0.922597       0.543135
      12.870000       0.549154       0.924636       0.544205
      12.880000       0.543024       0.929199       0.545658
      12.890000       0.537578       0.935892       0.547485
      12.900000       0.532803       0.944034       0.549600
      12.910000       0.528643       0.952687       0.551866
      12.920000       0.525003       0.960737       0.554117
      12.930000       0.521742       0.967034       0.556177
      12.940000       0.518689       0.970579       0.557874
      12.950000       0.515669       0.970695       0.559039
      12.960000       0.512535       0.967147       0.559509
      12.970000       0.509204       0.960167       0.559115
      12.980000       0.505680       0.950366       0.557701
      12.990000       0.502062       0.938583       0.555131
      13.000000       0.498520       0.925703       0.551312
      13.010000       0.495250       0.912514       0.546205
      13.020000       0.492425       0.899611       0.539829
      13.030000       0.490164       0.887372       0.532262
      13.040000       0.488536       0.875981       0.523634
      13.050000       0.487594       0.865474       0.514124
      13.060000       0.487425       0.855785       0.503948
      13.070000       0.488185       0.846769       0.493343
      13.080000       0.490110       0.838226       0.482553
      13.090000       0.493497       0.829934       0.471819
      13.100000       0.498654       0.821697       0.461381
      13.110000       0.505840       0.813407       0.451467
      13.120000       0.515210       0.805083       0.442288
      13.130000       0.526758       0.796874       0.434018
      13.140000       0.540278       0.789029       0.426774
      13.150000       0.555349       0.781845       0.420601
      13.160000       0.571341       0.775617       0.415471
      13.170000       0.587470       0.770606       0.411307
      13.180000       0.602884       0.767033       0.407996
      13.190000       0.616776       0.765088       0.405414
      13.200000       0.628490       0.764932       0.403439
      13.210000       0.637588       0.766705       0.401941
      13.220000       0.643876       0.770512       0.400785
      13.230000       0.647384       0.776400       0.399818
      13.240000       0.648338       0.784331       0.398883
      13.250000       0.647136       0.794157       0.397830
      13.260000       0.644315       0.805619       0.396544
      13.270000       0.640514       0.818374       0.394959
      13.280000       0.636391       0.832016       0.393063
      13.290000       0.632543       0.846111       0.390896
      13.300000       0.629423       0.860188       0.388538
      13.310000       0.627302       0.873729       0.386098
      13.320000       0.626288       0.886148       0.383712
      13.330000       0.626376       0.896806       0.381523
      13.340000       0.627514       0.905048       0.379671
      13.350000       0.629653       0.910270       0.378272
      13.360000       0.632771       0.912004       0.377405
      13.370000       0.636865       0.909981       0.377091
      13.380000       0.641909       0.904179       0.377293
      13.390000       0.647819       0.894837       0.377919
      13.400000       0.654415       0.882426       0.378836
      13.410000       0.661409       0.867584       0.379887
      13.420000       0.668418       0.851036       0.380925
      13.430000       0.675011       0.833525       0.381825
      13.440000       0.680766       0.815758       0.382507
      13.450000       0.685328       0.798389       0.382937
      13.460000       0.688451       0.781996       0.383119
      13.470000       0.689986       0.767071       0.383074
      13.480000       0.689857       0.753993       0.382821
      13.490000       0.688006       0.743018       0.382357
      13.500000       0.684376       0.734270       0.381649
      13.510000       0.678923       0.727740       0.380645
      13.520000       0.671660       0.723306       0.379283
      13.530000       0.662708       0.720750       0.377507
      13.540000       0.652326       0.719790       0.375282
      13.550000       0.640887       0.720107       0.372610
      13.560000       0.628838       0.721355       0.369539
      13.570000       0.616640       0.723147       0.366171
      13.580000       0.604724       0.725051       0.362659
      13.590000       0.593462       0.726607       0.359185
      13.600000       0.583138       0.727388       0.355936
      13.610000       0.573939       0.727093       0.353072
      13.620000       0.565941       0.725618       0.350704
      13.630000       0.559127       0.723081       0.348882
      13.640000       0.553415       0.719769       0.347593
      13.650000       0.548708       0.716025       0.346773
      13.660000       0.544935       0.712130       0.346327
      13.670000       0.542071       0.708214       0.346152
      13.680000       0.540137       0.704237       0.346161
      13.690000       0.539171       0.700037       0.346293
      13.700000       0.539186       0.695435       0.346516
      13.710000       0.540142       0.690329       0.346818
      13.720000       0.541940       0.684771       0.347187
      13.730000       0.544445       0.678973       0.347609
      13.740000       0.547537       0.673280       0.348055
      13.750000       0.551154       0.668096       0.348494
      13.760000       0.555314       0.663827       0.348901
      13.770000       0.560109       0.660837       0.349272
      13.780000       0.565676       0.659420       0.349630
      13.790000       0.572145       0.659795       0.350028
      13.800000       0.579579       0.662094       0.350533
      13.810000       0.587921       0.666360       0.351211
      13.820000       0.596961       0.672547       0.352105
      13.830000       0.606312       0.680522       0.353224
      13.840000       0.615431       0.690060       0.354537
      13.850000       0.623671       0.700826       0.355985
      13.860000       0.630359       0.712350       0.357489
      13.870000       0.634909       0.724021       0.358966
      13.880000       0.636899       0.735102       0.360339
      13.890000       0.636126       0.744795       0.361550
      13.900000       0.632591       0.752325       0.362563
      13.910000       0.626463       0.757035       0.363355
      13.920000       0.618041       0.758466       0.363910
      13.930000       0.607741       0.756398       0.364193
      13.940000       0.596085       0.750863       0.364140
      13.950000       0.583693       0.742127       0.363648
      13.960000       0.571229       0.730650       0.362587
      13.970000       0.559337       0.717034       0.360827
      13.980000       0.548551       0.701966       0.358275
      13.990000       0.539231       0.686132       0.354910
      14.000000       0.531522       0.670144       0.350794
      14.010000       0.525349       0.654473       0.346068
      14.020000       0.520464       0.639414       0.340924
      14.030000       0.516517       0.625094       0.335563
      14.040000       0.513162       0.611514       0.330160
      14.050000       0.510141       0.598614       0.324848
      14.060000       0.507341       0.586349       0.319710
      14.070000       0.504789       0.574725       0.314798
      14.080000       0.502599       0.563817       0.310155
      14.090000       0.500910       0.553742       0.305836
      14.100000       0.499833       0.544610       0.301918
      14.110000       0.499423       0.536477       0.298498
      14.120000       0.499676       0.529308       0.295680
      14.130000       0.500524       0.522965       0.293551
      14.140000       0.501826       0.517231       0.292169
      14.150000       0.503372       0.511848       0.291545
      14.160000       0.504899       0.506565       0.291654
      14.170000       0.506135       0.501173       0.292434
      14.180000       0.506866       0.495507       0.293804
      14.190000       0.506983       0.489440       0.295663
      14.200000       0.506520       0.482882       0.297898
      14.210000       0.505651       0.475792       0.300388
      14.220000       0.504662       0.468205       0.303013
      14.230000       0.503909       0.460255       0.305664
      14.240000       0.503768       0.452168       0.308257
      14.250000       0.504589       0.444234       0.310741
      14.260000       0.506651       0.436756       0.313106
      14.270000       0.510146       0.430007       0.315381
      14.280000       0.515157       0.424188       0.317630
      14.290000       0.521666       0.419415       0.319933
      14.300000       0.529566       0.415711       0.322379
      14.310000       0.538679       0.413023       0.325052
      14.320000       0.548771       0.411234       0.328030
      14.330000       0.559554       0.410192       0.331383
      14.340000       0.570678       0.409724       0.335180
      14.350000       0.581719       0.409647       0.339490
      14.360000       0.592182       0.409778       0.344378
      14.370000       0.601536       0.409946       0.349897
      14.380000       0.609268       0.410009       0.356073
      14.390000       0.614952       0.409871       0.362888
      14.400000       0.618298       0.409482       0.370265
      14.410000       0.619188       0.408840       0.378061
      14.420000       0.617682       0.407982       0.386078
      14.430000       0.614007       0.406981       0.394093
      14.440000       0.608524       0.405940       0.401894
      14.450000       0.601676       0.404972       0.409317
      14.460000       0.593916       0.404184       0.416255
      14.470000       0.585627       0.403655       0.422638
      14.480000       0.577053       0.403427       0.428410
      14.490000       0.568272       0.403502       0.433504
      14.500000       0.559213       0.403847       0.437854
      14.510000       0.549710       0.404387       0.441424
      14.520000       0.539577       0.405014       0.444259
      14.530000       0.528682       0.405579       0.446511
      14.540000       0.516992       0.405925       0.448429
      14.550000       0.504596       0.405914       0.450322
      14.560000       0.491697       0.405478       0.452494
      14.570000       0.478573       0.404648       0.455181
      14.580000       0.465535       0.403557       0.458503
      14.590000       0.452897       0.402403       0.462431
      14.600000       0.440950       0.401393       0.466793
      14.610000       0.429957       0.400686       0.471311
      14.620000       0.420148       0.400353       0.475671
      14.630000       0.411709       0.400358       0.479600
      14.640000       0.404769       0.400579       0.482947
      14.650000       0.399391       0.400835       0.485714
      14.660000       0.395562       0.400929       0.488048
      14.670000       0.393199       0.400685       0.490182
      14.680000       0.392156       0.399975       0.492351
      14.690000       0.392239       0.398743       0.494717
      14.700000       0.393216       0.397014       0.497314
      14.710000       0.394828       0.394889       0.500050
      14.720000       0.396791       0.392526       0.502729
      14.730000       0.398805       0.390108       0.505098
      14.740000       0.400576       0.387815       0.506897
      14.750000       0.401844       0.385814       0.507878
      14.760000       0.402415       0.384245       0.507827
      14.770000       0.402176       0.383218       0.506571
      14.780000       0.401099       0.382806       0.503990
      14.790000       0.399229       0.383026       0.500028
      14.800000       0.396666       0.383830       0.494705
      14.810000       0.393554       0.385086       0.488115
      14.820000       0.390052       0.386588       0.480421
      14.830000       0.386302       0.388063       0.471855
      14.840000       0.382402       0.389204       0.462692
      14.850000       0.378381       0.389712       0.453234
      14.860000       0.374219       0.389340       0.443778
      14.870000       0.369873       0.387934       0.434586
      14.880000       0.365328       0.385458       0.425869
      14.890000       0.360621       0.382007       0.417788
      14.900000       0.355857       0.377785       0.410456
      14.910000       0.351193       0.373075       0.403945
      14.920000       0.346813       0.368192       0.398285
      14.930000       0.342899       0.363443       0.393460
      14.940000       0.339612       0.359088       0.389403
      14.950000       0.337079       0.355314       0.385999
      14.960000       0.335388       0.352221       0.383097
      14.970000       0.334589       0.349815       0.380535
      14.980000       0.334689       0.348020       0.378159
      14.990000       0.335650       0.346692       0.375851
      15.000000       0.337396       0.345651       0.373539
      15.010000       0.339822       0.344716       0.371200
      15.020000       0.342814       0.343735       0.368858
      15.030000       0.346263       0.342627       0.366566
      15.040000       0.350078       0.341388       0.364397
      15.050000       0.354188       0.340094       0.362429
      15.060000       0.358540       0.338861       0.360727
      15.070000       0.363093       0.337810       0.359330
      15.080000       0.367814       0.337026       0.358237
      15.090000       0.372676       0.336536       0.357399
      15.100000       0.377665       0.336302       0.356725
      15.110000       0.382779       0.336224       0.356092
      15.120000       0.388032       0.336159       0.355366
      15.130000       0.393447       0.335930       0.354418
      15.140000       0.399042       0.335351       0.353142
      15.150000       0.404818       0.334248       0.351458
      15.160000       0.410747       0.332476       0.349341
      15.170000       0.416769       0.329942       0.346827
      15.180000       0.422795       0.326620       0.344035
      15.190000       0.428719       0.322563       0.341156
      15.200000       0.434430       0.317899       0.338431
      15.210000       0.439817       0.312820       0.336113
      15.220000       0.444762       0.307554       0.334425
      15.230000       0.449137       0.302334       0.333536
      15.240000       0.452781       0.297378       0.333545
      15.250000       0.455499       0.292869       0.334492
      15.260000       0.457061       0.288952       0.336368
      15.270000       0.457227       0.285734       0.339136
      15.280000       0.455779       0.283285       0.342749
      15.290000       0.452578       0.281633       0.347162
      15.300000       0.447603       0.280770       0.352354
      15.310000       0.440975       0.280642       0.358339
      15.320000       0.432936       0.281157       0.365179
      15.330000       0.423816       0.282187       0.372973
      15.340000       0.413973       0.283574       0.381844
      15.350000       0.403755       0.285144       0.391902
      15.360000       0.393476       0.286722       0.403214
      15.370000       0.383400       0.288166       0.415777
      15.380000       0.373728       0.289384       0.429511
      15.390000       0.364599       0.290352       0.444258
      15.400000       0.356091       0.291114       0.459794
      15.410000       0.348250       0.291761       0.475833
      15.420000       0.341109       0.292403       0.492041
      15.430000       0.334713       0.293144       0.508057
      15.440000       0.329121       0.294063       0.523515
      15.450000       0.324396       0.295209       0.538091
      15.460000       0.320581       0.296602       0.551539
      15.470000       0.317692       0.298242       0.563723
      15.480000       0.315711       0.300124       0.574604
      15.490000       0.314598       0.302250       0.584215
      15.500000       0.314299       0.304634       0.592599
      15.510000       0.314756       0.307309       0.599774
      15.520000       0.315910       0.310323       0.605718
      15.530000       0.317699       0.313726       0.610401
      15.540000       0.320060       0.317553       0.613844
      15.550000       0.322933       0.321804       0.616175
      15.560000       0.326247       0.326429       0.617651
      15.570000       0.329921       0.331324       0.618639
      15.580000       0.333852       0.336333       0.619547
      15.590000       0.337917       0.341270       0.620749
      15.600000       0.341976       0.345946       0.622517
      15.610000       0.345885       0.350197       0.624974
      15.620000       0.349507       0.353906       0.628078
      15.630000       0.352729       0.357004       0.631624
      15.640000       0.355466       0.359463       0.635273
      15.650000       0.357663       0.361282       0.638600
      15.660000       0.359289       0.362477       0.641159
      15.670000       0.360319       0.363081       0.642551
      15.680000       0.360720       0.363145       0.642493
      15.690000       0.360449       0.362745       0.640866
      15.700000       0.359467       0.361983       0.637724
      15.710000       0.357752       0.360977       0.633271
      15.720000       0.355328       0.359864       0.627803
      15.730000       0.352274       0.358793       0.621641
      15.740000       0.348726       0.357928       0.615080
      15.750000       0.344870       0.357444       0.608341
      15.760000       0.340921       0.357534       0.601556
      15.770000       0.337104       0.358392       0.594760
      15.780000       0.333629       0.360194       0.587896
      15.790000       0.330664       0.363077       0.580838
      15.800000       0.328314       0.367106       0.573429
      15.810000       0.326606       0.372265       0.565528
      15.820000       0.325488       0.378445       0.557057
      15.830000       0.324840       0.385458       0.548045
      15.840000       0.324496       0.393048       0.538641
      15.850000       0.324279       0.400917       0.529095
      15.860000       0.324031       0.408755       0.519711
      15.870000       0.323633       0.416273       0.510787
      15.880000       0.323022       0.423233       0.502563
      15.890000       0.322194       0.429484       0.495183
      15.900000       0.321204       0.434983       0.488689
      15.910000       0.320158       0.439799       0.483030
      15.920000       0.319192       0.444100       0.478095
      15.930000       0.318449       0.448114       0.473742
      15.940000       0.318050       0.452076       0.469827
      15.950000       0.318077       0.456181       0.466222
      15.960000       0.318558       0.460535       0.462811
      15.970000       0.319474       0.465147       0.459486
      15.980000       0.320769       0.469931       0.456134
      15.990000       0.322373       0.474749       0.452625
      16.000000       0.324229       0.479450       0.448830
      16.010000       0.326305       0.483910       0.444634
      16.020000       0.328603       0.488052       0.439973
      16.030000       0.331135       0.491841       0.434841
      16.040000       0.333907       0.495265       0.429297
      16.050000       0.336891       0.498317       0.423443
      16.060000       0.340030       0.500995       0.417386
      16.070000       0.343246       0.503317       0.411211
      16.080000       0.346465       0.505340       0.404953
      16.090000       0.349637       0.507173       0.398614
      16.100000       0.352761       0.508957       0.392177
      16.110000       0.355886       0.510834       0.385636
      16.120000       0.359098       0.512895       0.379013
      16.130000       0.362492       0.515156       0.372349
      16.140000       0.366126       0.517545       0.365696
      16.150000       0.369984       0.519935       0.359094
      16.160000       0.373958       0.522205       0.352551
      16.170000       0.377849       0.524301       0.346033
      16.180000       0.381403       0.526281       0.339457
      16.190000       0.384361       0.528305       0.332696
      16.200000       0.386524       0.530597       0.325597
      16.210000       0.387811       0.533370       0.318016
      16.220000       0.388284       0.536764       0.309859
      16.230000       0.388155       0.540811       0.301109
      16.240000       0.387742       0.545421       0.291840
      16.250000       0.387413       0.550412       0.282196
      16.260000       0.387525       0.555547       0.272369
      16.270000       0.388374       0.560586       0.262563
      16.280000       0.390157       0.565330       0.252979
      16.290000       0.392953       0.569636       0.243790
      16.300000       0.396718       0.573420       0.235144
      16.310000       0.401284       0.576640       0.227152
      16.320000       0.406383       0.579285       0.219883
      16.330000       0.411671       0.581364       0.213368
      16.340000       0.416761       0.582909       0.207596
      16.350000       0.421266       0.583974       0.202523
      16.360000       0.424813       0.584637       0.198089
      16.370000       0.427068       0.584991       0.194226
      16.380000       0.427738       0.585135       0.190867
      16.390000       0.426586       0.585156       0.187957
      16.400000       0.423459       0.585108       0.185443
      16.410000       0.418320       0.584993       0.183277
      16.420000       0.411279       0.584756       0.181407
      16.430000       0.402594       0.584290       0.179774
      16.440000       0.392658       0.583463       0.178318
      16.450000       0.381947       0.582152       0.176977
      16.460000       0.370963       0.580275       0.175703
      16.470000       0.360175       0.577810       0.174463
      16.480000       0.349965       0.574794       0.173243
      16.490000       0.340602       0.571308       0.172050
      16.500000       0.332235       0.567453       0.170902
      16.510000       0.324895       0.563318       0.169826
      16.520000       0.318529       0.558965       0.168845
      16.530000       0.313023       0.554424       0.167975
      16.540000       0.308238       0.549706       0.167220
      16.550000       0.304038       0.544818       0.166576
      16.560000       0.300311       0.539784       0.166029
      16.570000       0.296971       0.534653       0.165565
      16.580000       0.293955       0.529489       0.165172
      16.590000       0.291210       0.524359       0.164845
      16.600000       0.288691       0.519316       0.164585
      16.610000       0.286361       0.514392       0.164395
      16.620000       0.284193       0.509603       0.164275
      16.630000       0.282181       0.504969       0.164217
      16.640000       0.280327       0.500521       0.164202
      16.650000       0.278646       0.496304       0.164199
      16.660000       0.277152       0.492360       0.164168
      16.670000       0.275856       0.488701       0.164066
      16.680000       0.274771       0.485294       0.163847
      16.690000       0.273907       0.482045       0.163469
      16.700000       0.273281       0.478822       0.162902
      16.710000       0.272911       0.475472       0.162128
      16.720000       0.272822       0.471849       0.161154
      16.730000       0.273039       0.467834       0.160005
      16.740000       0.273577       0.463350       0.158726
      16.750000       0.274427       0.458374       0.157376
      16.760000       0.275547       0.452945       0.156021
      16.770000       0.276854       0.447167       0.154722
      16.780000       0.278233       0.441185       0.153530
      16.790000       0.279551       0.435159       0.152480
      16.800000       0.280675       0.429225       0.151591
      16.810000       0.281493       0.423474       0.150862
      16.820000       0.281925       0.417944       0.150281
      16.830000       0.281930       0.412639       0.149828
      16.840000       0.281503       0.407549       0.149481
      16.850000       0.280661       0.402677       0.149219
      16.860000       0.279447       0.398047       0.149027
      16.870000       0.277921       0.393702       0.148895
      16.880000       0.276164       0.389685       0.148818
      16.890000       0.274278       0.386023       0.148797
      16.900000       0.272380       0.382711       0.148831
      16.910000       0.270600       0.379715       0.148922
      16.920000       0.269068       0.376973       0.149063
      16.930000       0.267909       0.374417       0.149236
      16.940000       0.267228       0.371992       0.149405
      16.950000       0.267108       0.369685       0.149525
      16.960000       0.267605       0.367524       0.149537
      16.970000       0.268749       0.365573       0.149390
      16.980000       0.270538       0.363902       0.149044
      16.990000       0.272938       0.362553       0.148484
      17.000000       0.275885       0.361520       0.147724
      17.010000       0.279292       0.360744       0.146808
      17.020000       0.283057       0.360127       0.145803
      17.030000       0.287083       0.359552       0.144788
      17.040000       0.291274       0.358896       0.143844
      17.050000       0.295548       0.358041       0.143044
      17.060000       0.299827       0.356874       0.142448
      17.070000       0.304036       0.355291       0.142102
      17.080000       0.308092       0.353204       0.142036
      17.090000       0.311894       0.350556       0.142273
      17.100000       0.315326       0.347341       0.142824
      17.110000       0.318265       0.343618       0.143691
      17.120000       0.320603       0.339526       0.144866
      17.130000       0.322269       0.335272       0.146328
      17.140000       0.323243       0.331108       0.148037
      17.150000       0.323562       0.327288       0.149938
      17.160000       0.323306       0.324031       0.151959
      17.170000       0.322583       0.321489       0.154021
      17.180000       0.321517       0.319727       0.156039
      17.190000       0.320234       0.318723       0.157930
      17.200000       0.318854       0.318375       0.159620
      17.210000       0.317482       0.318523       0.161056
      17.220000       0.316202       0.318968       0.162209
      17.230000       0.315076       0.319501       0.163074
      17.240000       0.314145       0.319927       0.163672
      17.250000       0.313436       0.320087       0.164037
      17.260000       0.312953       0.319865       0.164213
      17.270000       0.312681       0.319188       0.164238
      17.280000       0.312586       0.318026       0.164152
      17.290000       0.312623       0.316388       0.163984
      17.300000       0.312746       0.314324       0.163758
      17.310000       0.312925       0.311921       0.163486
      17.320000       0.313152       0.309304       0.163170
      17.330000       0.313452       0.306624       0.162794
      17.340000       0.313874       0.304035       0.162330
      17.350000       0.314478       0.301676       0.161729
      17.360000       0.315305       0.299646       0.160940
      17.370000       0.316359       0.297989       0.159909
      17.380000       0.317588       0.296700       0.158594
      17.390000       0.318876       0.295730       0.156976
      17.400000       0.320062       0.295014       0.155062
      17.410000       0.320957       0.294489       0.152888
      17.420000       0.321378       0.294110       0.150521
      17.430000       0.321172       0.293848       0.148043
      17.440000       0.320238       0.293675       0.145546
      17.450000       0.318537       0.293541       0.143113
      17.460000       0.316084       0.293368       0.140807
      17.470000       0.312951       0.293044       0.138665
      17.480000       0.309249       0.292447       0.136698
      17.490000       0.305126       0.291469       0.134890
      17.500000       0.300755       0.290040       0.133206
      17.510000       0.296311       0.288139       0.131606
      17.520000       0.291955       0.285796       0.130048
      17.530000       0.287812       0.283076       0.128503
      17.540000       0.283961       0.280073       0.126960
      17.550000       0.280431       0.276895       0.125419
      17.560000       0.277212       0.273651       0.123893
      17.570000       0.274269       0.270439       0.122397
      17.580000       0.271561       0.267335       0.120943
      17.590000       0.269056       0.264393       0.119538
      17.600000       0.266752       0.261653       0.118186
      17.610000       0.264678       0.259153       0.116883
      17.620000       0.262895       0.256942       0.115623
      17.630000       0.261480       0.255085       0.114401
      17.640000       0.260509       0.253658       0.113212
      17.650000       0.260039       0.252732       0.112056
      17.660000       0.260094       0.252361       0.110934
      17.670000       0.260658       0.252558       0.109850
      17.680000       0.261669       0.253279       0.108808
      17.690000       0.263026       0.254414       0.107815
      17.700000       0.264601       0.255786       0.106876
      17.710000       0.266248       0.257169       0.106003
      17.720000       0.267827       0.258319       0.105207
      17.730000       0.269218       0.259016       0.104503
      17.740000       0.270340       0.259104       0.103904
      17.750000       0.271156       0.258503       0.103417
      17.760000       0.271682       0.257211       0.103044
      17.770000       0.271972       0.255282       0.102776
      17.780000       0.272114       0.252805       0.102596
      17.790000       0.272203       0.249882       0.102482
      17.800000       0.272321       0.246619       0.102414
      17.810000       0.272514       0.243108       0.102373
      17.820000       0.272780       0.239424       0.102347
      17.830000       0.273072       0.235620       0.102328
      17.840000       0.273310       0.231734       0.102309
      17.850000       0.273409       0.227797       0.102276
      17.860000       0.273305       0.223846       0.102207
      17.870000       0.272970       0.219930       0.102071
      17.880000       0.272417       0.216109       0.101833
      17.890000       0.271698       0.212451       0.101462
      17.900000       0.270888       0.209020       0.100940
      17.910000       0.270077       0.205870       0.100267
      17.920000       0.269356       0.203042       0.099461
      17.930000       0.268804       0.200553       0.098560
      17.940000       0.268474       0.198396       0.097604
      17.950000       0.268388       0.196542       0.096635
      17.960000       0.268528       0.194948       0.095683
      17.970000       0.268843       0.193562       0.094770
      17.980000       0.269261       0.192336       0.093906
      17.990000       0.269695       0.191229       0.093101
      18.000000       0.270059       0.190215       0.092367
      18.010000       0.270274       0.189272       0.091716
      18.020000       0.270282       0.188387       0.091162
      18.030000       0.270057       0.187546       0.090714
      18.040000       0.269613       0.186734       0.090370
      18.050000       0.269005       0.185940       0.090118
      18.060000       0.268311       0.185161       0.089936
      18.070000       0.267615       0.184403       0.089798
      18.080000       0.266978       0.183683       0.089675
      18.090000       0.266431       0.183024       0.089541
      18.100000       0.265973       0.182445       0.089372
      18.110000       0.265583       0.181963       0.089154
      18.120000       0.265232       0.181582       0.088874
      18.130000       0.264900       0.181293       0.088528
      18.140000       0.264589       0.181072       0.088120
      18.150000       0.264326       0.180881       0.087656
      18.160000       0.264160       0.180673       0.087147
      18.170000       0.264153       0.180400       0.086604
      18.180000       0.264364       0.180018       0.086040
      18.190000       0.264830       0.179496       0.085469
      18.200000       0.265548       0.178818       0.084906
      18.210000       0.266469       0.177986       0.084368
      18.220000       0.267492       0.177015       0.083873
      18.230000       0.268476       0.175926       0.083444
      18.240000       0.269262       0.174746       0.083100
      18.250000       0.269704       0.173498       0.082856
      18.260000       0.269705       0.172211       0.082723
      18.270000       0.269242       0.170916       0.082702
      18.280000       0.268366       0.169650       0.082788
      18.290000       0.267193       0.168456       0.082973
      18.300000       0.265863       0.167375       0.083242
      18.310000       0.264513       0.166442       0.083581
      18.320000       0.263245       0.165680       0.083975
      18.330000       0.262110       0.165095       0.084408
      18.340000       0.261111       0.164678       0.084869
      18.350000       0.260210       0.164408       0.085343
      18.360000       0.259348       0.164260       0.085817
      18.370000       0.258456       0.164209       0.086273
      18.380000       0.257465       0.164238       0.086686
      18.390000       0.256307       0.164332       0.087032
      18.400000       0.254929       0.164477       0.087286
      18.410000       0.253294       0.164650       0.087433
      18.420000       0.251394       0.164823       0.087467
      18.430000       0.249254       0.164966       0.087399
      18.440000       0.246935       0.165053       0.087248
      18.450000       0.244528       0.165074       0.087037
      18.460000       0.242142       0.165033       0.086792
      18.470000       0.239887       0.164953       0.086532
      18.480000       0.237855       0.164863       0.086273
      18.490000       0.236103       0.164796       0.086032
      18.500000       0.234638       0.164776       0.085824
      18.510000       0.233421       0.164816       0.085668
      18.520000       0.232372       0.164920       0.085583
      18.530000       0.231385       0.165080       0.085584
      18.540000       0.230343       0.165274       0.085683
      18.550000       0.229133       0.165472       0.085886
      18.560000       0.227655       0.165639       0.086190
      18.570000       0.225830       0.165738       0.086587
      18.580000       0.223601       0.165738       0.087061
      18.590000       0.220937       0.165623       0.087594
      18.600000       0.217832       0.165389       0.088166
      18.610000       0.214309       0.165039       0.088757
      18.620000       0.210420       0.164583       0.089349
      18.630000       0.206248       0.164032       0.089929
      18.640000       0.201900       0.163396       0.090488
      18.650000       0.197497       0.162690       0.091024
      18.660000       0.193159       0.161931       0.091542
      18.670000       0.188994       0.161141       0.092052
      18.680000       0.185088       0.160345       0.092565
      18.690000       0.181507       0.159574       0.093089
      18.700000       0.178298       0.158862       0.093628
      18.710000       0.175494       0.158246       0.094177
      18.720000       0.173115       0.157761       0.094724
      18.730000       0.171164       0.157431       0.095250
      18.740000       0.169624       0.157265       0.095740
      18.750000       0.168454       0.157247       0.096180
      18.760000       0.167595       0.157335       0.096568
      18.770000       0.166972       0.157467       0.096912
      18.780000       0.166508       0.157571       0.097229
      18.790000       0.166129       0.157573       0.097542
      18.800000       0.165775       0.157414       0.097875
      18.810000       0.165401       0.157057       0.098244
      18.820000       0.164981       0.156491       0.098663
      18.830000       0.164503       0.155725       0.099141
      18.840000       0.163964       0.154786       0.099687
      18.850000       0.163366       0.153710       0.100310
      18.860000       0.162709       0.152531       0.101016
      18.870000       0.161992       0.151279       0.101809
      18.880000       0.161214       0.149981       0.102691
      18.890000       0.160375       0.148658       0.103654
      18.900000       0.159478       0.147333       0.104686
      18.910000       0.158535       0.146024       0.105771
      18.920000       0.157565       0.144745       0.106890
      18.930000       0.156600       0.143507       0.108023
      18.940000       0.155680       0.142315       0.109152
      18.950000       0.154852       0.141171       0.110258
      18.960000       0.154167       0.140076       0.111325
      18.970000       0.153670       0.139035       0.112334
      18.980000       0.153397       0.138053       0.113270
      18.990000       0.153373       0.137132       0.114118
      19.000000       0.153607       0.136277       0.114865
      19.010000       0.154098       0.135483       0.115502
      19.020000       0.154828       0.134743       0.116023
      19.030000       0.155768       0.134044       0.116433
      19.040000       0.156875       0.133370       0.116744
      19.050000       0.158094       0.132706       0.116981
      19.060000       0.159362       0.132036       0.117176
      19.070000       0.160622       0.131353       0.117365
      19.080000       0.161827       0.130652       0.117586
      19.090000       0.162952       0.129933       0.117868
      19.100000       0.163986       0.129198       0.118229
      19.110000       0.164935       0.128448       0.118682
      19.120000       0.165807       0.127682       0.119233
      19.130000       0.166604       0.126899       0.119891
      19.140000       0.167317       0.126102       0.120670
      19.150000       0.167919       0.125299       0.121591
      19.160000       0.168374       0.124504       0.122672
      19.170000       0.168645       0.123734       0.123924
      19.180000       0.168703       0.123012       0.125345
      19.190000       0.168538       0.122362       0.126918
      19.200000       0.168158       0.121802       0.128614
      19.210000       0.167580       0.121339       0.130406
      19.220000       0.166822       0.120971       0.132278
      19.230000       0.165893       0.120682       0.134228
      19.240000       0.164792       0.120450       0.136272
      19.250000       0.163512       0.120254       0.138433
      19.260000       0.162045       0.120077       0.140736
      19.270000       0.160384       0.119917       0.143195
      19.280000       0.158526       0.119784       0.145816
      19.290000       0.156475       0.119701       0.148593
      19.300000       0.154244       0.119701       0.151518
      19.310000       0.151859       0.119812       0.154578
      19.320000       0.149361       0.120057       0.157759
      19.330000       0.146795       0.120438       0.161039
      19.340000       0.144214       0.120938       0.164387
      19.350000       0.141665       0.121527       0.167753
      19.360000       0.139197       0.122164       0.171070
      19.370000       0.136855       0.122815       0.174261
      19.380000       0.134682       0.123455       0.177243
      19.390000       0.132721       0.124070       0.179939
      19.400000       0.131012       0.124660       0.182283
      19.410000       0.129589       0.125223       0.184236
      19.420000       0.128477       0.125757       0.185791
      19.430000       0.127685       0.126251       0.186979
      19.440000       0.127207       0.126685       0.187871
      19.450000       0.127017       0.127030       0.188562
      19.460000       0.127075       0.127250       0.189149
      19.470000       0.127332       0.127303       0.189710
      19.480000       0.127734       0.127154       0.190295
      19.490000       0.128229       0.126778       0.190925
      19.500000       0.128769       0.126166       0.191608
      19.510000       0.129303       0.125328       0.192361
      19.520000       0.129782       0.124293       0.193227
      19.530000       0.130155       0.123100       0.194269
      19.540000       0.130373       0.121800       0.195566
      19.550000       0.130393       0.120444       0.197184
      19.560000       0.130182       0.119084       0.199163
      19.570000       0.129725       0.117766       0.201495
      19.580000       0.129027       0.116527       0.204124
      19.590000       0.128119       0.115390       0.206945
      19.600000       0.127059       0.114364       0.209823
      19.610000       0.125919       0.113442       0.212610
      19.620000       0.124784       0.112607       0.215174
      19.630000       0.123733       0.111835       0.217419
      19.640000       0.122833       0.111103       0.219299
      19.650000       0.122132       0.110395       0.220814
      19.660000       0.121654       0.109704       0.222007
      19.670000       0.121405       0.109039       0.222935
      19.680000       0.121376       0.108416       0.223662
      19.690000       0.121551       0.107860       0.224233
      19.700000       0.121902       0.107395       0.224665
      19.710000       0.122398       0.107039       0.224944
      19.720000       0.122993       0.106802       0.225028
      19.730000       0.123635       0.106684       0.224865
      19.740000       0.124266       0.106674       0.224416
      19.750000       0.124824       0.106753       0.223668
      19.760000       0.125260       0.106892       0.222651
      19.770000       0.125542       0.107057       0.221434
      19.780000       0.125659       0.107212       0.220115
      19.790000       0.125625       0.107325       0.218804
      19.800000       0.125468       0.107370       0.217607
      19.810000       0.125224       0.107330       0.216616
      19.820000       0.124922       0.107200       0.215901
      19.830000       0.124581       0.106981       0.215506
      19.840000       0.124207       0.106682       0.215449
      19.850000       0.123790       0.106314       0.215714
      19.860000       0.123311       0.105888       0.216251
      19.870000       0.122743       0.105411       0.216986
      19.880000       0.122060       0.104884       0.217832
      19.890000       0.121249       0.104304       0.218720
      19.900000       0.120310       0.103666       0.219613
      19.910000       0.119269       0.102970       0.220523
      19.920000       0.118169       0.102223       0.221500
      19.930000       0.117069       0.101439       0.222619
      19.940000       0.116030       0.100637       0.223957
      19.950000       0.115106       0.099840       0.225575
      19.960000       0.114335       0.099069       0.227500
      19.970000       0.113730       0.098343       0.229725
      19.980000       0.113283       0.097677       0.232204
      19.990000       0.112962       0.097087       0.234863
      20.000000       0.112719       0.096586       0.237607
