  # energy grid [eV]     epsi_x  epsi_y  epsi_z
       0.000000            NaN            NaN            NaN
       0.010000       0.000185       0.000024       0.000215
       0.020000       0.000371       0.000048       0.000430
       0.030000       0.000556       0.000072       0.000646
       0.040000       0.000741       0.000097       0.000863
       0.050000       0.000927       0.000121       0.001081
       0.060000       0.001112       0.000145       0.001300
       0.070000       0.001298       0.000169       0.001521
       0.080000       0.001483       0.000193       0.001745
       0.090000       0.001669       0.000218       0.001971
       0.100000       0.001855       0.000242       0.002200
       0.110000       0.002041       0.000266       0.002432
       0.120000       0.002227       0.000290       0.002667
       0.130000       0.002413       0.000314       0.002907
       0.140000       0.002600       0.000338       0.003152
       0.150000       0.002786       0.000363       0.003402
       0.160000       0.002973       0.000387       0.003657
       0.170000       0.003160       0.000411       0.003919
       0.180000       0.003348       0.000435       0.004187
       0.190000       0.003535       0.000460       0.004464
       0.200000       0.003723       0.000484       0.004749
       0.210000       0.003911       0.000508       0.005043
       0.220000       0.004099       0.000532       0.005348
       0.230000       0.004288       0.000557       0.005664
       0.240000       0.004477       0.000581       0.005993
       0.250000       0.004666       0.000605       0.006336
       0.260000       0.004856       0.000630       0.006694
       0.270000       0.005045       0.000654       0.007070
       0.280000       0.005236       0.000678       0.007465
       0.290000       0.005426       0.000703       0.007882
       0.300000       0.005617       0.000727       0.008322
       0.310000       0.005809       0.000752       0.008789
       0.320000       0.006001       0.000776       0.009287
       0.330000       0.006193       0.000800       0.009817
       0.340000       0.006386       0.000825       0.010386
       0.350000       0.006579       0.000849       0.010998
       0.360000       0.006773       0.000874       0.011657
       0.370000       0.006967       0.000898       0.012372
       0.380000       0.007162       0.000923       0.013148
       0.390000       0.007357       0.000947       0.013995
       0.400000       0.007553       0.000972       0.014922
       0.410000       0.007749       0.000997       0.015940
       0.420000       0.007946       0.001021       0.017062
       0.430000       0.008144       0.001046       0.018302
       0.440000       0.008342       0.001070       0.019677
       0.450000       0.008540       0.001095       0.021203
       0.460000       0.008740       0.001120       0.022898
       0.470000       0.008940       0.001144       0.024781
       0.480000       0.009140       0.001169       0.026868
       0.490000       0.009342       0.001194       0.029172
       0.500000       0.009544       0.001219       0.031696
       0.510000       0.009747       0.001244       0.034429
       0.520000       0.009950       0.001268       0.037340
       0.530000       0.010155       0.001293       0.040364
       0.540000       0.010360       0.001318       0.043400
       0.550000       0.010566       0.001343       0.046302
       0.560000       0.010772       0.001368       0.048888
       0.570000       0.010980       0.001393       0.050961
       0.580000       0.011188       0.001418       0.052337
       0.590000       0.011397       0.001443       0.052890
       0.600000       0.011608       0.001468       0.052585
       0.610000       0.011819       0.001493       0.051483
       0.620000       0.012031       0.001519       0.049730
       0.630000       0.012244       0.001544       0.047516
       0.640000       0.012458       0.001569       0.045040
       0.650000       0.012672       0.001594       0.042476
       0.660000       0.012888       0.001619       0.039957
       0.670000       0.013105       0.001645       0.037577
       0.680000       0.013323       0.001670       0.035389
       0.690000       0.013542       0.001695       0.033422
       0.700000       0.013763       0.001721       0.031682
       0.710000       0.013984       0.001746       0.030164
       0.720000       0.014206       0.001772       0.028854
       0.730000       0.014430       0.001797       0.027737
       0.740000       0.014655       0.001823       0.026794
       0.750000       0.014881       0.001849       0.026010
       0.760000       0.015108       0.001874       0.025369
       0.770000       0.015336       0.001900       0.024855
       0.780000       0.015566       0.001926       0.024458
       0.790000       0.015797       0.001952       0.024165
       0.800000       0.016030       0.001977       0.023969
       0.810000       0.016264       0.002003       0.023862
       0.820000       0.016499       0.002029       0.023838
       0.830000       0.016736       0.002055       0.023891
       0.840000       0.016974       0.002081       0.024019
       0.850000       0.017213       0.002107       0.024220
       0.860000       0.017455       0.002133       0.024491
       0.870000       0.017697       0.002159       0.024832
       0.880000       0.017942       0.002186       0.025245
       0.890000       0.018187       0.002212       0.025730
       0.900000       0.018435       0.002238       0.026290
       0.910000       0.018684       0.002265       0.026930
       0.920000       0.018935       0.002291       0.027653
       0.930000       0.019187       0.002317       0.028467
       0.940000       0.019442       0.002344       0.029378
       0.950000       0.019698       0.002371       0.030395
       0.960000       0.019956       0.002397       0.031530
       0.970000       0.020216       0.002424       0.032796
       0.980000       0.020478       0.002451       0.034206
       0.990000       0.020741       0.002477       0.035778
       1.000000       0.021007       0.002504       0.037533
       1.010000       0.021275       0.002531       0.039494
       1.020000       0.021544       0.002558       0.041686
       1.030000       0.021816       0.002585       0.044140
       1.040000       0.022090       0.002612       0.046888
       1.050000       0.022366       0.002639       0.049965
       1.060000       0.022645       0.002666       0.053406
       1.070000       0.022926       0.002694       0.057246
       1.080000       0.023209       0.002721       0.061512
       1.090000       0.023494       0.002748       0.066216
       1.100000       0.023782       0.002776       0.071351
       1.110000       0.024072       0.002803       0.076868
       1.120000       0.024365       0.002831       0.082667
       1.130000       0.024660       0.002859       0.088580
       1.140000       0.024958       0.002886       0.094357
       1.150000       0.025259       0.002914       0.099674
       1.160000       0.025562       0.002942       0.104158
       1.170000       0.025868       0.002970       0.107440
       1.180000       0.026177       0.002998       0.109227
       1.190000       0.026489       0.003026       0.109367
       1.200000       0.026804       0.003054       0.107889
       1.210000       0.027122       0.003082       0.104995
       1.220000       0.027443       0.003111       0.101009
       1.230000       0.027767       0.003139       0.096308
       1.240000       0.028094       0.003167       0.091255
       1.250000       0.028425       0.003196       0.086153
       1.260000       0.028759       0.003224       0.081228
       1.270000       0.029096       0.003253       0.076629
       1.280000       0.029437       0.003282       0.072440
       1.290000       0.029781       0.003311       0.068696
       1.300000       0.030129       0.003340       0.065400
       1.310000       0.030481       0.003369       0.062536
       1.320000       0.030837       0.003398       0.060075
       1.330000       0.031196       0.003427       0.057985
       1.340000       0.031560       0.003456       0.056230
       1.350000       0.031927       0.003485       0.054780
       1.360000       0.032299       0.003515       0.053603
       1.370000       0.032675       0.003544       0.052673
       1.380000       0.033055       0.003574       0.051968
       1.390000       0.033440       0.003604       0.051467
       1.400000       0.033829       0.003633       0.051153
       1.410000       0.034223       0.003663       0.051013
       1.420000       0.034622       0.003693       0.051035
       1.430000       0.035026       0.003723       0.051211
       1.440000       0.035434       0.003753       0.051534
       1.450000       0.035848       0.003784       0.052000
       1.460000       0.036267       0.003814       0.052606
       1.470000       0.036691       0.003844       0.053351
       1.480000       0.037121       0.003875       0.054237
       1.490000       0.037557       0.003906       0.055266
       1.500000       0.037998       0.003936       0.056443
       1.510000       0.038445       0.003967       0.057774
       1.520000       0.038899       0.003998       0.059269
       1.530000       0.039358       0.004029       0.060938
       1.540000       0.039824       0.004060       0.062794
       1.550000       0.040297       0.004092       0.064853
       1.560000       0.040776       0.004123       0.067133
       1.570000       0.041262       0.004154       0.069656
       1.580000       0.041755       0.004186       0.072448
       1.590000       0.042255       0.004218       0.075538
       1.600000       0.042763       0.004250       0.078959
       1.610000       0.043279       0.004281       0.082749
       1.620000       0.043802       0.004314       0.086949
       1.630000       0.044334       0.004346       0.091605
       1.640000       0.044874       0.004378       0.096764
       1.650000       0.045423       0.004410       0.102475
       1.660000       0.045980       0.004443       0.108778
       1.670000       0.046546       0.004476       0.115706
       1.680000       0.047122       0.004508       0.123268
       1.690000       0.047707       0.004541       0.131439
       1.700000       0.048303       0.004574       0.140145
       1.710000       0.048908       0.004607       0.149247
       1.720000       0.049524       0.004641       0.158533
       1.730000       0.050151       0.004674       0.167720
       1.740000       0.050789       0.004708       0.176482
       1.750000       0.051439       0.004741       0.184499
       1.760000       0.052100       0.004775       0.191520
       1.770000       0.052774       0.004809       0.197425
       1.780000       0.053460       0.004843       0.202258
       1.790000       0.054160       0.004877       0.206230
       1.800000       0.054873       0.004912       0.209665
       1.810000       0.055600       0.004946       0.212939
       1.820000       0.056341       0.004981       0.216401
       1.830000       0.057098       0.005016       0.220322
       1.840000       0.057870       0.005051       0.224859
       1.850000       0.058658       0.005086       0.230063
       1.860000       0.059462       0.005121       0.235902
       1.870000       0.060284       0.005157       0.242307
       1.880000       0.061124       0.005192       0.249223
       1.890000       0.061982       0.005228       0.256633
       1.900000       0.062860       0.005264       0.264554
       1.910000       0.063757       0.005300       0.273003
       1.920000       0.064675       0.005336       0.281938
       1.930000       0.065615       0.005373       0.291219
       1.940000       0.066577       0.005409       0.300600
       1.950000       0.067563       0.005446       0.309763
       1.960000       0.068573       0.005483       0.318397
       1.970000       0.069608       0.005520       0.326293
       1.980000       0.070670       0.005557       0.333412
       1.990000       0.071759       0.005595       0.339907
       2.000000       0.072877       0.005632       0.346093
       2.010000       0.074025       0.005670       0.352364
       2.020000       0.075205       0.005708       0.359094
       2.030000       0.076417       0.005746       0.366549
       2.040000       0.077664       0.005785       0.374823
       2.050000       0.078947       0.005823       0.383839
       2.060000       0.080267       0.005862       0.393393
       2.070000       0.081628       0.005901       0.403251
       2.080000       0.083029       0.005940       0.413260
       2.090000       0.084475       0.005980       0.423422
       2.100000       0.085966       0.006019       0.433902
       2.110000       0.087506       0.006059       0.444967
       2.120000       0.089097       0.006099       0.456873
       2.130000       0.090742       0.006140       0.469764
       2.140000       0.092444       0.006180       0.483616
       2.150000       0.094206       0.006221       0.498238
       2.160000       0.096031       0.006262       0.513329
       2.170000       0.097924       0.006303       0.528536
       2.180000       0.099888       0.006345       0.543505
       2.190000       0.101928       0.006386       0.557902
       2.200000       0.104048       0.006428       0.571415
       2.210000       0.106254       0.006471       0.583778
       2.220000       0.108552       0.006513       0.594798
       2.230000       0.110947       0.006556       0.604392
       2.240000       0.113446       0.006599       0.612595
       2.250000       0.116057       0.006642       0.619510
       2.260000       0.118787       0.006686       0.625210
       2.270000       0.121645       0.006730       0.629629
       2.280000       0.124641       0.006774       0.632479
       2.290000       0.127785       0.006818       0.633258
       2.300000       0.131090       0.006863       0.631346
       2.310000       0.134567       0.006908       0.626171
       2.320000       0.138232       0.006953       0.617390
       2.330000       0.142100       0.006999       0.605031
       2.340000       0.146188       0.007045       0.589524
       2.350000       0.150517       0.007092       0.571632
       2.360000       0.155108       0.007139       0.552300
       2.370000       0.159986       0.007186       0.532482
       2.380000       0.165178       0.007233       0.512999
       2.390000       0.170716       0.007281       0.494463
       2.400000       0.176634       0.007330       0.477276
       2.410000       0.182972       0.007379       0.461665
       2.420000       0.189775       0.007428       0.447749
       2.430000       0.197094       0.007478       0.435584
       2.440000       0.204987       0.007528       0.425180
       2.450000       0.213519       0.007579       0.416492
       2.460000       0.222766       0.007630       0.409404
       2.470000       0.232815       0.007682       0.403731
       2.480000       0.243764       0.007734       0.399236
       2.490000       0.255727       0.007787       0.395656
       2.500000       0.268833       0.007841       0.392720
       2.510000       0.283230       0.007895       0.390144
       2.520000       0.299086       0.007950       0.387632
       2.530000       0.316590       0.008006       0.384877
       2.540000       0.335956       0.008062       0.381587
       2.550000       0.357416       0.008120       0.377520
       2.560000       0.381221       0.008178       0.372517
       2.570000       0.407633       0.008238       0.366532
       2.580000       0.436901       0.008298       0.359634
       2.590000       0.469243       0.008360       0.352002
       2.600000       0.504797       0.008423       0.343906
       2.610000       0.543561       0.008487       0.335681
       2.620000       0.585310       0.008553       0.327703
       2.630000       0.629498       0.008621       0.320354
       2.640000       0.675161       0.008690       0.313982
       2.650000       0.720864       0.008762       0.308857
       2.660000       0.764748       0.008836       0.305150
       2.670000       0.804721       0.008913       0.302921
       2.680000       0.838829       0.008992       0.302128
       2.690000       0.865717       0.009075       0.302665
       2.700000       0.885036       0.009161       0.304404
       2.710000       0.897614       0.009252       0.307247
       2.720000       0.905308       0.009347       0.311158
       2.730000       0.910596       0.009447       0.316174
       2.740000       0.916091       0.009553       0.322374
       2.750000       0.924123       0.009665       0.329826
       2.760000       0.936463       0.009782       0.338524
       2.770000       0.954175       0.009906       0.348338
       2.780000       0.977544       0.010034       0.359000
       2.790000       1.006013       0.010167       0.370110
       2.800000       1.038137       0.010302       0.381174
       2.810000       1.071563       0.010436       0.391656
       2.820000       1.103130       0.010563       0.401029
       2.830000       1.129181       0.010681       0.408817
       2.840000       1.146108       0.010783       0.414626
       2.850000       1.151083       0.010866       0.418168
       2.860000       1.142726       0.010928       0.419270
       2.870000       1.121445       0.010970       0.417876
       2.880000       1.089297       0.010996       0.414040
       2.890000       1.049424       0.011009       0.407901
       2.900000       1.005334       0.011015       0.399651
       2.910000       0.960289       0.011018       0.389523
       2.920000       0.916932       0.011023       0.377777
       2.930000       0.877177       0.011031       0.364711
       2.940000       0.842266       0.011045       0.350667
       2.950000       0.812906       0.011066       0.336031
       2.960000       0.789438       0.011093       0.321223
       2.970000       0.771963       0.011127       0.306670
       2.980000       0.760461       0.011169       0.292773
       2.990000       0.754856       0.011216       0.279873
       3.000000       0.755065       0.011270       0.268232
       3.010000       0.761020       0.011329       0.258024
       3.020000       0.772671       0.011395       0.249344
       3.030000       0.789966       0.011465       0.242215
       3.040000       0.812817       0.011541       0.236598
       3.050000       0.841039       0.011623       0.232405
       3.060000       0.874275       0.011709       0.229503
       3.070000       0.911900       0.011801       0.227722
       3.080000       0.952932       0.011899       0.226864
       3.090000       0.995980       0.012002       0.226730
       3.100000       1.039296       0.012112       0.227142
       3.110000       1.080956       0.012229       0.227981
       3.120000       1.119212       0.012353       0.229210
       3.130000       1.152927       0.012484       0.230881
       3.140000       1.181945       0.012625       0.233111
       3.150000       1.207239       0.012774       0.236050
       3.160000       1.230744       0.012934       0.239838
       3.170000       1.254961       0.013105       0.244579
       3.180000       1.282466       0.013288       0.250325
       3.190000       1.315484       0.013483       0.257081
       3.200000       1.355579       0.013689       0.264827
       3.210000       1.403442       0.013907       0.273543
       3.220000       1.458738       0.014133       0.283237
       3.230000       1.519980       0.014364       0.293942
       3.240000       1.584444       0.014594       0.305697
       3.250000       1.648220       0.014817       0.318496
       3.260000       1.706495       0.015024       0.332237
       3.270000       1.754156       0.015207       0.346675
       3.280000       1.786662       0.015361       0.361412
       3.290000       1.800992       0.015483       0.375927
       3.300000       1.796322       0.015574       0.389641
       3.310000       1.774165       0.015639       0.401994
       3.320000       1.737894       0.015684       0.412517
       3.330000       1.691864       0.015718       0.420866
       3.340000       1.640505       0.015746       0.426830
       3.350000       1.587677       0.015775       0.430308
       3.360000       1.536424       0.015809       0.431291
       3.370000       1.489028       0.015850       0.429834
       3.380000       1.447207       0.015902       0.426039
       3.390000       1.412303       0.015964       0.420043
       3.400000       1.385375       0.016041       0.411999
       3.410000       1.367211       0.016132       0.402088
       3.420000       1.358299       0.016238       0.390526
       3.430000       1.358776       0.016361       0.377589
       3.440000       1.368391       0.016499       0.363633
       3.450000       1.386468       0.016651       0.349085
       3.460000       1.411895       0.016816       0.334424
       3.470000       1.443161       0.016991       0.320135
       3.480000       1.478472       0.017174       0.306659
       3.490000       1.515957       0.017362       0.294358
       3.500000       1.553913       0.017553       0.283486
       3.510000       1.591005       0.017748       0.274193
       3.520000       1.626327       0.017949       0.266534
       3.530000       1.659325       0.018157       0.260479
       3.540000       1.689676       0.018377       0.255938
       3.550000       1.717258       0.018613       0.252773
       3.560000       1.742259       0.018866       0.250822
       3.570000       1.765331       0.019138       0.249919
       3.580000       1.787647       0.019428       0.249927
       3.590000       1.810743       0.019734       0.250766
       3.600000       1.836210       0.020050       0.252431
       3.610000       1.865377       0.020370       0.254995
       3.620000       1.899134       0.020686       0.258590
       3.630000       1.937965       0.020993       0.263375
       3.640000       1.982074       0.021284       0.269509
       3.650000       2.031484       0.021560       0.277118
       3.660000       2.085943       0.021825       0.286278
       3.670000       2.144619       0.022082       0.296997
       3.680000       2.205710       0.022339       0.309206
       3.690000       2.266166       0.022599       0.322755
       3.700000       2.321770       0.022865       0.337407
       3.710000       2.367682       0.023137       0.352850
       3.720000       2.399389       0.023411       0.368700
       3.730000       2.413768       0.023684       0.384516
       3.740000       2.409851       0.023955       0.399818
       3.750000       2.388978       0.024223       0.414121
       3.760000       2.354339       0.024490       0.426966
       3.770000       2.310162       0.024759       0.437968
       3.780000       2.260882       0.025038       0.446832
       3.790000       2.210498       0.025334       0.453373
       3.800000       2.162186       0.025659       0.457511
       3.810000       2.118180       0.026020       0.459273
       3.820000       2.079863       0.026429       0.458777
       3.830000       2.048043       0.026893       0.456222
       3.840000       2.023283       0.027419       0.451857
       3.850000       2.006199       0.028014       0.445955
       3.860000       1.997599       0.028685       0.438785
       3.870000       1.998447       0.029435       0.430600
       3.880000       2.009655       0.030268       0.421646
       3.890000       2.031788       0.031186       0.412180
       3.900000       2.064746       0.032186       0.402482
       3.910000       2.107520       0.033262       0.392865
       3.920000       2.158040       0.034400       0.383650
       3.930000       2.213207       0.035586       0.375131
       3.940000       2.269130       0.036799       0.367544
       3.950000       2.321600       0.038018       0.361039
       3.960000       2.366750       0.039225       0.355687
       3.970000       2.401755       0.040397       0.351489
       3.980000       2.425353       0.041513       0.348397
       3.990000       2.438020       0.042549       0.346335
       4.000000       2.441735       0.043478       0.345214
       4.010000       2.439462       0.044274       0.344960
       4.020000       2.434557       0.044925       0.345540
       4.030000       2.430267       0.045435       0.346982
       4.040000       2.429372       0.045831       0.349393
       4.050000       2.433950       0.046160       0.352951
       4.060000       2.445242       0.046479       0.357878
       4.070000       2.463602       0.046848       0.364399
       4.080000       2.488511       0.047319       0.372694
       4.090000       2.518597       0.047929       0.382847
       4.100000       2.551640       0.048702       0.394808
       4.110000       2.584599       0.049641       0.408365
       4.120000       2.613787       0.050729       0.423141
       4.130000       2.635284       0.051927       0.438614
       4.140000       2.645543       0.053171       0.454165
       4.150000       2.642008       0.054376       0.469155
       4.160000       2.623564       0.055445       0.482999
       4.170000       2.590669       0.056285       0.495233
       4.180000       2.545195       0.056821       0.505544
       4.190000       2.490057       0.057020       0.513765
       4.200000       2.428761       0.056893       0.519851
       4.210000       2.364991       0.056495       0.523835
       4.220000       2.302302       0.055910       0.525786
       4.230000       2.243937       0.055233       0.525782
       4.240000       2.192700       0.054557       0.523896
       4.250000       2.150833       0.053961       0.520193
       4.260000       2.119883       0.053507       0.514760
       4.270000       2.100580       0.053241       0.507731
       4.280000       2.092755       0.053193       0.499320
       4.290000       2.095330       0.053380       0.489837
       4.300000       2.106398       0.053814       0.479692
       4.310000       2.123396       0.054496       0.469373
       4.320000       2.143378       0.055427       0.459407
       4.330000       2.163366       0.056602       0.450319
       4.340000       2.180751       0.058011       0.442576
       4.350000       2.193675       0.059643       0.436559
       4.360000       2.201335       0.061477       0.432541
       4.370000       2.204071       0.063480       0.430699
       4.380000       2.203213       0.065603       0.431142
       4.390000       2.200693       0.067775       0.433947
       4.400000       2.198593       0.069902       0.439189
       4.410000       2.198784       0.071875       0.446943
       4.420000       2.202751       0.073585       0.457273
       4.430000       2.211593       0.074943       0.470189
       4.440000       2.226081       0.075906       0.485602
       4.450000       2.246709       0.076484       0.503278
       4.460000       2.273633       0.076741       0.522809
       4.470000       2.306547       0.076774       0.543616
       4.480000       2.344519       0.076692       0.564988
       4.490000       2.385925       0.076601       0.586154
       4.500000       2.428553       0.076595       0.606381
       4.510000       2.469919       0.076746       0.625061
       4.520000       2.507699       0.077115       0.641753
       4.530000       2.540106       0.077741       0.656197
       4.540000       2.566011       0.078648       0.668278
       4.550000       2.584791       0.079839       0.677990
       4.560000       2.596061       0.081297       0.685391
       4.570000       2.599527       0.082988       0.690576
       4.580000       2.595083       0.084870       0.693655
       4.590000       2.583065       0.086897       0.694734
       4.600000       2.564467       0.089037       0.693904
       4.610000       2.540988       0.091278       0.691238
       4.620000       2.514887       0.093640       0.686807
       4.630000       2.488735       0.096173       0.680720
       4.640000       2.465132       0.098943       0.673174
       4.650000       2.446418       0.102022       0.664501
       4.660000       2.434369       0.105464       0.655174
       4.670000       2.429898       0.109286       0.645780
       4.680000       2.432825       0.113457       0.636968
       4.690000       2.441808       0.117888       0.629379
       4.700000       2.454505       0.122430       0.623607
       4.710000       2.467978       0.126882       0.620170
       4.720000       2.479262       0.131006       0.619505
       4.730000       2.485926       0.134553       0.621957
       4.740000       2.486487       0.137292       0.627764
       4.750000       2.480605       0.139043       0.637024
       4.760000       2.469080       0.139712       0.649665
       4.770000       2.453739       0.139323       0.665419
       4.780000       2.437202       0.138022       0.683810
       4.790000       2.422528       0.136054       0.704178
       4.800000       2.412750       0.133722       0.725732
       4.810000       2.410360       0.131333       0.747630
       4.820000       2.416856       0.129151       0.769066
       4.830000       2.432437       0.127378       0.789338
       4.840000       2.455898       0.126138       0.807892
       4.850000       2.484768       0.125482       0.824321
       4.860000       2.515710       0.125394       0.838349
       4.870000       2.545154       0.125796       0.849813
       4.880000       2.570016       0.126566       0.858640
       4.890000       2.588295       0.127554       0.864862
       4.900000       2.599315       0.128608       0.868637
       4.910000       2.603549       0.129604       0.870301
       4.920000       2.602136       0.130474       0.870415
       4.930000       2.596326       0.131220       0.869779
       4.940000       2.587096       0.131906       0.869398
       4.950000       2.575063       0.132635       0.870386
       4.960000       2.560673       0.133521       0.873823
       4.970000       2.544501       0.134660       0.880621
       4.980000       2.527413       0.136120       0.891411
       4.990000       2.510480       0.137940       0.906484
       5.000000       2.494673       0.140135       0.925776
       5.010000       2.480541       0.142702       0.948891
       5.020000       2.468075       0.145612       0.975146
       5.030000       2.456857       0.148808       1.003640
       5.040000       2.446433       0.152198       1.033332
       5.050000       2.436746       0.155652       1.063138
       5.060000       2.428440       0.159025       1.092007
       5.070000       2.422909       0.162183       1.119002
       5.080000       2.422106       0.165043       1.143336
       5.090000       2.428211       0.167591       1.164408
       5.100000       2.443268       0.169888       1.181835
       5.110000       2.468866       0.172030       1.195501
       5.120000       2.505876       0.174110       1.205628
       5.130000       2.554254       0.176165       1.212833
       5.140000       2.612909       0.178161       1.218131
       5.150000       2.679675       0.179988       1.222841
       5.160000       2.751435       0.181502       1.228400
       5.170000       2.824458       0.182570       1.236109
       5.180000       2.894968       0.183124       1.246902
       5.190000       2.959891       0.183194       1.261159
       5.200000       3.017611       0.182918       1.278616
       5.210000       3.068475       0.182514       1.298356
       5.220000       3.114804       0.182240       1.318902
       5.230000       3.160366       0.182342       1.338396
       5.240000       3.209469       0.183012       1.354851
       5.250000       3.266006       0.184365       1.366440
       5.260000       3.332694       0.186423       1.371754
       5.270000       3.410694       0.189112       1.369970
       5.280000       3.499611       0.192279       1.360880
       5.290000       3.597836       0.195699       1.344775
       5.300000       3.703148       0.199102       1.322244
       5.310000       3.813427       0.202211       1.293980
       5.320000       3.927340       0.204774       1.260674
       5.330000       4.044821       0.206617       1.223038
       5.340000       4.167253       0.207679       1.181905
       5.350000       4.297318       0.208025       1.138319
       5.360000       4.438546       0.207840       1.093540
       5.370000       4.594628       0.207373       1.048940
       5.380000       4.768604       0.206892       1.005833
       5.390000       4.962026       0.206618       0.965322
       5.400000       5.174222       0.206702       0.928211
       5.410000       5.401752       0.207208       0.894990
       5.420000       5.638165       0.208128       0.865883
       5.430000       5.874197       0.209399       0.840939
       5.440000       6.098500       0.210924       0.820113
       5.450000       6.298915       0.212586       0.803342
       5.460000       6.464128       0.214262       0.790594
       5.470000       6.585363       0.215834       0.781883
       5.480000       6.657738       0.217201       0.777273
       5.490000       6.680942       0.218297       0.776870
       5.500000       6.659111       0.219087       0.780803
       5.510000       6.600002       0.219573       0.789233
       5.520000       6.513644       0.219791       0.802345
       5.530000       6.410734       0.219813       0.820364
       5.540000       6.301021       0.219747       0.843554
       5.550000       6.191972       0.219725       0.872228
       5.560000       6.087950       0.219878       0.906745
       5.570000       5.990035       0.220301       0.947497
       5.580000       5.896465       0.221036       0.994888
       5.590000       5.803559       0.222063       1.049291
       5.600000       5.706928       0.223318       1.110983
       5.610000       5.602729       0.224711       1.180050
       5.620000       5.488754       0.226160       1.256270
       5.630000       5.365107       0.227594       1.338967
       5.640000       5.234332       0.228953       1.426879
       5.650000       5.100975       0.230175       1.518067
       5.660000       4.970745       0.231196       1.609937
       5.670000       4.849550       0.231963       1.699422
       5.680000       4.742640       0.232460       1.783341
       5.690000       4.653971       0.232734       1.858882
       5.700000       4.585810       0.232905       1.924051
       5.710000       4.538518       0.233141       1.977951
       5.720000       4.510496       0.233621       2.020777
       5.730000       4.498316       0.234496       2.053628
       5.740000       4.497065       0.235860       2.078251
       5.750000       4.500918       0.237738       2.096842
       5.760000       4.503900       0.240103       2.111886
       5.770000       4.500710       0.242903       2.125957
       5.780000       4.487444       0.246096       2.141416
       5.790000       4.462055       0.249686       2.160087
       5.800000       4.424497       0.253742       2.183028
       5.810000       4.376551       0.258395       2.210532
       5.820000       4.321399       0.263814       2.242343
       5.830000       4.263015       0.270186       2.278018
       5.840000       4.205513       0.277688       2.317243
       5.850000       4.152620       0.286463       2.359953
       5.860000       4.107374       0.296614       2.406215
       5.870000       4.072010       0.308186       2.455942
       5.880000       4.047931       0.321166       2.508599
       5.890000       4.035660       0.335473       2.563013
       5.900000       4.034800       0.350970       2.617355
       5.910000       4.044083       0.367475       2.669287
       5.920000       4.061646       0.384804       2.716244
       5.930000       4.085492       0.402814       2.755793
       5.940000       4.113991       0.421450       2.786022
       5.950000       4.146151       0.440785       2.805882
       5.960000       4.181512       0.461012       2.815389
       5.970000       4.219697       0.482409       2.815621
       5.980000       4.259886       0.505268       2.808496
       5.990000       4.300490       0.529806       2.796391
       6.000000       4.339160       0.556084       2.781735
       6.010000       4.373057       0.583962       2.766697
       6.020000       4.399173       0.613086       2.753012
       6.030000       4.414577       0.642928       2.741918
       6.040000       4.416620       0.672846       2.734112
       6.050000       4.403249       0.702178       2.729672
       6.060000       4.373481       0.730339       2.727965
       6.070000       4.327917       0.756914       2.727610
       6.080000       4.269019       0.781697       2.726626
       6.090000       4.200931       0.804676       2.722779
       6.100000       4.128892       0.825943       2.714066
       6.110000       4.058452       0.845592       2.699163
       6.120000       3.994767       0.863631       2.677670
       6.130000       3.942084       0.879958       2.650063
       6.140000       3.903389       0.894380       2.617430
       6.150000       3.880166       0.906670       2.581113
       6.160000       3.872264       0.916638       2.542418
       6.170000       3.877926       0.924210       2.502505
       6.180000       3.894041       0.929514       2.462427
       6.190000       3.916643       0.932914       2.423253
       6.200000       3.941561       0.934960       2.386120
       6.210000       3.965067       0.936268       2.352181
       6.220000       3.984375       0.937365       2.322449
       6.230000       3.997872       0.938589       2.297603
       6.240000       4.005126       0.940067       2.277813
       6.250000       4.006764       0.941778       2.262618
       6.260000       4.004345       0.943635       2.250892
       6.270000       4.000246       0.945556       2.240951
       6.280000       3.997487       0.947493       2.230825
       6.290000       3.999421       0.949446       2.218640
       6.300000       4.009288       0.951451       2.203000
       6.310000       4.029697       0.953569       2.183240
       6.320000       4.062152       0.955892       2.159472
       6.330000       4.106692       0.958578       2.132454
       6.340000       4.161688       0.961902       2.103328
       6.350000       4.223796       0.966284       2.073321
       6.360000       4.288084       0.972243       2.043454
       6.370000       4.348391       0.980289       2.014328
       6.380000       4.397956       0.990766       1.986051
       6.390000       4.430328       1.003700       1.958330
       6.400000       4.440450       1.018710       1.930737
       6.410000       4.425705       1.035000       1.903046
       6.420000       4.386591       1.051433       1.875489
       6.430000       4.326805       1.066707       1.848821
       6.440000       4.252653       1.079569       1.824172
       6.450000       4.171982       1.089067       1.802764
       6.460000       4.092934       1.094741       1.785614
       6.470000       4.022825       1.096732       1.773316
       6.480000       3.967330       1.095750       1.765947
       6.490000       3.930020       1.092901       1.763087
       6.500000       3.912207       1.089436       1.763917
       6.510000       3.913025       1.086494       1.767329
       6.520000       3.929726       1.084918       1.772014
       6.530000       3.958217       1.085145       1.776533
       6.540000       3.993845       1.087163       1.779408
       6.550000       4.032390       1.090505       1.779255
       6.560000       4.071032       1.094289       1.774963
       6.570000       4.108965       1.097328       1.765873
       6.580000       4.147390       1.098315       1.751909
       6.590000       4.188865       1.096075       1.733592
       6.600000       4.236294       1.089818       1.711932
       6.610000       4.291983       1.079329       1.688211
       6.620000       4.357091       1.065022       1.663729
       6.630000       4.431588       1.047836       1.639595
       6.640000       4.514585       1.029004       1.616629
       6.650000       4.604793       1.009780       1.595379
       6.660000       4.700923       0.991220       1.576198
       6.670000       4.801953       0.974079       1.559300
       6.680000       4.907308       0.958834       1.544752
       6.690000       5.016996       0.945790       1.532416
       6.700000       5.131652       0.935225       1.521909
       6.710000       5.252405       0.927499       1.512655
       6.720000       5.380461       0.923100       1.504015
       6.730000       5.516474       0.922628       1.495453
       6.740000       5.659881       0.926714       1.486648
       6.750000       5.808417       0.935925       1.477532
       6.760000       5.957957       0.950670       1.468268
       6.770000       6.102678       0.971124       1.459203
       6.780000       6.235505       0.997158       1.450807
       6.790000       6.348832       1.028274       1.443600
       6.800000       6.435571       1.063548       1.438086
       6.810000       6.490477       1.101597       1.434703
       6.820000       6.511474       1.140611       1.433803
       6.830000       6.500453       1.178491       1.435638
       6.840000       6.463094       1.213112       1.440327
       6.850000       6.407653       1.242678       1.447791
       6.860000       6.343122       1.266050       1.457667
       6.870000       6.277427       1.282932       1.469242
       6.880000       6.216228       1.293837       1.481442
       6.890000       6.162547       1.299844       1.492907
       6.900000       6.117129       1.302258       1.502145
       6.910000       6.079170       1.302296       1.507739
       6.920000       6.047006       1.300887       1.508553
       6.930000       6.018515       1.298605       1.503878
       6.940000       5.991201       1.295702       1.493492
       6.950000       5.962179       1.292167       1.477624
       6.960000       5.928358       1.287782       1.456856
       6.970000       5.886919       1.282158       1.432022
       6.980000       5.835958       1.274765       1.404133
       6.990000       5.774911       1.264985       1.374318
       7.000000       5.704504       1.252240       1.343758
       7.010000       5.626251       1.236176       1.313583
       7.020000       5.541806       1.216871       1.284752
       7.030000       5.452526       1.194951       1.257970
       7.040000       5.359426       1.171576       1.233670
       7.050000       5.263434       1.148255       1.212084
       7.060000       5.165731       1.126590       1.193358
       7.070000       5.067953       1.108010       1.177663
       7.080000       4.972121       1.093585       1.165238
       7.090000       4.880373       1.083922       1.156361
       7.100000       4.794640       1.079140       1.151260
       7.110000       4.716449       1.078900       1.149995
       7.120000       4.646885       1.082447       1.152368
       7.130000       4.586679       1.088676       1.157873
       7.140000       4.536297       1.096230       1.165685
       7.150000       4.496015       1.103646       1.174702
       7.160000       4.465928       1.109562       1.183646
       7.170000       4.445906       1.112926       1.191218
       7.180000       4.435430       1.113141       1.196273
       7.190000       4.433375       1.110083       1.197994
       7.200000       4.437829       1.104024       1.195990
       7.210000       4.446092       1.095528       1.190327
       7.220000       4.454910       1.085392       1.181474
       7.230000       4.460905       1.074613       1.170195
       7.240000       4.461062       1.064365       1.157423
       7.250000       4.453149       1.055928       1.144141
       7.260000       4.435999       1.050579       1.131297
       7.270000       4.409606       1.049472       1.119718
       7.280000       4.375039       1.053529       1.110053
       7.290000       4.334172       1.063368       1.102709
       7.300000       4.289319       1.079255       1.097830
       7.310000       4.242862       1.101071       1.095315
       7.320000       4.196962       1.128306       1.094886
       7.330000       4.153336       1.160047       1.096193
       7.340000       4.113083       1.195011       1.098922
       7.350000       4.076580       1.231598       1.102900
       7.360000       4.043487       1.268031       1.108133
       7.370000       4.012901       1.302548       1.114790
       7.380000       3.983596       1.333674       1.123111
       7.390000       3.954235       1.360496       1.133277
       7.400000       3.923424       1.382871       1.145279
       7.410000       3.889653       1.401442       1.158835
       7.420000       3.851240       1.417406       1.173355
       7.430000       3.806442       1.432116       1.187966
       7.440000       3.753776       1.446632       1.201576
       7.450000       3.692433       1.461432       1.212988
       7.460000       3.622636       1.476332       1.221080
       7.470000       3.545789       1.490644       1.225001
       7.480000       3.464374       1.503453       1.224338
       7.490000       3.381582       1.513892       1.219159
       7.500000       3.300794       1.521312       1.209933
       7.510000       3.225049       1.525315       1.197349
       7.520000       3.156642       1.525731       1.182147
       7.530000       3.096920       1.522612       1.165007
       7.540000       3.046261       1.516273       1.146541
       7.550000       3.004164       1.507327       1.127343
       7.560000       2.969409       1.496618       1.108050
       7.570000       2.940297       1.485059       1.089342
       7.580000       2.914969       1.473445       1.071882
       7.590000       2.891786       1.462335       1.056205
       7.600000       2.869677       1.452071       1.042613
       7.610000       2.848325       1.442874       1.031114
       7.620000       2.828138       1.434945       1.021443
       7.630000       2.810021       1.428501       1.013152
       7.640000       2.795039       1.423709       1.005776
       7.650000       2.784087       1.420576       0.998974
       7.660000       2.777657       1.418871       0.992628
       7.670000       2.775738       1.418136       0.986827
       7.680000       2.777830       1.417802       0.981767
       7.690000       2.783037       1.417364       0.977626
       7.700000       2.790201       1.416551       0.974477
       7.710000       2.798041       1.415408       0.972285
       7.720000       2.805291       1.414267       0.970982
       7.730000       2.810776       1.413600       0.970564
       7.740000       2.813427       1.413809       0.971147
       7.750000       2.812216       1.415019       0.972951
       7.760000       2.806109       1.416988       0.976235
       7.770000       2.794094       1.419167       0.981214
       7.780000       2.775328       1.420919       0.987998
       7.790000       2.749373       1.421798       0.996547
       7.800000       2.716436       1.421791       1.006638
       7.810000       2.677513       1.421401       1.017847
       7.820000       2.634391       1.421552       1.029553
       7.830000       2.589502       1.423338       1.041000
       7.840000       2.545659       1.427716       1.051409
       7.850000       2.505727       1.435237       1.060113
       7.860000       2.472253       1.445895       1.066681
       7.870000       2.447113       1.459099       1.070988
       7.880000       2.431251       1.473766       1.073209
       7.890000       2.424562       1.488492       1.073747
       7.900000       2.425960       1.501771       1.073107
       7.910000       2.433609       1.512232       1.071762
       7.920000       2.445258       1.518891       1.070061
       7.930000       2.458591       1.521334       1.068207
       7.940000       2.471499       1.519775       1.066280
       7.950000       2.482248       1.514943       1.064299
       7.960000       2.489539       1.507845       1.062263
       7.970000       2.492533       1.499493       1.060161
       7.980000       2.490843       1.490738       1.057964
       7.990000       2.484503       1.482240       1.055601
       8.000000       2.473861       1.474580       1.052960
       8.010000       2.459404       1.468404       1.049918
       8.020000       2.441548       1.464514       1.046376
       8.030000       2.420490       1.463850       1.042297
       8.040000       2.396193       1.467345       1.037712
       8.050000       2.368508       1.475719       1.032713
       8.060000       2.337390       1.489274       1.027422
       8.070000       2.303119       1.507789       1.021958
       8.080000       2.266432       1.530521       1.016404
       8.090000       2.228513       1.556356       1.010786
       8.100000       2.190826       1.584036       1.005070
       8.110000       2.154872       1.612401       0.999193
       8.120000       2.121963       1.640546       0.993122
       8.130000       2.093124       1.667880       0.986923
       8.140000       2.069097       1.694087       0.980822
       8.150000       2.050429       1.719083       0.975219
       8.160000       2.037537       1.742988       0.970645
       8.170000       2.030692       1.766093       0.967704
       8.180000       2.029950       1.788779       0.966980
       8.190000       2.035058       1.811375       0.968961
       8.200000       2.045413       1.834002       0.973949
       8.210000       2.060114       1.856492       0.981989
       8.220000       2.078086       1.878439       0.992815
       8.230000       2.098235       1.899379       1.005839
       8.240000       2.119567       1.919021       1.020219
       8.250000       2.141231       1.937409       1.034973
       8.260000       2.162489       1.954938       1.049133
       8.270000       2.182642       1.972215       1.061881
       8.280000       2.200956       1.989835       1.072620
       8.290000       2.216625       2.008170       1.080996
       8.300000       2.228764       2.027276       1.086863
       8.310000       2.236453       2.046941       1.090261
       8.320000       2.238826       2.066825       1.091408
       8.330000       2.235193       2.086576       1.090703
       8.340000       2.225197       2.105838       1.088720
       8.350000       2.208960       2.124168       1.086167
       8.360000       2.187133       2.140945       1.083815
       8.370000       2.160815       2.155368       1.082410
       8.380000       2.131322       2.166560       1.082585
       8.390000       2.099918       2.173750       1.084774
       8.400000       2.067611       2.176430       1.089179
       8.410000       2.035114       2.174414       1.095766
       8.420000       2.002934       2.167756       1.104343
       8.430000       1.971527       2.156622       1.114645
       8.440000       1.941403       2.141194       1.126428
       8.450000       1.913141       2.121685       1.139502
       8.460000       1.887314       2.098436       1.153704
       8.470000       1.864398       2.072030       1.168836
       8.480000       1.844713       2.043352       1.184594
       8.490000       1.828420       2.013587       1.200534
       8.500000       1.815564       1.984183       1.216091
       8.510000       1.806146       1.956810       1.230654
       8.520000       1.800185       1.933301       1.243656
       8.530000       1.797761       1.915546       1.254672
       8.540000       1.799010       1.905334       1.263496
       8.550000       1.804058       1.904137       1.270189
       8.560000       1.812909       1.912900       1.275094
       8.570000       1.825322       1.931882       1.278802
       8.580000       1.840732       1.960570       1.282067
       8.590000       1.858252       1.997697       1.285669
       8.600000       1.876793       2.041364       1.290269
       8.610000       1.895284       2.089269       1.296286
       8.620000       1.912927       2.138998       1.303854
       8.630000       1.929369       2.188318       1.312859
       8.640000       1.944703       2.235410       1.323060
       8.650000       1.959305       2.278980       1.334245
       8.660000       1.973594       2.318294       1.346367
       8.670000       1.987838       2.353156       1.359608
       8.680000       2.002077       2.383879       1.374343
       8.690000       2.016146       2.411253       1.391015
       8.700000       2.029744       2.436448       1.409978
       8.710000       2.042488       2.460871       1.431354
       8.720000       2.053978       2.485985       1.454929
       8.730000       2.063885       2.513186       1.480152
       8.740000       2.072051       2.543726       1.506220
       8.750000       2.078571       2.578634       1.532262
       8.760000       2.083785       2.618551       1.557549
       8.770000       2.088163       2.663459       1.581677
       8.780000       2.092136       2.712426       1.604644
       8.790000       2.095941       2.763516       1.626823
       8.800000       2.099547       2.814008       1.648835
       8.810000       2.102721       2.860919       1.671409
       8.820000       2.105198       2.901720       1.695250
       8.830000       2.106898       2.935000       1.720922
       8.840000       2.108080       2.960878       1.748760
       8.850000       2.109371       2.980999       1.778781
       8.860000       2.111631       2.998142       1.810623
       8.870000       2.115713       3.015520       1.843536
       8.880000       2.122163       3.035997       1.876430
       8.890000       2.130978       3.061416       1.908010
       8.900000       2.141480       3.092213       1.936979
       8.910000       2.152360       3.127402       1.962287
       8.920000       2.161898       3.164888       1.983379
       8.930000       2.168307       3.202021       2.000364
       8.940000       2.170126       3.236180       2.014048
       8.950000       2.166537       3.265236       2.025797
       8.960000       2.157496       3.287742       2.037273
       8.970000       2.143635       3.302894       2.050116
       8.980000       2.126006       3.310372       2.065643
       8.990000       2.105777       3.310220       2.084639
       9.000000       2.084008       3.302845       2.107283
       9.010000       2.061570       3.289110       2.133218
       9.020000       2.039164       3.270407       2.161762
       9.030000       2.017393       3.248619       2.192180
       9.040000       1.996804       3.225900       2.223929
       9.050000       1.977860       3.204342       2.256786
       9.060000       1.960867       3.185612       2.290838
       9.070000       1.945877       3.170672       2.326380
       9.080000       1.932634       3.159644       2.363775
       9.090000       1.920559       3.151878       2.403343
       9.100000       1.908837       3.146217       2.445296
       9.110000       1.896571       3.141431       2.489737
       9.120000       1.882979       3.136676       2.536699
       9.130000       1.867585       3.131769       2.586211
       9.140000       1.850311       3.127130       2.638359
       9.150000       1.831463       3.123398       2.693295
       9.160000       1.811603       3.120877       2.751219
       9.170000       1.791359       3.119070       2.812334
       9.180000       1.771233       3.116465       2.876786
       9.190000       1.751479       3.110680       2.944619
       9.200000       1.732084       3.098921       3.015753
       9.210000       1.712864       3.078643       3.090017
       9.220000       1.693622       3.048185       3.167234
       9.230000       1.674297       3.007203       3.247371
       9.240000       1.655052       2.956744       3.330691
       9.250000       1.636268       2.898978       3.417861
       9.260000       1.618496       2.836710       3.509960
       9.270000       1.602384       2.772884       3.608359
       9.280000       1.588601       2.710191       3.714514
       9.290000       1.577756       2.650869       3.829742
       9.300000       1.570295       2.596644       3.955081
       9.310000       1.566395       2.548777       4.091272
       9.320000       1.565885       2.508156       4.238866
       9.330000       1.568228       2.475359       4.398389
       9.340000       1.572577       2.450656       4.570474
       9.350000       1.577897       2.433919       4.755870
       9.360000       1.583117       2.424466       4.955316
       9.370000       1.587290       2.420932       5.169273
       9.380000       1.589712       2.421271       5.397606
       9.390000       1.590017       2.422952       5.639287
       9.400000       1.588208       2.423359       5.892145
       9.410000       1.584630       2.420256       6.152671
       9.420000       1.579863       2.412166       6.415903
       9.430000       1.574555       2.398533       6.675456
       9.440000       1.569258       2.379664       6.923781
       9.450000       1.564310       2.356548       7.152740
       9.460000       1.559806       2.330648       7.354449
       9.470000       1.555665       2.303699       7.522286
       9.480000       1.551736       2.277537       7.651808
       9.490000       1.547914       2.253903       7.741287
       9.500000       1.544182       2.234257       7.791676
       9.510000       1.540584       2.219637       7.806051
       9.520000       1.537120       2.210585       7.788804
       9.530000       1.533643       2.207157       7.744861
       9.540000       1.529807       2.208958       7.679110
       9.550000       1.525117       2.215194       7.596033
       9.560000       1.519064       2.224694       7.499469
       9.570000       1.511282       2.235940       7.392475
       9.580000       1.501676       2.247135       7.277284
       9.590000       1.490450       2.256333       7.155393
       9.600000       1.478057       2.261644       7.027817
       9.610000       1.465104       2.261497       6.895471
       9.620000       1.452249       2.254903       6.759555
       9.630000       1.440135       2.241688       6.621768
       9.640000       1.429332       2.222607       6.484222
       9.650000       1.420278       2.199279       6.349052
       9.660000       1.413212       2.173918       6.217851
       9.670000       1.408117       2.148955       6.091133
       9.680000       1.404714       2.126649       5.968039
       9.690000       1.402517       2.108798       5.846439
       9.700000       1.400952       2.096591       5.723452
       9.710000       1.399474       2.090547       5.596256
       9.720000       1.397670       2.090534       5.462925
       9.730000       1.395280       2.095831       5.322984
       9.740000       1.392182       2.105244       5.177503
       9.750000       1.388333       2.117284       5.028742
       9.760000       1.383751       2.130379       4.879564
       9.770000       1.378509       2.143091       4.732857
       9.780000       1.372758       2.154309       4.591120
       9.790000       1.366723       2.163387       4.456193
       9.800000       1.360683       2.170191       4.329095
       9.810000       1.354930       2.175019       4.209929
       9.820000       1.349734       2.178420       4.097908
       9.830000       1.345308       2.180919       3.991531
       9.840000       1.341775       2.182737       3.888967
       9.850000       1.339127       2.183588       3.788570
       9.860000       1.337211       2.182620       3.689403
       9.870000       1.335739       2.178536       3.591585
       9.880000       1.334357       2.169872       3.496306
       9.890000       1.332717       2.155360       3.405508
       9.900000       1.330544       2.134268       3.321351
       9.910000       1.327655       2.106604       3.245694
       9.920000       1.323934       2.073155       3.179752
       9.930000       1.319301       2.035355       3.123999
       9.940000       1.313698       1.995062       3.078252
       9.950000       1.307120       1.954313       3.041856
       9.960000       1.299685       1.915099       3.013841
       9.970000       1.291700       1.879163       2.993021
       9.980000       1.283666       1.847842       2.978004
       9.990000       1.276189       1.821959       2.967157
      10.000000       1.269807       1.801825       2.958597
      10.010000       1.264811       1.787352       2.950270
      10.020000       1.261126       1.778230       2.940171
      10.030000       1.258306       1.774075       2.926677
      10.040000       1.255652       1.774471       2.908880
      10.050000       1.252395       1.778891       2.886757
      10.060000       1.247902       1.786564       2.861068
      10.070000       1.241832       1.796401       2.833013
      10.080000       1.234212       1.807054       2.803774
      10.090000       1.225404       1.817115       2.774156
      10.100000       1.215992       1.825371       2.744433
      10.110000       1.206627       1.831012       2.714435
      10.120000       1.197869       1.833707       2.683803
      10.130000       1.190067       1.833537       2.652262
      10.140000       1.183284       1.830809       2.619821
      10.150000       1.177280       1.825861       2.586819
      10.160000       1.171548       1.818897       2.553813
      10.170000       1.165393       1.809913       2.521376
      10.180000       1.158064       1.798692       2.489869
      10.190000       1.148900       1.784869       2.459243
      10.200000       1.137492       1.768056       2.428930
      10.210000       1.123788       1.747990       2.397863
      10.220000       1.108118       1.724672       2.364643
      10.230000       1.091117       1.698455       2.327869
      10.240000       1.073567       1.670059       2.286523
      10.250000       1.056237       1.640495       2.240310
      10.260000       1.039754       1.610929       2.189835
      10.270000       1.024553       1.582507       2.136540
      10.280000       1.010872       1.556190       2.082456
      10.290000       0.998786       1.532659       2.029830
      10.300000       0.988240       1.512279       1.980767
      10.310000       0.979080       1.495135       1.936940
      10.320000       0.971078       1.481106       1.899418
      10.330000       0.963972       1.469983       1.868603
      10.340000       0.957519       1.461620       1.844274
      10.350000       0.951544       1.456094       1.825716
      10.360000       0.945969       1.453810       1.811916
      10.370000       0.940799       1.455480       1.801791
      10.380000       0.936085       1.461972       1.794373
      10.390000       0.931878       1.474059       1.788894
      10.400000       0.928188       1.492147       1.784753
      10.410000       0.924948       1.516063       1.781384
      10.420000       0.922007       1.544949       1.778116
      10.430000       0.919129       1.577287       1.774098
      10.440000       0.916031       1.611062       1.768353
      10.450000       0.912461       1.644031       1.759931
      10.460000       0.908282       1.674031       1.748097
      10.470000       0.903544       1.699245       1.732474
      10.480000       0.898478       1.718357       1.713090
      10.490000       0.893431       1.730619       1.690332
      10.500000       0.888750       1.735846       1.664858
      10.510000       0.884678       1.734389       1.637502
      10.520000       0.881297       1.727096       1.609201
      10.530000       0.878544       1.715227       1.580931
      10.540000       0.876261       1.700306       1.553645
      10.550000       0.874280       1.683908       1.528189
      10.560000       0.872488       1.667416       1.505203
      10.570000       0.870877       1.651813       1.485050
      10.580000       0.869561       1.637572       1.467790
      10.590000       0.868757       1.624679       1.453206
      10.600000       0.868726       1.612754       1.440866
      10.610000       0.869697       1.601229       1.430182
      10.620000       0.871792       1.589510       1.420474
      10.630000       0.874984       1.577094       1.411022
      10.640000       0.879105       1.563636       1.401157
      10.650000       0.883905       1.548967       1.390370
      10.660000       0.889123       1.533100       1.378394
      10.670000       0.894562       1.516233       1.365231
      10.680000       0.900129       1.498770       1.351078
      10.690000       0.905844       1.481351       1.336195
      10.700000       0.911838       1.464850       1.320801
      10.710000       0.918332       1.450312       1.305007
      10.720000       0.925612       1.438819       1.288832
      10.730000       0.933986       1.431287       1.272219
      10.740000       0.943730       1.428285       1.255038
      10.750000       0.955026       1.429903       1.237060
      10.760000       0.967911       1.435749       1.217926
      10.770000       0.982234       1.445023       1.197174
      10.780000       0.997639       1.456660       1.174316
      10.790000       1.013561       1.469455       1.148982
      10.800000       1.029265       1.482150       1.121074
      10.810000       1.043920       1.493487       1.090853
      10.820000       1.056693       1.502246       1.058939
      10.830000       1.066866       1.507309       1.026200
      10.840000       1.073931       1.507737       0.993588
      10.850000       1.077638       1.502838       0.961990
      10.860000       1.077987       1.492210       0.932128
      10.870000       1.075150       1.475760       0.904510
      10.880000       1.069367       1.453724       0.879426
      10.890000       1.060850       1.426689       0.856957
      10.900000       1.049722       1.395604       0.837008
      10.910000       1.036020       1.361750       0.819332
      10.920000       1.019741       1.326630       0.803574
      10.930000       1.000901       1.291804       0.789314
      10.940000       0.979586       1.258700       0.776141
      10.950000       0.955988       1.228464       0.763717
      10.960000       0.930423       1.201874       0.751845
      10.970000       0.903335       1.179305       0.740494
      10.980000       0.875268       1.160734       0.729794
      10.990000       0.846821       1.145775       0.719996
      11.000000       0.818577       1.133774       0.711411
      11.010000       0.791053       1.123952       0.704363
      11.020000       0.764683       1.115588       0.699122
      11.030000       0.739829       1.108194       0.695858
      11.040000       0.716793       1.101595       0.694591
      11.050000       0.695828       1.095906       0.695165
      11.060000       0.677120       1.091419       0.697251
      11.070000       0.660773       1.088445       0.700380
      11.080000       0.646798       1.087181       0.704022
      11.090000       0.635112       1.087630       0.707690
      11.100000       0.625556       1.089578       0.711053
      11.110000       0.617912       1.092645       0.714013
      11.120000       0.611934       1.096369       0.716726
      11.130000       0.607373       1.100311       0.719551
      11.140000       0.604012       1.104130       0.722947
      11.150000       0.601688       1.107610       0.727364
      11.160000       0.600291       1.110653       0.733148
      11.170000       0.599758       1.113243       0.740489
      11.180000       0.600039       1.115420       0.749426
      11.190000       0.601064       1.117254       0.759884
      11.200000       0.602710       1.118830       0.771741
      11.210000       0.604793       1.120244       0.784901
      11.220000       0.607076       1.121608       0.799329
      11.230000       0.609311       1.123074       0.815035
      11.240000       0.611292       1.124882       0.832023
      11.250000       0.612904       1.127399       0.850197
      11.260000       0.614155       1.131131       0.869296
      11.270000       0.615176       1.136689       0.888861
      11.280000       0.616199       1.144693       0.908262
      11.290000       0.617517       1.155639       0.926776
      11.300000       0.619433       1.169740       0.943697
      11.310000       0.622221       1.186808       0.958435
      11.320000       0.626070       1.206195       0.970594
      11.330000       0.631062       1.226834       0.979993
      11.340000       0.637154       1.247365       0.986636
      11.350000       0.644193       1.266342       0.990658
      11.360000       0.651942       1.282455       0.992254
      11.370000       0.660110       1.294736       0.991642
      11.380000       0.668368       1.302679       0.989047
      11.390000       0.676358       1.306255       0.984709
      11.400000       0.683702       1.305817       0.978896
      11.410000       0.690004       1.301944       0.971915
      11.420000       0.694871       1.295276       0.964106
      11.430000       0.697940       1.286387       0.955844
      11.440000       0.698922       1.275688       0.947510
      11.450000       0.697645       1.263398       0.939466
      11.460000       0.694089       1.249584       0.932019
      11.470000       0.688392       1.234258       0.925396
      11.480000       0.680816       1.217503       0.919724
      11.490000       0.671698       1.199553       0.915043
      11.500000       0.661399       1.180782       0.911317
      11.510000       0.650270       1.161609       0.908473
      11.520000       0.638647       1.142386       0.906444
      11.530000       0.626874       1.123336       0.905198
      11.540000       0.615321       1.104585       0.904759
      11.550000       0.604387       1.086264       0.905179
      11.560000       0.594483       1.068597       0.906493
      11.570000       0.585968       1.051913       0.908655
      11.580000       0.579088       1.036548       0.911501
      11.590000       0.573925       1.022688       0.914739
      11.600000       0.570372       1.010249       0.918000
      11.610000       0.568171       0.998849       0.920918
      11.620000       0.566973       0.987911       0.923237
      11.630000       0.566437       0.976841       0.924900
      11.640000       0.566307       0.965229       0.926094
      11.650000       0.566448       0.952995       0.927232
      11.660000       0.566847       0.940437       0.928857
      11.670000       0.567558       0.928166       0.931527
      11.680000       0.568651       0.916985       0.935679
      11.690000       0.570171       0.907741       0.941548
      11.700000       0.572120       0.901194       0.949139
      11.710000       0.574467       0.897922       0.958264
      11.720000       0.577167       0.898252       0.968621
      11.730000       0.580188       0.902226       0.979889
      11.740000       0.583529       0.909593       0.991804
      11.750000       0.587229       0.919833       1.004209
      11.760000       0.591352       0.932205       1.017067
      11.770000       0.595957       0.945795       1.030454
      11.780000       0.601065       0.959578       1.044543
      11.790000       0.606646       0.972488       1.059583
      11.800000       0.612625       0.983502       1.075869
      11.810000       0.618915       0.991751       1.093718
      11.820000       0.625445       0.996621       1.113445
      11.830000       0.632179       0.997827       1.135339
      11.840000       0.639098       0.995432       1.159670
      11.850000       0.646170       0.989801       1.186682
      11.860000       0.653317       0.981512       1.216605
      11.870000       0.660396       0.971234       1.249646
      11.880000       0.667204       0.959608       1.285985
      11.890000       0.673508       0.947163       1.325749
      11.900000       0.679083       0.934284       1.368985
      11.910000       0.683749       0.921241       1.415628
      11.920000       0.687401       0.908249       1.465474
      11.930000       0.690009       0.895528       1.518175
      11.940000       0.691614       0.883335       1.573255
      11.950000       0.692292       0.871955       1.630136
      11.960000       0.692115       0.861651       1.688164
      11.970000       0.691107       0.852612       1.746628
      11.980000       0.689214       0.844910       1.804762
      11.990000       0.686301       0.838497       1.861720
      12.000000       0.682176       0.833236       1.916551
      12.010000       0.676635       0.828947       1.968176
      12.020000       0.669526       0.825442       2.015386
      12.030000       0.660799       0.822540       2.056877
      12.040000       0.650542       0.820058       2.091307
      12.050000       0.638998       0.817814       2.117413
      12.060000       0.626543       0.815653       2.134153
      12.070000       0.613646       0.813493       2.140885
      12.080000       0.600805       0.811365       2.137526
      12.090000       0.588486       0.809420       2.124651
      12.100000       0.577055       0.807896       2.103499
      12.110000       0.566740       0.807064       2.075863
      12.120000       0.557609       0.807174       2.043891
      12.130000       0.549568       0.808434       2.009854
      12.140000       0.542396       0.811029       1.975934
      12.150000       0.535796       0.815159       1.944080
      12.160000       0.529477       0.821073       1.915928
      12.170000       0.523219       0.829066       1.892762
      12.180000       0.516931       0.839417       1.875491
      12.190000       0.510660       0.852284       1.864605
      12.200000       0.504560       0.867602       1.860119
      12.210000       0.498837       0.885007       1.861520
      12.220000       0.493694       0.903816       1.867746
      12.230000       0.489291       0.923075       1.877216
      12.240000       0.485724       0.941656       1.887947
      12.250000       0.483023       0.958407       1.897739
      12.260000       0.481161       0.972330       1.904428
      12.270000       0.480066       0.982768       1.906176
      12.280000       0.479635       0.989558       1.901716
      12.290000       0.479752       0.993091       1.890530
      12.300000       0.480293       0.994273       1.872895
      12.310000       0.481133       0.994354       1.849804
      12.320000       0.482143       0.994689       1.822791
      12.330000       0.483198       0.996483       1.793689
      12.340000       0.484181       1.000603       1.764366
      12.350000       0.484996       1.007473       1.736489
      12.360000       0.485574       1.017091       1.711349
      12.370000       0.485877       1.029119       1.689774
      12.380000       0.485885       1.043004       1.672121
      12.390000       0.485575       1.058090       1.658343
      12.400000       0.484896       1.073668       1.648106
      12.410000       0.483753       1.089003       1.640929
      12.420000       0.482007       1.103338       1.636317
      12.430000       0.479499       1.115917       1.633834
      12.440000       0.476078       1.126039       1.633125
      12.450000       0.471644       1.133122       1.633887
      12.460000       0.466177       1.136786       1.635824
      12.470000       0.459744       1.136921       1.638622
      12.480000       0.452506       1.133745       1.641952
      12.490000       0.444698       1.127819       1.645499
      12.500000       0.436605       1.119985       1.648981
      12.510000       0.428531       1.111231       1.652134
      12.520000       0.420763       1.102505       1.654680
      12.530000       0.413534       1.094541       1.656280
      12.540000       0.407008       1.087731       1.656505
      12.550000       0.401271       1.082100       1.654825
      12.560000       0.396345       1.077351       1.650658
      12.570000       0.392195       1.073000       1.643437
      12.580000       0.388747       1.068550       1.632715
      12.590000       0.385893       1.063656       1.618268
      12.600000       0.383507       1.058228       1.600149
      12.610000       0.381454       1.052427       1.578678
      12.620000       0.379616       1.046569       1.554350
      12.630000       0.377901       1.041000       1.527700
      12.640000       0.376261       1.035982       1.499193
      12.650000       0.374687       1.031651       1.469184
      12.660000       0.373198       1.028037       1.437953
      12.670000       0.371824       1.025129       1.405776
      12.680000       0.370575       1.022934       1.372973
      12.690000       0.369431       1.021481       1.339915
      12.700000       0.368320       1.020770       1.307002
      12.710000       0.367138       1.020690       1.274629
      12.720000       0.365773       1.020967       1.243188
      12.730000       0.364148       1.021189       1.213062
      12.740000       0.362258       1.020907       1.184628
      12.750000       0.360181       1.019787       1.158234
      12.760000       0.358062       1.017745       1.134163
      12.770000       0.356072       1.015021       1.112593
      12.780000       0.354366       1.012162       1.093568
      12.790000       0.353044       1.009899       1.076980
      12.800000       0.352145       1.008976       1.062573
      12.810000       0.351655       1.009949       1.049969
      12.820000       0.351523       1.013029       1.038715
      12.830000       0.351688       1.018010       1.028350
      12.840000       0.352094       1.024287       1.018474
      12.850000       0.352689       1.030971       1.008818
      12.860000       0.353418       1.037068       0.999279
      12.870000       0.354201       1.041674       0.989928
      12.880000       0.354928       1.044150       0.980988
      12.890000       0.355470       1.044241       0.972787
      12.900000       0.355703       1.042109       0.965697
      12.910000       0.355559       1.038286       0.960073
      12.920000       0.355051       1.033550       0.956196
      12.930000       0.354289       1.028771       0.954230
      12.940000       0.353454       1.024751       0.954198
      12.950000       0.352747       1.022095       0.955976
      12.960000       0.352337       1.021134       0.959311
      12.970000       0.352316       1.021901       0.963838
      12.980000       0.352690       1.024159       0.969123
      12.990000       0.353400       1.027485       0.974690
      13.000000       0.354348       1.031362       0.980058
      13.010000       0.355430       1.035283       0.984758
      13.020000       0.356552       1.038817       0.988340
      13.030000       0.357640       1.041654       0.990366
      13.040000       0.358635       1.043611       0.990418
      13.050000       0.359485       1.044613       0.988121
      13.060000       0.360131       1.044658       0.983179
      13.070000       0.360494       1.043766       0.975414
      13.080000       0.360459       1.041949       0.964784
      13.090000       0.359883       1.039199       0.951394
      13.100000       0.358598       1.035504       0.935502
      13.110000       0.356445       1.030862       0.917540
      13.120000       0.353297       1.025271       0.898105
      13.130000       0.349096       1.018688       0.877925
      13.140000       0.343869       1.010979       0.857779
      13.150000       0.337733       1.001902       0.838388
      13.160000       0.330875       0.991156       0.820317
      13.170000       0.323508       0.978477       0.803909
      13.180000       0.315830       0.963771       0.789261
      13.190000       0.307991       0.947202       0.776246
      13.200000       0.300084       0.929206       0.764570
      13.210000       0.292170       0.910436       0.753843
      13.220000       0.284300       0.891657       0.743649
      13.230000       0.276553       0.873633       0.733605
      13.240000       0.269040       0.857043       0.723402
      13.250000       0.261899       0.842421       0.712813
      13.260000       0.255273       0.830138       0.701700
      13.270000       0.249288       0.820398       0.690016
      13.280000       0.244041       0.813255       0.677813
      13.290000       0.239588       0.808637       0.665242
      13.300000       0.235957       0.806371       0.652523
      13.310000       0.233144       0.806192       0.639913
      13.320000       0.231121       0.807733       0.627657
      13.330000       0.229837       0.810511       0.615949
      13.340000       0.229214       0.813917       0.604916
      13.350000       0.229147       0.817257       0.594619
      13.360000       0.229507       0.819828       0.585056
      13.370000       0.230144       0.821031       0.576181
      13.380000       0.230891       0.820468       0.567920
      13.390000       0.231570       0.818001       0.560202
      13.400000       0.232003       0.813754       0.552990
      13.410000       0.232025       0.808063       0.546318
      13.420000       0.231504       0.801387       0.540304
      13.430000       0.230358       0.794213       0.535134
      13.440000       0.228567       0.786974       0.531033
      13.450000       0.226179       0.779981       0.528213
      13.460000       0.223294       0.773380       0.526836
      13.470000       0.220052       0.767146       0.526986
      13.480000       0.216614       0.761126       0.528667
      13.490000       0.213148       0.755108       0.531795
      13.500000       0.209819       0.748902       0.536204
      13.510000       0.206776       0.742405       0.541646
      13.520000       0.204140       0.735632       0.547787
      13.530000       0.201997       0.728718       0.554213
      13.540000       0.200392       0.721899       0.560451
      13.550000       0.199337       0.715494       0.565986
      13.560000       0.198811       0.709863       0.570301
      13.570000       0.198780       0.705354       0.572923
      13.580000       0.199200       0.702239       0.573479
      13.590000       0.200021       0.700643       0.571768
      13.600000       0.201187       0.700500       0.567813
      13.610000       0.202632       0.701546       0.561887
      13.620000       0.204281       0.703373       0.554481
      13.630000       0.206055       0.705505       0.546220
      13.640000       0.207878       0.707505       0.537756
      13.650000       0.209686       0.709049       0.529672
      13.660000       0.211427       0.709973       0.522428
      13.670000       0.213064       0.710267       0.516346
      13.680000       0.214562       0.710045       0.511641
      13.690000       0.215892       0.709500       0.508458
      13.700000       0.217034       0.708861       0.506903
      13.710000       0.217980       0.708355       0.507056
      13.720000       0.218740       0.708169       0.508956
      13.730000       0.219345       0.708406       0.512581
      13.740000       0.219832       0.709034       0.517829
      13.750000       0.220230       0.709862       0.524516
      13.760000       0.220555       0.710549       0.532392
      13.770000       0.220802       0.710667       0.541167
      13.780000       0.220955       0.709801       0.550536
      13.790000       0.220995       0.707662       0.560203
      13.800000       0.220910       0.704166       0.569885
      13.810000       0.220699       0.699455       0.579333
      13.820000       0.220382       0.693837       0.588344
      13.830000       0.219991       0.687673       0.596773
      13.840000       0.219568       0.681264       0.604534
      13.850000       0.219157       0.674784       0.611587
      13.860000       0.218787       0.668285       0.617906
      13.870000       0.218466       0.661754       0.623438
      13.880000       0.218179       0.655203       0.628079
      13.890000       0.217892       0.648732       0.631673
      13.900000       0.217568       0.642557       0.634047
      13.910000       0.217186       0.636982       0.635072
      13.920000       0.216754       0.632336       0.634721
      13.930000       0.216318       0.628906       0.633107
      13.940000       0.215958       0.626882       0.630478
      13.950000       0.215774       0.626342       0.627174
      13.960000       0.215859       0.627261       0.623569
      13.970000       0.216282       0.629527       0.620019
      13.980000       0.217077       0.632962       0.616826
      13.990000       0.218245       0.637322       0.614223
      14.000000       0.219775       0.642306       0.612377
      14.010000       0.221652       0.647574       0.611383
      14.020000       0.223863       0.652795       0.611275
      14.030000       0.226387       0.657700       0.612035
      14.040000       0.229177       0.662115       0.613602
      14.050000       0.232143       0.665962       0.615886
      14.060000       0.235156       0.669219       0.618778
      14.070000       0.238051       0.671868       0.622153
      14.080000       0.240655       0.673861       0.625876
      14.090000       0.242803       0.675126       0.629811
      14.100000       0.244359       0.675600       0.633822
      14.110000       0.245225       0.675277       0.637759
      14.120000       0.245345       0.674228       0.641443
      14.130000       0.244700       0.672601       0.644644
      14.140000       0.243308       0.670583       0.647070
      14.150000       0.241215       0.668373       0.648388
      14.160000       0.238500       0.666143       0.648262
      14.170000       0.235270       0.664027       0.646413
      14.180000       0.231662       0.662093       0.642674
      14.190000       0.227835       0.660345       0.637048
      14.200000       0.223954       0.658719       0.629722
      14.210000       0.220173       0.657104       0.621055
      14.220000       0.216610       0.655364       0.611531
      14.230000       0.213341       0.653355       0.601675
      14.240000       0.210391       0.650931       0.591969
      14.250000       0.207741       0.647937       0.582789
      14.260000       0.205337       0.644211       0.574369
      14.270000       0.203104       0.639593       0.566811
      14.280000       0.200960       0.633967       0.560109
      14.290000       0.198841       0.627301       0.554201
      14.300000       0.196710       0.619698       0.549009
      14.310000       0.194572       0.611409       0.544459
      14.320000       0.192468       0.602809       0.540490
      14.330000       0.190459       0.594336       0.537047
      14.340000       0.188611       0.586417       0.534075
      14.350000       0.186975       0.579388       0.531507
      14.360000       0.185585       0.573449       0.529261
      14.370000       0.184456       0.568630       0.527219
      14.380000       0.183584       0.564786       0.525225
      14.390000       0.182953       0.561611       0.523074
      14.400000       0.182538       0.558665       0.520528
      14.410000       0.182313       0.555448       0.517345
      14.420000       0.182264       0.551500       0.513327
      14.430000       0.182392       0.546525       0.508355
      14.440000       0.182713       0.540479       0.502417
      14.450000       0.183248       0.533598       0.495612
      14.460000       0.184015       0.526347       0.488128
      14.470000       0.185014       0.519293       0.480225
      14.480000       0.186225       0.512981       0.472193
      14.490000       0.187606       0.507823       0.464317
      14.500000       0.189102       0.504058       0.456850
      14.510000       0.190647       0.501756       0.449979
      14.520000       0.192173       0.500878       0.443809
      14.530000       0.193607       0.501347       0.438361
      14.540000       0.194875       0.503104       0.433576
      14.550000       0.195902       0.506128       0.429336
      14.560000       0.196626       0.510409       0.425484
      14.570000       0.197000       0.515896       0.421856
      14.580000       0.197005       0.522443       0.418301
      14.590000       0.196648       0.529783       0.414710
      14.600000       0.195951       0.537536       0.411032
      14.610000       0.194944       0.545256       0.407285
      14.620000       0.193657       0.552515       0.403550
      14.630000       0.192119       0.558987       0.399951
      14.640000       0.190370       0.564506       0.396634
      14.650000       0.188463       0.569077       0.393735
      14.660000       0.186460       0.572827       0.391364
      14.670000       0.184432       0.575925       0.389592
      14.680000       0.182445       0.578515       0.388448
      14.690000       0.180557       0.580684       0.387922
      14.700000       0.178807       0.582467       0.387976
      14.710000       0.177218       0.583873       0.388549
      14.720000       0.175793       0.584906       0.389567
      14.730000       0.174517       0.585555       0.390943
      14.740000       0.173358       0.585784       0.392578
      14.750000       0.172283       0.585516       0.394365
      14.760000       0.171259       0.584638       0.396192
      14.770000       0.170268       0.583032       0.397945
      14.780000       0.169311       0.580597       0.399507
      14.790000       0.168401       0.577258       0.400766
      14.800000       0.167560       0.572968       0.401602
      14.810000       0.166805       0.567689       0.401902
      14.820000       0.166148       0.561406       0.401570
      14.830000       0.165588       0.554148       0.400553
      14.840000       0.165129       0.546014       0.398866
      14.850000       0.164775       0.537188       0.396586
      14.860000       0.164550       0.527928       0.393845
      14.870000       0.164484       0.518520       0.390785
      14.880000       0.164617       0.509243       0.387525
      14.890000       0.164979       0.500325       0.384125
      14.900000       0.165578       0.491933       0.380585
      14.910000       0.166388       0.484170       0.376859
      14.920000       0.167346       0.477084       0.372886
      14.930000       0.168358       0.470693       0.368626
      14.940000       0.169315       0.465001       0.364088
      14.950000       0.170106       0.460017       0.359334
      14.960000       0.170625       0.455745       0.354465
      14.970000       0.170784       0.452172       0.349603
      14.980000       0.170510       0.449239       0.344861
      14.990000       0.169752       0.446836       0.340322
      15.000000       0.168498       0.444820       0.336026
      15.010000       0.166783       0.443056       0.331966
      15.020000       0.164689       0.441458       0.328094
      15.030000       0.162336       0.439999       0.324338
      15.040000       0.159858       0.438704       0.320625
      15.050000       0.157375       0.437605       0.316900
      15.060000       0.154971       0.436696       0.313141
      15.070000       0.152686       0.435899       0.309353
      15.080000       0.150524       0.435072       0.305560
      15.090000       0.148467       0.434046       0.301792
      15.100000       0.146495       0.432693       0.298069
      15.110000       0.144608       0.430983       0.294400
      15.120000       0.142833       0.429024       0.290780
      15.130000       0.141220       0.427053       0.287194
      15.140000       0.139834       0.425392       0.283617
      15.150000       0.138736       0.424386       0.280018
      15.160000       0.137976       0.424334       0.276367
      15.170000       0.137579       0.425438       0.272648
      15.180000       0.137541       0.427774       0.268866
      15.190000       0.137830       0.431290       0.265059
      15.200000       0.138394       0.435821       0.261292
      15.210000       0.139164       0.441122       0.257651
      15.220000       0.140071       0.446901       0.254231
      15.230000       0.141056       0.452856       0.251116
      15.240000       0.142075       0.458694       0.248378
      15.250000       0.143100       0.464149       0.246071
      15.260000       0.144123       0.469009       0.244239
      15.270000       0.145146       0.473123       0.242920
      15.280000       0.146183       0.476409       0.242157
      15.290000       0.147250       0.478836       0.242000
      15.300000       0.148359       0.480387       0.242503
      15.310000       0.149520       0.481030       0.243722
      15.320000       0.150739       0.480712       0.245711
      15.330000       0.152022       0.479377       0.248514
      15.340000       0.153389       0.477004       0.252167
      15.350000       0.154869       0.473630       0.256685
      15.360000       0.156503       0.469354       0.262058
      15.370000       0.158332       0.464310       0.268233
      15.380000       0.160392       0.458635       0.275099
      15.390000       0.162708       0.452442       0.282471
      15.400000       0.165291       0.445817       0.290078
      15.410000       0.168140       0.438824       0.297566
      15.420000       0.171239       0.431528       0.304514
      15.430000       0.174550       0.424011       0.310468
      15.440000       0.178009       0.416393       0.314983
      15.450000       0.181521       0.408832       0.317682
      15.460000       0.184960       0.401515       0.318295
      15.470000       0.188172       0.394632       0.316706
      15.480000       0.190992       0.388351       0.312973
      15.490000       0.193259       0.382802       0.307326
      15.500000       0.194829       0.378078       0.300146
      15.510000       0.195586       0.374240       0.291911
      15.520000       0.195461       0.371323       0.283128
      15.530000       0.194435       0.369337       0.274270
      15.540000       0.192548       0.368266       0.265733
      15.550000       0.189903       0.368065       0.257807
      15.560000       0.186652       0.368653       0.250674
      15.570000       0.182978       0.369920       0.244416
      15.580000       0.179071       0.371725       0.239027
      15.590000       0.175099       0.373907       0.234433
      15.600000       0.171194       0.376304       0.230503
      15.610000       0.167450       0.378770       0.227072
      15.620000       0.163921       0.381183       0.223961
      15.630000       0.160633       0.383452       0.220998
      15.640000       0.157591       0.385505       0.218045
      15.650000       0.154793       0.387288       0.215013
      15.660000       0.152233       0.388753       0.211871
      15.670000       0.149903       0.389852       0.208640
      15.680000       0.147799       0.390527       0.205381
      15.690000       0.145908       0.390711       0.202164
      15.700000       0.144215       0.390331       0.199053
      15.710000       0.142695       0.389318       0.196091
      15.720000       0.141316       0.387626       0.193290
      15.730000       0.140046       0.385239       0.190638
      15.740000       0.138851       0.382170       0.188104
      15.750000       0.137701       0.378448       0.185651
      15.760000       0.136569       0.374106       0.183246
      15.770000       0.135429       0.369176       0.180867
      15.780000       0.134263       0.363700       0.178518
      15.790000       0.133058       0.357742       0.176223
      15.800000       0.131819       0.351413       0.174025
      15.810000       0.130564       0.344878       0.171976
      15.820000       0.129325       0.338354       0.170125
      15.830000       0.128141       0.332086       0.168510
      15.840000       0.127048       0.326316       0.167153
      15.850000       0.126071       0.321255       0.166063
      15.860000       0.125227       0.317057       0.165239
      15.870000       0.124520       0.313816       0.164683
      15.880000       0.123942       0.311558       0.164399
      15.890000       0.123473       0.310254       0.164398
      15.900000       0.123080       0.309826       0.164695
      15.910000       0.122718       0.310151       0.165302
      15.920000       0.122336       0.311077       0.166229
      15.930000       0.121882       0.312429       0.167480
      15.940000       0.121312       0.314035       0.169055
      15.950000       0.120595       0.315747       0.170951
      15.960000       0.119719       0.317461       0.173169
      15.970000       0.118687       0.319131       0.175707
      15.980000       0.117509       0.320753       0.178559
      15.990000       0.116201       0.322340       0.181702
      16.000000       0.114774       0.323884       0.185090
      16.010000       0.113240       0.325339       0.188649
      16.020000       0.111613       0.326610       0.192272
      16.030000       0.109913       0.327564       0.195829
      16.040000       0.108170       0.328047       0.199165
      16.050000       0.106422       0.327904       0.202115
      16.060000       0.104714       0.327001       0.204507
      16.070000       0.103086       0.325234       0.206180
      16.080000       0.101581       0.322543       0.207000
      16.090000       0.100232       0.318921       0.206878
      16.100000       0.099066       0.314416       0.205793
      16.110000       0.098107       0.309141       0.203795
      16.120000       0.097375       0.303270       0.201011
      16.130000       0.096890       0.297035       0.197628
      16.140000       0.096670       0.290710       0.193868
      16.150000       0.096733       0.284582       0.189961
      16.160000       0.097086       0.278931       0.186111
      16.170000       0.097727       0.273991       0.182484
      16.180000       0.098639       0.269938       0.179192
      16.190000       0.099792       0.266874       0.176295
      16.200000       0.101149       0.264830       0.173807
      16.210000       0.102668       0.263772       0.171697
      16.220000       0.104312       0.263619       0.169904
      16.230000       0.106044       0.264262       0.168345
      16.240000       0.107837       0.265589       0.166925
      16.250000       0.109668       0.267494       0.165549
      16.260000       0.111522       0.269898       0.164136
      16.270000       0.113394       0.272737       0.162624
      16.280000       0.115285       0.275955       0.160977
      16.290000       0.117200       0.279479       0.159185
      16.300000       0.119135       0.283195       0.157263
      16.310000       0.121071       0.286943       0.155245
      16.320000       0.122969       0.290518       0.153173
      16.330000       0.124775       0.293694       0.151090
      16.340000       0.126433       0.296261       0.149039
      16.350000       0.127898       0.298049       0.147060
      16.360000       0.129156       0.298953       0.145187
      16.370000       0.130222       0.298923       0.143457
      16.380000       0.131136       0.297957       0.141908
      16.390000       0.131953       0.296076       0.140581
      16.400000       0.132722       0.293310       0.139517
      16.410000       0.133479       0.289700       0.138756
      16.420000       0.134241       0.285311       0.138328
      16.430000       0.135003       0.280237       0.138254
      16.440000       0.135744       0.274608       0.138539
      16.450000       0.136436       0.268579       0.139168
      16.460000       0.137052       0.262320       0.140114
      16.470000       0.137571       0.256005       0.141329
      16.480000       0.137985       0.249808       0.142758
      16.490000       0.138294       0.243889       0.144337
      16.500000       0.138507       0.238385       0.146002
      16.510000       0.138633       0.233400       0.147693
      16.520000       0.138671       0.228994       0.149357
      16.530000       0.138608       0.225180       0.150953
      16.540000       0.138416       0.221928       0.152455
      16.550000       0.138050       0.219181       0.153845
      16.560000       0.137457       0.216863       0.155111
      16.570000       0.136584       0.214900       0.156236
      16.580000       0.135387       0.213232       0.157196
      16.590000       0.133850       0.211816       0.157969
      16.600000       0.131988       0.210627       0.158542
      16.610000       0.129857       0.209657       0.158920
      16.620000       0.127541       0.208916       0.159137
      16.630000       0.125144       0.208438       0.159246
      16.640000       0.122767       0.208276       0.159310
      16.650000       0.120492       0.208497       0.159391
      16.660000       0.118365       0.209161       0.159544
      16.670000       0.116400       0.210298       0.159807
      16.680000       0.114579       0.211891       0.160203
      16.690000       0.112866       0.213874       0.160739
      16.700000       0.111223       0.216140       0.161406
      16.710000       0.109620       0.218570       0.162185
      16.720000       0.108047       0.221055       0.163047
      16.730000       0.106516       0.223526       0.163966
      16.740000       0.105055       0.225957       0.164915
      16.750000       0.103702       0.228355       0.165876
      16.760000       0.102492       0.230739       0.166843
      16.770000       0.101446       0.233116       0.167825
      16.780000       0.100566       0.235455       0.168848
      16.790000       0.099833       0.237675       0.169956
      16.800000       0.099207       0.239644       0.171208
      16.810000       0.098629       0.241181       0.172664
      16.820000       0.098029       0.242085       0.174378
      16.830000       0.097337       0.242171       0.176381
      16.840000       0.096494       0.241309       0.178682
      16.850000       0.095464       0.239445       0.181263
      16.860000       0.094237       0.236614       0.184086
      16.870000       0.092837       0.232920       0.187113
      16.880000       0.091308       0.228524       0.190306
      16.890000       0.089708       0.223625       0.193646
      16.900000       0.088095       0.218443       0.197127
      16.910000       0.086522       0.213205       0.200756
      16.920000       0.085030       0.208126       0.204547
      16.930000       0.083652       0.203401       0.208519
      16.940000       0.082407       0.199191       0.212683
      16.950000       0.081309       0.195625       0.217039
      16.960000       0.080365       0.192792       0.221578
      16.970000       0.079580       0.190741       0.226277
      16.980000       0.078958       0.189465       0.231117
      16.990000       0.078499       0.188899       0.236086
      17.000000       0.078199       0.188907       0.241193
      17.010000       0.078046       0.189291       0.246453
      17.020000       0.078017       0.189813       0.251879
      17.030000       0.078086       0.190234       0.257447
      17.040000       0.078231       0.190369       0.263080
      17.050000       0.078437       0.190119       0.268641
      17.060000       0.078708       0.189492       0.273953
      17.070000       0.079055       0.188587       0.278825
      17.080000       0.079493       0.187549       0.283085
      17.090000       0.080033       0.186524       0.286595
      17.100000       0.080675       0.185629       0.289253
      17.110000       0.081406       0.184923       0.290985
      17.120000       0.082203       0.184407       0.291746
      17.130000       0.083036       0.184032       0.291519
      17.140000       0.083875       0.183717       0.290329
      17.150000       0.084690       0.183369       0.288252
      17.160000       0.085458       0.182902       0.285427
      17.170000       0.086158       0.182255       0.282043
      17.180000       0.086775       0.181387       0.278330
      17.190000       0.087300       0.180282       0.274521
      17.200000       0.087730       0.178943       0.270822
      17.210000       0.088075       0.177395       0.267383
      17.220000       0.088357       0.175684       0.264300
      17.230000       0.088606       0.173889       0.261615
      17.240000       0.088861       0.172110       0.259343
      17.250000       0.089161       0.170462       0.257481
      17.260000       0.089540       0.169057       0.256025
      17.270000       0.090017       0.167985       0.254971
      17.280000       0.090598       0.167306       0.254321
      17.290000       0.091268       0.167046       0.254072
      17.300000       0.091997       0.167206       0.254215
      17.310000       0.092745       0.167775       0.254728
      17.320000       0.093472       0.168736       0.255563
      17.330000       0.094146       0.170061       0.256640
      17.340000       0.094755       0.171705       0.257841
      17.350000       0.095300       0.173600       0.259013
      17.360000       0.095794       0.175652       0.259985
      17.370000       0.096249       0.177756       0.260593
      17.380000       0.096670       0.179812       0.260711
      17.390000       0.097045       0.181742       0.260270
      17.400000       0.097352       0.183498       0.259274
      17.410000       0.097562       0.185061       0.257785
      17.420000       0.097641       0.186426       0.255909
      17.430000       0.097563       0.187596       0.253771
      17.440000       0.097305       0.188572       0.251493
      17.450000       0.096854       0.189344       0.249187
      17.460000       0.096201       0.189900       0.246947
      17.470000       0.095344       0.190219       0.244852
      17.480000       0.094283       0.190282       0.242967
      17.490000       0.093022       0.190073       0.241342
      17.500000       0.091564       0.189583       0.240015
      17.510000       0.089920       0.188813       0.239008
      17.520000       0.088107       0.187780       0.238330
      17.530000       0.086150       0.186518       0.237978
      17.540000       0.084085       0.185078       0.237943
      17.550000       0.081957       0.183530       0.238212
      17.560000       0.079816       0.181957       0.238777
      17.570000       0.077709       0.180441       0.239629
      17.580000       0.075681       0.179056       0.240756
      17.590000       0.073770       0.177859       0.242138
      17.600000       0.072009       0.176881       0.243731
      17.610000       0.070431       0.176130       0.245466
      17.620000       0.069061       0.175589       0.247245
      17.630000       0.067921       0.175224       0.248946
      17.640000       0.067019       0.174989       0.250435
      17.650000       0.066354       0.174829       0.251592
      17.660000       0.065912       0.174687       0.252323
      17.670000       0.065667       0.174510       0.252581
      17.680000       0.065587       0.174251       0.252376
      17.690000       0.065633       0.173885       0.251762
      17.700000       0.065770       0.173401       0.250833
      17.710000       0.065963       0.172803       0.249701
      17.720000       0.066187       0.172094       0.248477
      17.730000       0.066426       0.171268       0.247256
      17.740000       0.066673       0.170307       0.246109
      17.750000       0.066933       0.169186       0.245071
      17.760000       0.067216       0.167887       0.244146
      17.770000       0.067540       0.166411       0.243307
      17.780000       0.067919       0.164779       0.242511
      17.790000       0.068362       0.163026       0.241705
      17.800000       0.068873       0.161194       0.240834
      17.810000       0.069446       0.159321       0.239845
      17.820000       0.070074       0.157446       0.238686
      17.830000       0.070749       0.155614       0.237308
      17.840000       0.071465       0.153884       0.235678
      17.850000       0.072222       0.152332       0.233786
      17.860000       0.073019       0.151034       0.231653
      17.870000       0.073854       0.150062       0.229333
      17.880000       0.074723       0.149466       0.226902
      17.890000       0.075617       0.149276       0.224447
      17.900000       0.076526       0.149499       0.222055
      17.910000       0.077444       0.150128       0.219797
      17.920000       0.078367       0.151144       0.217732
      17.930000       0.079299       0.152515       0.215899
      17.940000       0.080245       0.154190       0.214333
      17.950000       0.081211       0.156100       0.213065
      17.960000       0.082195       0.158150       0.212130
      17.970000       0.083191       0.160230       0.211568
      17.980000       0.084180       0.162224       0.211421
      17.990000       0.085130       0.164018       0.211728
      18.000000       0.085997       0.165516       0.212521
      18.010000       0.086720       0.166637       0.213812
      18.020000       0.087230       0.167321       0.215586
      18.030000       0.087460       0.167525       0.217792
      18.040000       0.087359       0.167222       0.220343
      18.050000       0.086904       0.166403       0.223124
      18.060000       0.086104       0.165079       0.226006
      18.070000       0.085007       0.163291       0.228847
      18.080000       0.083683       0.161119       0.231507
      18.090000       0.082214       0.158677       0.233844
      18.100000       0.080681       0.156104       0.235725
      18.110000       0.079151       0.153539       0.237038
      18.120000       0.077673       0.151110       0.237702
      18.130000       0.076276       0.148913       0.237685
      18.140000       0.074969       0.147010       0.237008
      18.150000       0.073750       0.145427       0.235739
      18.160000       0.072614       0.144163       0.233987
      18.170000       0.071558       0.143196       0.231874
      18.180000       0.070584       0.142494       0.229518
      18.190000       0.069704       0.142018       0.227013
      18.200000       0.068933       0.141729       0.224425
      18.210000       0.068285       0.141593       0.221793
      18.220000       0.067771       0.141575       0.219145
      18.230000       0.067397       0.141649       0.216505
      18.240000       0.067156       0.141790       0.213907
      18.250000       0.067035       0.141979       0.211389
      18.260000       0.067011       0.142200       0.208990
      18.270000       0.067056       0.142439       0.206740
      18.280000       0.067138       0.142671       0.204645
      18.290000       0.067222       0.142860       0.202687
      18.300000       0.067279       0.142956       0.200825
      18.310000       0.067287       0.142898       0.199010
      18.320000       0.067231       0.142632       0.197202
      18.330000       0.067111       0.142115       0.195382
      18.340000       0.066941       0.141331       0.193564
      18.350000       0.066747       0.140285       0.191793
      18.360000       0.066561       0.139001       0.190138
      18.370000       0.066420       0.137514       0.188680
      18.380000       0.066356       0.135869       0.187505
      18.390000       0.066396       0.134121       0.186687
      18.400000       0.066553       0.132324       0.186283
      18.410000       0.066832       0.130527       0.186318
      18.420000       0.067226       0.128769       0.186779
      18.430000       0.067718       0.127071       0.187609
      18.440000       0.068286       0.125444       0.188703
      18.450000       0.068905       0.123890       0.189919
      18.460000       0.069547       0.122414       0.191092
      18.470000       0.070186       0.121032       0.192058
      18.480000       0.070796       0.119773       0.192681
      18.490000       0.071350       0.118676       0.192874
      18.500000       0.071823       0.117790       0.192611
      18.510000       0.072194       0.117166       0.191931
      18.520000       0.072447       0.116850       0.190924
      18.530000       0.072576       0.116876       0.189715
      18.540000       0.072585       0.117251       0.188447
      18.550000       0.072485       0.117953       0.187260
      18.560000       0.072289       0.118923       0.186283
      18.570000       0.072013       0.120070       0.185614
      18.580000       0.071670       0.121276       0.185315
      18.590000       0.071270       0.122414       0.185401
      18.600000       0.070822       0.123366       0.185829
      18.610000       0.070338       0.124042       0.186507
      18.620000       0.069827       0.124382       0.187302
      18.630000       0.069303       0.124363       0.188064
      18.640000       0.068776       0.123987       0.188651
      18.650000       0.068261       0.123268       0.188964
      18.660000       0.067770       0.122224       0.188955
      18.670000       0.067315       0.120870       0.188637
      18.680000       0.066909       0.119230       0.188066
      18.690000       0.066566       0.117345       0.187317
      18.700000       0.066301       0.115283       0.186460
      18.710000       0.066128       0.113141       0.185540
      18.720000       0.066054       0.111037       0.184571
      18.730000       0.066077       0.109087       0.183537
      18.740000       0.066180       0.107388       0.182407
      18.750000       0.066327       0.106000       0.181150
      18.760000       0.066464       0.104943       0.179756
      18.770000       0.066530       0.104196       0.178249
      18.780000       0.066464       0.103705       0.176687
      18.790000       0.066223       0.103399       0.175161
      18.800000       0.065792       0.103203       0.173770
      18.810000       0.065189       0.103049       0.172611
      18.820000       0.064460       0.102886       0.171757
      18.830000       0.063667       0.102675       0.171252
      18.840000       0.062877       0.102395       0.171106
      18.850000       0.062150       0.102039       0.171302
      18.860000       0.061533       0.101614       0.171806
      18.870000       0.061060       0.101145       0.172580
      18.880000       0.060755       0.100662       0.173591
      18.890000       0.060626       0.100204       0.174826
      18.900000       0.060670       0.099807       0.176293
      18.910000       0.060871       0.099502       0.178022
      18.920000       0.061201       0.099309       0.180058
      18.930000       0.061623       0.099241       0.182455
      18.940000       0.062095       0.099298       0.185260
      18.950000       0.062572       0.099467       0.188497
      18.960000       0.063017       0.099727       0.192157
      18.970000       0.063399       0.100041       0.196182
      18.980000       0.063700       0.100357       0.200465
      18.990000       0.063917       0.100614       0.204854
      19.000000       0.064055       0.100754       0.209166
      19.010000       0.064134       0.100729       0.213202
      19.020000       0.064180       0.100522       0.216769
      19.030000       0.064223       0.100148       0.219693
      19.040000       0.064296       0.099657       0.221841
      19.050000       0.064431       0.099126       0.223124
      19.060000       0.064652       0.098640       0.223508
      19.070000       0.064978       0.098286       0.223014
      19.080000       0.065422       0.098129       0.221721
      19.090000       0.065985       0.098212       0.219749
      19.100000       0.066660       0.098540       0.217249
      19.110000       0.067424       0.099082       0.214370
      19.120000       0.068242       0.099775       0.211249
      19.130000       0.069069       0.100533       0.207997
      19.140000       0.069853       0.101262       0.204701
      19.150000       0.070550       0.101880       0.201425
      19.160000       0.071127       0.102327       0.198217
      19.170000       0.071567       0.102574       0.195119
      19.180000       0.071875       0.102617       0.192170
      19.190000       0.072069       0.102479       0.189412
      19.200000       0.072178       0.102203       0.186889
      19.210000       0.072232       0.101849       0.184647
      19.220000       0.072258       0.101478       0.182729
      19.230000       0.072276       0.101149       0.181167
      19.240000       0.072296       0.100899       0.179978
      19.250000       0.072313       0.100737       0.179157
      19.260000       0.072309       0.100637       0.178680
      19.270000       0.072261       0.100547       0.178509
      19.280000       0.072142       0.100405       0.178601
      19.290000       0.071940       0.100152       0.178913
      19.300000       0.071652       0.099756       0.179420
      19.310000       0.071297       0.099214       0.180112
      19.320000       0.070906       0.098554       0.180996
      19.330000       0.070515       0.097823       0.182083
      19.340000       0.070166       0.097068       0.183382
      19.350000       0.069890       0.096331       0.184881
      19.360000       0.069710       0.095630       0.186546
      19.370000       0.069636       0.094962       0.188313
      19.380000       0.069669       0.094308       0.190097
      19.390000       0.069808       0.093649       0.191802
      19.400000       0.070051       0.092974       0.193338
      19.410000       0.070400       0.092287       0.194644
      19.420000       0.070860       0.091612       0.195703
      19.430000       0.071440       0.090982       0.196544
      19.440000       0.072146       0.090433       0.197229
      19.450000       0.072982       0.089988       0.197837
      19.460000       0.073942       0.089653       0.198430
      19.470000       0.075013       0.089408       0.199041
      19.480000       0.076175       0.089213       0.199668
      19.490000       0.077406       0.089015       0.200288
      19.500000       0.078689       0.088764       0.200874
      19.510000       0.080020       0.088426       0.201418
      19.520000       0.081405       0.087989       0.201939
      19.530000       0.082865       0.087462       0.202475
      19.540000       0.084420       0.086875       0.203057
      19.550000       0.086088       0.086265       0.203688
      19.560000       0.087868       0.085674       0.204320
      19.570000       0.089746       0.085136       0.204861
      19.580000       0.091692       0.084679       0.205188
      19.590000       0.093664       0.084310       0.205179
      19.600000       0.095611       0.084023       0.204739
      19.610000       0.097481       0.083798       0.203812
      19.620000       0.099216       0.083612       0.202388
      19.630000       0.100756       0.083446       0.200492
      19.640000       0.102039       0.083289       0.198166
      19.650000       0.103001       0.083141       0.195467
      19.660000       0.103582       0.083007       0.192459
      19.670000       0.103740       0.082896       0.189215
      19.680000       0.103460       0.082812       0.185818
      19.690000       0.102756       0.082759       0.182359
      19.700000       0.101673       0.082741       0.178922
      19.710000       0.100274       0.082764       0.175576
      19.720000       0.098637       0.082834       0.172365
      19.730000       0.096838       0.082961       0.169306
      19.740000       0.094952       0.083151       0.166401
      19.750000       0.093038       0.083412       0.163637
      19.760000       0.091146       0.083750       0.161011
      19.770000       0.089313       0.084167       0.158537
      19.780000       0.087564       0.084667       0.156254
      19.790000       0.085923       0.085245       0.154229
      19.800000       0.084409       0.085894       0.152544
      19.810000       0.083041       0.086597       0.151285
      19.820000       0.081832       0.087335       0.150518
      19.830000       0.080785       0.088082       0.150287
      19.840000       0.079890       0.088805       0.150599
      19.850000       0.079116       0.089464       0.151424
      19.860000       0.078420       0.090004       0.152700
      19.870000       0.077745       0.090361       0.154340
      19.880000       0.077031       0.090466       0.156237
      19.890000       0.076222       0.090252       0.158282
      19.900000       0.075278       0.089677       0.160368
      19.910000       0.074174       0.088723       0.162402
      19.920000       0.072908       0.087409       0.164309
      19.930000       0.071497       0.085787       0.166027
      19.940000       0.069973       0.083931       0.167505
      19.950000       0.068380       0.081933       0.168695
      19.960000       0.066768       0.079893       0.169543
      19.970000       0.065190       0.077908       0.170003
      19.980000       0.063694       0.076065       0.170032
      19.990000       0.062325       0.074438       0.169608
      20.000000       0.061116       0.073079       0.168731
