  # energy grid [eV]     epsr_x  epsr_y  epsr_z
       0.000000            NaN            NaN            NaN
       0.010000  -92027.688934 -349331.649458       2.557619
       0.020000  -23004.307038  -87331.477080       2.557650
       0.030000  -10222.199239  -38812.926635       2.557701
       0.040000   -5748.461460  -21831.433972       2.557773
       0.050000   -3677.759921  -13971.428790       2.557865
       0.060000   -2552.934337   -9701.796338       2.557978
       0.070000   -1874.699928   -7127.342626       2.558112
       0.080000   -1434.499650   -5456.423141       2.558267
       0.090000   -1132.699726   -4310.846235       2.558444
       0.100000    -916.823953   -3491.421805       2.558641
       0.110000    -757.100230   -2885.140389       2.558860
       0.120000    -635.617175   -2424.013642       2.559102
       0.130000    -541.074727   -2065.148594       2.559365
       0.140000    -466.058121   -1780.400155       2.559650
       0.150000    -405.538485   -1550.679636       2.559959
       0.160000    -356.007530   -1362.670216       2.560290
       0.170000    -314.957419   -1206.852599       2.560645
       0.180000    -280.556958   -1076.275912       2.561024
       0.190000    -251.443781    -965.768858       2.561427
       0.200000    -226.587354    -871.419718       2.561855
       0.210000    -205.196507    -790.225360       2.562309
       0.220000    -186.655691    -719.849269       2.562788
       0.230000    -170.480192    -658.451558       2.563295
       0.240000    -156.284125    -604.567478       2.563828
       0.250000    -143.757203    -557.019239       2.564390
       0.260000    -132.647640    -514.851103       2.564980
       0.270000    -122.749393    -477.280972       2.565599
       0.280000    -113.892544    -443.663870       2.566249
       0.290000    -105.935958    -413.464068       2.566930
       0.300000     -98.761620    -386.233609       2.567642
       0.310000     -92.270240    -361.595603       2.568388
       0.320000     -86.377794    -339.231113       2.569166
       0.330000     -81.012794    -318.868781       2.569979
       0.340000     -76.114107    -300.276559       2.570826
       0.350000     -71.629207    -283.255067       2.571709
       0.360000     -67.512760    -267.632228       2.572627
       0.370000     -63.725475    -253.258898       2.573579
       0.380000     -60.233162    -240.005296       2.574567
       0.390000     -57.005955    -227.758064       2.575587
       0.400000     -54.017678    -216.417834       2.576638
       0.410000     -51.245303    -205.897205       2.577715
       0.420000     -48.668515    -196.119057       2.578814
       0.430000     -46.269330    -187.015132       2.579927
       0.440000     -44.031786    -178.524839       2.581041
       0.450000     -41.941674    -170.594242       2.582141
       0.460000     -39.986312    -163.175206       2.583207
       0.470000     -38.154354    -156.224659       2.584210
       0.480000     -36.435621    -149.703971       2.585111
       0.490000     -34.820965    -143.578411       2.585864
       0.500000     -33.302141    -137.816688       2.586407
       0.510000     -31.871706    -132.390545       2.586667
       0.520000     -30.522925    -127.274420       2.586560
       0.530000     -29.249691    -122.445137       2.585996
       0.540000     -28.046461    -117.881645       2.584894
       0.550000     -26.908186    -113.564792       2.583195
       0.560000     -25.830269    -109.477118       2.580888
       0.570000     -24.808509    -105.602682       2.578034
       0.580000     -23.839065    -101.926906       2.574771
       0.590000     -22.918420     -98.436436       2.571312
       0.600000     -22.043345     -95.119021       2.567909
       0.610000     -21.210876     -91.963407       2.564809
       0.620000     -20.418285     -88.959239       2.562206
       0.630000     -19.663058     -86.096980       2.560220
       0.640000     -18.942878     -83.367827       2.558890
       0.650000     -18.255603     -80.763655       2.558191
       0.660000     -17.599253     -78.276946       2.558056
       0.670000     -16.971993     -75.900738       2.558400
       0.680000     -16.372124     -73.628582       2.559135
       0.690000     -15.798068     -71.454487       2.560180
       0.700000     -15.248359     -69.372891       2.561465
       0.710000     -14.721635     -67.378619       2.562933
       0.720000     -14.216625     -65.466853       2.564539
       0.730000     -13.732147     -63.633105       2.566250
       0.740000     -13.267097     -61.873184       2.568039
       0.750000     -12.820445     -60.183180       2.569888
       0.760000     -12.391227     -58.559437       2.571782
       0.770000     -11.978542     -56.998535       2.573714
       0.780000     -11.581547     -55.497272       2.575675
       0.790000     -11.199452     -54.052648       2.577663
       0.800000     -10.831513     -52.661849       2.579675
       0.810000     -10.477037     -51.322232       2.581710
       0.820000     -10.135367     -50.031316       2.583768
       0.830000      -9.805891     -48.786768       2.585850
       0.840000      -9.488028     -47.586393       2.587958
       0.850000      -9.181236     -46.428125       2.590092
       0.860000      -8.885000     -45.310017       2.592256
       0.870000      -8.598837     -44.230232       2.594451
       0.880000      -8.322291     -43.187038       2.596680
       0.890000      -8.054930     -42.178801       2.598945
       0.900000      -7.796347     -41.203974       2.601249
       0.910000      -7.546157     -40.261098       2.603594
       0.920000      -7.303996     -39.348790       2.605983
       0.930000      -7.069520     -38.465743       2.608417
       0.940000      -6.842401     -37.610719       2.610900
       0.950000      -6.622331     -36.782542       2.613431
       0.960000      -6.409016     -35.980102       2.616012
       0.970000      -6.202178     -35.202341       2.618643
       0.980000      -6.001552     -34.448257       2.621322
       0.990000      -5.806888     -33.716898       2.624046
       1.000000      -5.617946     -33.007361       2.626809
       1.010000      -5.434501     -32.318784       2.629603
       1.020000      -5.256337     -31.650350       2.632415
       1.030000      -5.083248     -31.001281       2.635224
       1.040000      -4.915038     -30.370834       2.638005
       1.050000      -4.751522     -29.758304       2.640720
       1.060000      -4.592522     -29.163018       2.643320
       1.070000      -4.437869     -28.584333       2.645738
       1.080000      -4.287401     -28.021639       2.647888
       1.090000      -4.140963     -27.474350       2.649661
       1.100000      -3.998410     -26.941910       2.650922
       1.110000      -3.859600     -26.423784       2.651516
       1.120000      -3.724399     -25.919465       2.651273
       1.130000      -3.592679     -25.428465       2.650026
       1.140000      -3.464316     -24.950319       2.647642
       1.150000      -3.339193     -24.484582       2.644062
       1.160000      -3.217197     -24.030828       2.639345
       1.170000      -3.098222     -23.588648       2.633693
       1.180000      -2.982163     -23.157652       2.627455
       1.190000      -2.868921     -22.737466       2.621085
       1.200000      -2.758403     -22.327730       2.615065
       1.210000      -2.650516     -21.928101       2.609823
       1.220000      -2.545174     -21.538248       2.605666
       1.230000      -2.442292     -21.157854       2.602751
       1.240000      -2.341791     -20.786616       2.601097
       1.250000      -2.243593     -20.424242       2.600620
       1.260000      -2.147624     -20.070451       2.601175
       1.270000      -2.053813     -19.724974       2.602593
       1.280000      -1.962091     -19.387552       2.604707
       1.290000      -1.872393     -19.057936       2.607369
       1.300000      -1.784654     -18.735887       2.610452
       1.310000      -1.698814     -18.421174       2.613856
       1.320000      -1.614814     -18.113576       2.617502
       1.330000      -1.532598     -17.812880       2.621330
       1.340000      -1.452110     -17.518880       2.625295
       1.350000      -1.373300     -17.231379       2.629364
       1.360000      -1.296115     -16.950186       2.633516
       1.370000      -1.220507     -16.675117       2.637735
       1.380000      -1.146430     -16.405996       2.642010
       1.390000      -1.073837     -16.142652       2.646335
       1.400000      -1.002686     -15.884920       2.650708
       1.410000      -0.932933     -15.632641       2.655129
       1.420000      -0.864537     -15.385663       2.659598
       1.430000      -0.797461     -15.143837       2.664118
       1.440000      -0.731665     -14.907021       2.668694
       1.450000      -0.667112     -14.675078       2.673328
       1.460000      -0.603767     -14.447873       2.678026
       1.470000      -0.541596     -14.225278       2.682794
       1.480000      -0.480566     -14.007170       2.687637
       1.490000      -0.420644     -13.793427       2.692560
       1.500000      -0.361798     -13.583934       2.697571
       1.510000      -0.304000     -13.378579       2.702673
       1.520000      -0.247219     -13.177252       2.707875
       1.530000      -0.191428     -12.979849       2.713179
       1.540000      -0.136598     -12.786269       2.718593
       1.550000      -0.082705     -12.596412       2.724119
       1.560000      -0.029720     -12.410183       2.729760
       1.570000       0.022379     -12.227491       2.735519
       1.580000       0.073618     -12.048245       2.741394
       1.590000       0.124019     -11.872360       2.747381
       1.600000       0.173607     -11.699752       2.753472
       1.610000       0.222402     -11.530338       2.759653
       1.620000       0.270426     -11.364042       2.765902
       1.630000       0.317701     -11.200785       2.772187
       1.640000       0.364247     -11.040495       2.778462
       1.650000       0.410082     -10.883099       2.784667
       1.660000       0.455227     -10.728528       2.790718
       1.670000       0.499700     -10.576714       2.796512
       1.680000       0.543519     -10.427591       2.801917
       1.690000       0.586702     -10.281097       2.806779
       1.700000       0.629267     -10.137169       2.810929
       1.710000       0.671229      -9.995748       2.814201
       1.720000       0.712605      -9.856774       2.816459
       1.730000       0.753411      -9.720193       2.817632
       1.740000       0.793663      -9.585948       2.817757
       1.750000       0.833375      -9.453986       2.817003
       1.760000       0.872563      -9.324256       2.815667
       1.770000       0.911241      -9.196708       2.814141
       1.780000       0.949423      -9.071291       2.812843
       1.790000       0.987123      -8.947959       2.812134
       1.800000       1.024354      -8.826665       2.812255
       1.810000       1.061129      -8.707365       2.813293
       1.820000       1.097461      -8.590014       2.815186
       1.830000       1.133364      -8.474570       2.817757
       1.840000       1.168848      -8.360992       2.820774
       1.850000       1.203927      -8.249239       2.824004
       1.860000       1.238612      -8.139272       2.827258
       1.870000       1.272915      -8.031052       2.830418
       1.880000       1.306847      -7.924543       2.833421
       1.890000       1.340420      -7.819709       2.836225
       1.900000       1.373644      -7.716514       2.838766
       1.910000       1.406531      -7.614923       2.840921
       1.920000       1.439091      -7.514904       2.842519
       1.930000       1.471334      -7.416424       2.843374
       1.940000       1.503272      -7.319451       2.843363
       1.950000       1.534913      -7.223954       2.842486
       1.960000       1.566270      -7.129903       2.840908
       1.970000       1.597350      -7.037268       2.838939
       1.980000       1.628166      -6.946022       2.836969
       1.990000       1.658725      -6.856136       2.835370
       2.000000       1.689038      -6.767582       2.834399
       2.010000       1.719115      -6.680335       2.834132
       2.020000       1.748965      -6.594368       2.834455
       2.030000       1.778598      -6.509656       2.835103
       2.040000       1.808023      -6.426175       2.835737
       2.050000       1.837250      -6.343900       2.836050
       2.060000       1.866289      -6.262809       2.835851
       2.070000       1.895147      -6.182877       2.835118
       2.080000       1.923837      -6.104083       2.833973
       2.090000       1.952365      -6.026405       2.832605
       2.100000       1.980744      -5.949821       2.831149
       2.110000       2.008981      -5.874312       2.829593
       2.120000       2.037086      -5.799856       2.827744
       2.130000       2.065070      -5.726433       2.825263
       2.140000       2.092942      -5.654025       2.821754
       2.150000       2.120711      -5.582612       2.816854
       2.160000       2.148390      -5.512177       2.810302
       2.170000       2.175986      -5.442700       2.801951
       2.180000       2.203511      -5.374164       2.791761
       2.190000       2.230976      -5.306552       2.779772
       2.200000       2.258391      -5.239847       2.766091
       2.210000       2.285767      -5.174033       2.750901
       2.220000       2.313116      -5.109093       2.734444
       2.230000       2.340449      -5.045012       2.716986
       2.240000       2.367778      -4.981774       2.698745
       2.250000       2.395116      -4.919365       2.679815
       2.260000       2.422476      -4.857769       2.660137
       2.270000       2.449869      -4.796972       2.639533
       2.280000       2.477310      -4.736960       2.617815
       2.290000       2.504813      -4.677720       2.594941
       2.300000       2.532392      -4.619237       2.571143
       2.310000       2.560062      -4.561498       2.546987
       2.320000       2.587839      -4.504492       2.523332
       2.330000       2.615739      -4.448204       2.501185
       2.340000       2.643778      -4.392623       2.481506
       2.350000       2.671975      -4.337737       2.465027
       2.360000       2.700346      -4.283533       2.452133
       2.370000       2.728911      -4.230000       2.442854
       2.380000       2.757690      -4.177127       2.436928
       2.390000       2.786701      -4.124903       2.433916
       2.400000       2.815965      -4.073316       2.433313
       2.410000       2.845502      -4.022356       2.434631
       2.420000       2.875333      -3.972012       2.437431
       2.430000       2.905479      -3.922275       2.441319
       2.440000       2.935958      -3.873134       2.445921
       2.450000       2.966790      -3.824579       2.450871
       2.460000       2.997990      -3.776602       2.455824
       2.470000       3.029570      -3.729191       2.460478
       2.480000       3.061540      -3.682339       2.464594
       2.490000       3.093899      -3.636035       2.468004
       2.500000       3.126638      -3.590272       2.470597
       2.510000       3.159733      -3.545039       2.472313
       2.520000       3.193142      -3.500330       2.473145
       2.530000       3.226796      -3.456135       2.473160
       2.540000       3.260591      -3.412446       2.472517
       2.550000       3.294376      -3.369256       2.471463
       2.560000       3.327938      -3.326555       2.470320
       2.570000       3.360985      -3.284337       2.469453
       2.580000       3.393126      -3.242594       2.469224
       2.590000       3.423844      -3.201318       2.469958
       2.600000       3.452485      -3.160503       2.471912
       2.610000       3.478243      -3.120140       2.475257
       2.620000       3.500178      -3.080223       2.480057
       2.630000       3.517269      -3.040745       2.486261
       2.640000       3.528532      -3.001699       2.493703
       2.650000       3.533213      -2.963079       2.502122
       2.660000       3.531036      -2.924878       2.511204
       2.670000       3.522465      -2.887090       2.520619
       2.680000       3.508861      -2.849709       2.530075
       2.690000       3.492418      -2.812728       2.539345
       2.700000       3.475827      -2.776142       2.548290
       2.710000       3.461737      -2.739945       2.556839
       2.720000       3.452200      -2.704132       2.564958
       2.730000       3.448296      -2.668699       2.572588
       2.740000       3.450025      -2.633639       2.579599
       2.750000       3.456423      -2.598948       2.585760
       2.760000       3.465792      -2.564624       2.590751
       2.770000       3.475947      -2.530661       2.594206
       2.780000       3.484431      -2.497057       2.595767
       2.790000       3.488723      -2.463809       2.595153
       2.800000       3.486461      -2.430914       2.592200
       2.810000       3.475749      -2.398369       2.586892
       2.820000       3.455534      -2.366169       2.579360
       2.830000       3.426004      -2.334310       2.569864
       2.840000       3.388859      -2.302782       2.558771
       2.850000       3.347269      -2.271578       2.546523
       2.860000       3.305424      -2.240685       2.533606
       2.870000       3.267735      -2.210095       2.520516
       2.880000       3.237986      -2.179796       2.507720
       2.890000       3.218721      -2.149780       2.495641
       2.900000       3.211057      -2.120043       2.484642
       2.910000       3.214863      -2.090579       2.475035
       2.920000       3.229140      -2.061386       2.467097
       2.930000       3.252430      -2.032462       2.461067
       2.940000       3.283139      -2.003806       2.457143
       2.950000       3.319742      -1.975414       2.455462
       2.960000       3.360888      -1.947286       2.456080
       2.970000       3.405431      -1.919420       2.458953
       2.980000       3.452411      -1.891811       2.463935
       2.990000       3.501023      -1.864459       2.470797
       3.000000       3.550567      -1.837359       2.479249
       3.010000       3.600396      -1.810509       2.488973
       3.020000       3.649872      -1.783906       2.499646
       3.030000       3.698320      -1.757547       2.510959
       3.040000       3.744987      -1.731427       2.522629
       3.050000       3.789024      -1.705545       2.534405
       3.060000       3.829485      -1.679897       2.546074
       3.070000       3.865371      -1.654479       2.557476
       3.080000       3.895736      -1.629289       2.568511
       3.090000       3.919856      -1.604324       2.579152
       3.100000       3.937464      -1.579581       2.589449
       3.110000       3.948983      -1.555056       2.599515
       3.120000       3.955658      -1.530747       2.609493
       3.130000       3.959479      -1.506653       2.619510
       3.140000       3.962843      -1.482769       2.629645
       3.150000       3.968033      -1.459095       2.639899
       3.160000       3.976679      -1.435628       2.650200
       3.170000       3.989401      -1.412368       2.660423
       3.180000       4.005696      -1.389313       2.670417
       3.190000       4.024035      -1.366464       2.680035
       3.200000       4.042082      -1.343820       2.689151
       3.210000       4.056935      -1.321383       2.697666
       3.220000       4.065392      -1.299154       2.705482
       3.230000       4.064248      -1.277133       2.712471
       3.240000       4.050684      -1.255322       2.718437
       3.250000       4.022757      -1.233719       2.723104
       3.260000       3.979957      -1.212320       2.726128
       3.270000       3.923661      -1.191118       2.727152
       3.280000       3.857288      -1.170102       2.725872
       3.290000       3.785956      -1.149262       2.722114
       3.300000       3.715637      -1.128584       2.715875
       3.310000       3.652045      -1.108058       2.707340
       3.320000       3.599649      -1.087677       2.696840
       3.330000       3.561135      -1.067434       2.684803
       3.340000       3.537424      -1.047328       2.671691
       3.350000       3.528094      -1.027358       2.657965
       3.360000       3.531946      -1.007525       2.644055
       3.370000       3.547446      -0.987828       2.630358
       3.380000       3.572979      -0.968269       2.617232
       3.390000       3.606909      -0.948846       2.604996
       3.400000       3.647552      -0.929561       2.593949
       3.410000       3.693136      -0.910413       2.584379
       3.420000       3.741800      -0.891404       2.576571
       3.430000       3.791623      -0.872535       2.570803
       3.440000       3.840681      -0.853806       2.567319
       3.450000       3.887134      -0.835218       2.566288
       3.460000       3.929347      -0.816771       2.567771
       3.470000       3.966036      -0.798465       2.571704
       3.480000       3.996423      -0.780298       2.577895
       3.490000       4.020334      -0.762267       2.586058
       3.500000       4.038170      -0.744369       2.595846
       3.510000       4.050757      -0.726598       2.606896
       3.520000       4.059118      -0.708951       2.618854
       3.530000       4.064301      -0.691425       2.631399
       3.540000       4.067349      -0.674018       2.644262
       3.550000       4.069362      -0.656731       2.657233
       3.560000       4.071541      -0.639564       2.670171
       3.570000       4.075076      -0.622522       2.683011
       3.580000       4.080878      -0.605608       2.695759
       3.590000       4.089311      -0.588825       2.708473
       3.600000       4.100053      -0.572177       2.721235
       3.610000       4.112191      -0.555662       2.734103
       3.620000       4.124449      -0.539279       2.747089
       3.630000       4.135427      -0.523022       2.760129
       3.640000       4.143681      -0.506882       2.773082
       3.650000       4.147640      -0.490850       2.785738
       3.660000       4.145437      -0.474918       2.797831
       3.670000       4.134848      -0.459078       2.809055
       3.680000       4.113498      -0.443330       2.819081
       3.690000       4.079385      -0.427674       2.827586
       3.700000       4.031607      -0.412110       2.834263
       3.710000       3.971048      -0.396640       2.838853
       3.720000       3.900695      -0.381265       2.841157
       3.730000       3.825353      -0.365981       2.841058
       3.740000       3.750788      -0.350784       2.838546
       3.750000       3.682585      -0.335666       2.833726
       3.760000       3.625181      -0.320621       2.826826
       3.770000       3.581331      -0.305641       2.818178
       3.780000       3.552067      -0.290720       2.808192
       3.790000       3.536982      -0.275852       2.797323
       3.800000       3.534695      -0.261037       2.786042
       3.810000       3.543349      -0.246275       2.774807
       3.820000       3.561053      -0.231568       2.764043
       3.830000       3.586174      -0.216922       2.754116
       3.840000       3.617432      -0.202341       2.745317
       3.850000       3.653782      -0.187834       2.737864
       3.860000       3.694175      -0.173408       2.731908
       3.870000       3.737277      -0.159073       2.727562
       3.880000       3.781273      -0.144842       2.724919
       3.890000       3.823802      -0.130729       2.724057
       3.900000       3.862068      -0.116749       2.725033
       3.910000       3.893096      -0.102918       2.727850
       3.920000       3.914100      -0.089253       2.732436
       3.930000       3.922942      -0.075765       2.738638
       3.940000       3.918598      -0.062462       2.746232
       3.950000       3.901511      -0.049347       2.754960
       3.960000       3.873713      -0.036419       2.764565
       3.970000       3.838598      -0.023675       2.774814
       3.980000       3.800348      -0.011110       2.785519
       3.990000       3.763162       0.001288       2.796542
       4.000000       3.730528       0.013537       2.807803
       4.010000       3.704747       0.025669       2.819278
       4.020000       3.686780       0.037729       2.830993
       4.030000       3.676338       0.049770       2.842997
       4.040000       3.672104       0.061842       2.855332
       4.050000       3.671991       0.073982       2.867988
       4.060000       3.673418       0.086203       2.880866
       4.070000       3.673581       0.098501       2.893754
       4.080000       3.669680       0.110845       2.906330
       4.090000       3.659100       0.123191       2.918172
       4.100000       3.639622       0.135486       2.928798
       4.110000       3.609705       0.147666       2.937719
       4.120000       3.568860       0.159669       2.944493
       4.130000       3.517974       0.171433       2.948801
       4.140000       3.459414       0.182912       2.950489
       4.150000       3.396796       0.194082       2.949605
       4.160000       3.334470       0.204949       2.946386
       4.170000       3.276875       0.215564       2.941212
       4.180000       3.227945       0.226011       2.934541
       4.190000       3.190691       0.236403       2.926845
       4.200000       3.166997       0.246858       2.918562
       4.210000       3.157635       0.257479       2.910071
       4.220000       3.162391       0.268336       2.901688
       4.230000       3.180218       0.279463       2.893683
       4.240000       3.209361       0.290864       2.886307
       4.250000       3.247469       0.302514       2.879820
       4.260000       3.291719       0.314374       2.874511
       4.270000       3.338998       0.326399       2.870701
       4.280000       3.386131       0.338538       2.868724
       4.290000       3.430156       0.350746       2.868898
       4.300000       3.468598       0.362976       2.871480
       4.310000       3.499734       0.375187       2.876628
       4.320000       3.522800       0.387337       2.884372
       4.330000       3.538094       0.399388       2.894605
       4.340000       3.546950       0.411298       2.907096
       4.350000       3.551543       0.423025       2.921522
       4.360000       3.554520       0.434525       2.937511
       4.370000       3.558504       0.445747       2.954689
       4.380000       3.565605       0.456643       2.972706
       4.390000       3.577092       0.467173       2.991240
       4.400000       3.593327       0.477316       3.009983
       4.410000       3.613922       0.487084       3.028601
       4.420000       3.637996       0.496533       3.046707
       4.430000       3.664392       0.505764       3.063845
       4.440000       3.691785       0.514909       3.079492
       4.450000       3.718688       0.524109       3.093094
       4.460000       3.743419       0.533488       3.104124
       4.470000       3.764131       0.543128       3.112158
       4.480000       3.778962       0.553074       3.116942
       4.490000       3.786312       0.563329       3.118449
       4.500000       3.785184       0.573871       3.116882
       4.510000       3.775437       0.584659       3.112633
       4.520000       3.757820       0.595639       3.106208
       4.530000       3.733735       0.606750       3.098151
       4.540000       3.704844       0.617925       3.088980
       4.550000       3.672750       0.629096       3.079156
       4.560000       3.638932       0.640204       3.069074
       4.570000       3.604903       0.651200       3.059067
       4.580000       3.572399       0.662057       3.049418
       4.590000       3.543395       0.672770       3.040370
       4.600000       3.519896       0.683358       3.032146
       4.610000       3.503611       0.693854       3.024980
       4.620000       3.495658       0.704292       3.019147
       4.630000       3.496375       0.714691       3.014980
       4.640000       3.505238       0.725039       3.012862
       4.650000       3.520864       0.735280       3.013183
       4.660000       3.541099       0.745321       3.016271
       4.670000       3.563221       0.755033       3.022331
       4.680000       3.584292       0.764268       3.031404
       4.690000       3.601630       0.772878       3.043364
       4.700000       3.613310       0.780739       3.057940
       4.710000       3.618559       0.787771       3.074747
       4.720000       3.617908       0.793964       3.093304
       4.730000       3.613066       0.799387       3.113045
       4.740000       3.606545       0.804195       3.133320
       4.750000       3.601203       0.808633       3.153411
       4.760000       3.599800       0.813004       3.172559
       4.770000       3.604596       0.817645       3.190010
       4.780000       3.617011       0.822861       3.205081
       4.790000       3.637343       0.828885       3.217233
       4.800000       3.664641       0.835837       3.226134
       4.810000       3.696775       0.843719       3.231693
       4.820000       3.730724       0.852439       3.234054
       4.830000       3.763034       0.861832       3.233558
       4.840000       3.790383       0.871702       3.230674
       4.850000       3.810163       0.881840       3.225951
       4.860000       3.820987       0.892050       3.219967
       4.870000       3.822973       0.902165       3.213319
       4.880000       3.817671       0.912065       3.206623
       4.890000       3.807616       0.921691       3.200524
       4.900000       3.795640       0.931051       3.195707
       4.910000       3.784202       0.940220       3.192872
       4.920000       3.774987       0.949317       3.192683
       4.930000       3.768875       0.958470       3.195669
       4.940000       3.766217       0.967786       3.202115
       4.950000       3.767229       0.977321       3.211966
       4.960000       3.772267       0.987077       3.224799
       4.970000       3.781840       0.997009       3.239846
       4.980000       3.796386       1.007044       3.256088
       4.990000       3.815990       1.017099       3.272361
       5.000000       3.840264       1.027084       3.287479
       5.010000       3.868500       1.036907       3.300337
       5.020000       3.900028       1.046474       3.309998
       5.030000       3.934602       1.055692       3.315765
       5.040000       3.972596       1.064479       3.317223
       5.050000       4.014934       1.072788       3.314261
       5.060000       4.062757       1.080629       3.307057
       5.070000       4.116985       1.088074       3.296041
       5.080000       4.177940       1.095245       3.281854
       5.090000       4.245127       1.102285       3.265307
       5.100000       4.317206       1.109305       3.247354
       5.110000       4.392082       1.116354       3.229059
       5.120000       4.467094       1.123405       3.211539
       5.130000       4.539266       1.130378       3.195839
       5.140000       4.605636       1.137181       3.182764
       5.150000       4.663653       1.143760       3.172692
       5.160000       4.711618       1.150137       3.165445
       5.170000       4.749121       1.156426       3.160255
       5.180000       4.777334       1.162817       3.155846
       5.190000       4.799033       1.169531       3.150618
       5.200000       4.818197       1.176764       3.142874
       5.210000       4.839215       1.184641       3.131069
       5.220000       4.865882       1.193183       3.114053
       5.230000       4.900519       1.202305       3.091264
       5.240000       4.943511       1.211832       3.062840
       5.250000       4.993378       1.221531       3.029620
       5.260000       5.047273       1.231145       2.993005
       5.270000       5.101735       1.240426       2.954723
       5.280000       5.153468       1.249162       2.916545
       5.290000       5.200018       1.257209       2.880053
       5.300000       5.240193       1.264508       2.846516
       5.310000       5.274162       1.271106       2.816915
       5.320000       5.303203       1.277154       2.792058
       5.330000       5.329158       1.282897       2.772704
       5.340000       5.353727       1.288634       2.759595
       5.350000       5.377738       1.294661       2.753381
       5.360000       5.400543       1.301212       2.754485
       5.370000       5.419630       1.308418       2.762975
       5.380000       5.430526       1.316286       2.778536
       5.390000       5.427034       1.324723       2.800531
       5.400000       5.401774       1.333568       2.828134
       5.410000       5.347023       1.342639       2.860474
       5.420000       5.255788       1.351763       2.896745
       5.430000       5.123031       1.360799       2.936280
       5.440000       4.946848       1.369648       2.978567
       5.450000       4.729327       1.378252       3.023234
       5.460000       4.476815       1.386597       3.070011
       5.470000       4.199405       1.394709       3.118686
       5.480000       3.909697       1.402656       3.169073
       5.490000       3.621073       1.410530       3.220987
       5.500000       3.345886       1.418441       3.274239
       5.510000       3.093902       1.426500       3.328633
       5.520000       2.871238       1.434815       3.383957
       5.530000       2.679934       1.443484       3.439983
       5.540000       2.518199       1.452573       3.496449
       5.550000       2.381278       1.462103       3.553034
       5.560000       2.262761       1.472033       3.609338
       5.570000       2.156053       1.482272       3.664840
       5.580000       2.055722       1.492699       3.718864
       5.590000       1.958485       1.503196       3.770538
       5.600000       1.863686       1.513676       3.818761
       5.610000       1.773232       1.524097       3.862182
       5.620000       1.690973       1.534457       3.899213
       5.630000       1.621697       1.544775       3.928100
       5.640000       1.569926       1.555084       3.947067
       5.650000       1.538855       1.565424       3.954548
       5.660000       1.529663       1.575863       3.949493
       5.670000       1.541294       1.586503       3.931693
       5.680000       1.570665       1.597488       3.902005
       5.690000       1.613102       1.608974       3.862385
       5.700000       1.662906       1.621098       3.815655
       5.710000       1.713944       1.633938       3.765073
       5.720000       1.760275       1.647493       3.713851
       5.730000       1.796792       1.661697       3.664809
       5.740000       1.819823       1.676440       3.620193
       5.750000       1.827610       1.691612       3.581603
       5.760000       1.820556       1.707134       3.549918
       5.770000       1.801126       1.722985       3.525208
       5.780000       1.773415       1.739201       3.506713
       5.790000       1.742463       1.755866       3.492982
       5.800000       1.713476       1.773072       3.482201
       5.810000       1.691093       1.790890       3.472593
       5.820000       1.678787       1.809338       3.462747
       5.830000       1.678534       1.828373       3.451726
       5.840000       1.690762       1.847889       3.438927
       5.850000       1.714590       1.867730       3.423784
       5.860000       1.748178       1.887703       3.405484
       5.870000       1.789062       1.907587       3.382850
       5.880000       1.834390       1.927160       3.354434
       5.890000       1.881127       1.946211       3.318784
       5.900000       1.926312       1.964573       3.274773
       5.910000       1.967410       1.982148       3.221906
       5.920000       2.002643       1.998929       3.160541
       5.930000       2.031147       2.014994       3.091973
       5.940000       2.052796       2.030490       3.018356
       5.950000       2.067735       2.045568       2.942453
       5.960000       2.075847       2.060320       2.867235
       5.970000       2.076444       2.074710       2.795418
       5.980000       2.068355       2.088530       2.729055
       5.990000       2.050327       2.101406       2.669298
       6.000000       2.021518       2.112838       2.616376
       6.010000       1.981840       2.122280       2.569743
       6.020000       1.932081       2.129233       2.528291
       6.030000       1.873921       2.133331       2.490521
       6.040000       1.809967       2.134404       2.454673
       6.050000       1.743821       2.132510       2.418837
       6.060000       1.680000       2.127924       2.381138
       6.070000       1.623540       2.121080       2.340032
       6.080000       1.579259       2.112462       2.294651
       6.090000       1.550926       2.102495       2.245072
       6.100000       1.540625       2.091464       2.192363
       6.110000       1.548529       2.079505       2.138344
       6.120000       1.573019       2.066666       2.085147
       6.130000       1.611016       2.052985       2.034747
       6.140000       1.658377       2.038571       1.988624
       6.150000       1.710333       2.023652       1.947663
       6.160000       1.761992       2.008599       1.912254
       6.170000       1.808914       1.993911       1.882499
       6.180000       1.847675       1.980153       1.858370
       6.190000       1.876304       1.967836       1.839726
       6.200000       1.894464       1.957292       1.826230
       6.210000       1.903333       1.948587       1.817212
       6.220000       1.905210       1.941538       1.811596
       6.230000       1.903016       1.935817       1.807935
       6.240000       1.899829       1.931082       1.804526
       6.250000       1.898549       1.927070       1.799618
       6.260000       1.901658       1.923635       1.791688
       6.270000       1.910982       1.920733       1.779737
       6.280000       1.927425       1.918383       1.763534
       6.290000       1.950706       1.916632       1.743691
       6.300000       1.979212       1.915538       1.721519
       6.310000       2.010050       1.915165       1.698715
       6.320000       2.039301       1.915600       1.676974
       6.330000       2.062445       1.916955       1.657663
       6.340000       2.074871       1.919335       1.641603
       6.350000       2.072465       1.922753       1.629007
       6.360000       2.052228       1.927020       1.619561
       6.370000       2.012901       1.931671       1.612625
       6.380000       1.955499       1.935958       1.607527
       6.390000       1.883615       1.938939       1.603859
       6.400000       1.803310       1.939632       1.601665
       6.410000       1.722471       1.937211       1.601428
       6.420000       1.649676       1.931189       1.603847
       6.430000       1.592818       1.921565       1.609501
       6.440000       1.557844       1.908872       1.618554
       6.450000       1.547935       1.894130       1.630598
       6.460000       1.563271       1.878675       1.644687
       6.470000       1.601329       1.863910       1.659503
       6.480000       1.657528       1.851016       1.673586
       6.490000       1.726035       1.840729       1.685542
       6.500000       1.800586       1.833225       1.694196
       6.510000       1.875255       1.828151       1.698669
       6.520000       1.945175       1.824747       1.698418
       6.530000       2.007157       1.822007       1.693273
       6.540000       2.060109       1.818841       1.683489
       6.550000       2.105079       1.814238       1.669788
       6.560000       2.144792       1.807437       1.653343
       6.570000       2.182690       1.798090       1.635666
       6.580000       2.221776       1.786391       1.618409
       6.590000       2.263680       1.773102       1.603110
       6.600000       2.308299       1.759464       1.590952
       6.610000       2.354058       1.746975       1.582607
       6.620000       2.398593       1.737101       1.578220
       6.630000       2.439497       1.730989       1.577512
       6.640000       2.474859       1.729292       1.579959
       6.650000       2.503478       1.732147       1.584954
       6.660000       2.524819       1.739291       1.591881
       6.670000       2.538854       1.750258       1.600114
       6.680000       2.545867       1.764562       1.608997
       6.690000       2.546200       1.781824       1.617864
       6.700000       2.539914       1.801799       1.626141
       6.710000       2.526361       1.824311       1.633479
       6.720000       2.503833       1.849156       1.639831
       6.730000       2.469446       1.875988       1.645444
       6.740000       2.419410       1.904245       1.650751
       6.750000       2.349617       1.933127       1.656252
       6.760000       2.256420       1.961605       1.662404
       6.770000       2.137417       1.988464       1.669545
       6.780000       1.992166       2.012359       1.677848
       6.790000       1.822775       2.031889       1.687294
       6.800000       1.634260       2.045702       1.697679
       6.810000       1.434423       2.052651       1.708641
       6.820000       1.232982       2.051987       1.719691
       6.830000       1.039967       2.043568       1.730222
       6.840000       0.863793       2.028011       1.739494
       6.850000       0.709677       2.006687       1.746647
       6.860000       0.578975       1.981519       1.750751
       6.870000       0.469567       1.954624       1.750913
       6.880000       0.377016       1.927900       1.746439
       6.890000       0.295985       1.902712       1.736990
       6.900000       0.221409       1.879769       1.722712
       6.910000       0.149130       1.859185       1.704266
       6.920000       0.076018       1.840667       1.682764
       6.930000      -0.000207       1.823713       1.659622
       6.940000      -0.081115       1.807782       1.636361
       6.950000      -0.167475       1.792386       1.614430
       6.960000      -0.258980       1.777140       1.595087
       6.970000      -0.354068       1.761802       1.579345
       6.980000      -0.450110       1.746332       1.567954
       6.990000      -0.544017       1.730965       1.561382
       7.000000      -0.633011       1.716289       1.559784
       7.010000      -0.715144       1.703253       1.562988
       7.020000      -0.789359       1.693051       1.570538
       7.030000      -0.855148       1.686893       1.581800
       7.040000      -0.912099       1.685718       1.596103
       7.050000      -0.959621       1.689963       1.612854
       7.060000      -0.996963       1.699459       1.631583
       7.070000      -1.023481       1.713473       1.651904
       7.080000      -1.038973       1.730840       1.673419
       7.090000      -1.043877       1.750145       1.695613
       7.100000      -1.039243       1.769898       1.717802
       7.110000      -1.026531       1.788674       1.739135
       7.120000      -1.007393       1.805243       1.758670
       7.130000      -0.983522       1.818676       1.775475
       7.140000      -0.956616       1.828458       1.788753
       7.150000      -0.928389       1.834579       1.797967
       7.160000      -0.900639       1.837562       1.802960
       7.170000      -0.875324       1.838378       1.804018
       7.180000      -0.854601       1.838265       1.801867
       7.190000      -0.840744       1.838517       1.797581
       7.200000      -0.835866       1.840325       1.792427
       7.210000      -0.841535       1.844709       1.787680
       7.220000      -0.858386       1.852499       1.784466
       7.230000      -0.885901       1.864311       1.783641
       7.240000      -0.922424       1.880492       1.785740
       7.250000      -0.965396       1.901049       1.790976
       7.260000      -1.011722       1.925609       1.799262
       7.270000      -1.058227       1.953436       1.810251
       7.280000      -1.102100       1.983476       1.823389
       7.290000      -1.141245       2.014446       1.837991
       7.300000      -1.174469       2.044914       1.853334
       7.310000      -1.201496       2.073396       1.868772
       7.320000      -1.222863       2.098447       1.883816
       7.330000      -1.239762       2.118762       1.898191
       7.340000      -1.253843       2.133300       1.911818
       7.350000      -1.266953       2.141421       1.924748
       7.360000      -1.280844       2.143012       1.937055
       7.370000      -1.296917       2.138579       1.948713
       7.380000      -1.316107       2.129248       1.959495
       7.390000      -1.338932       2.116622       1.968948
       7.400000      -1.365603       2.102482       1.976436
       7.410000      -1.396053       2.088379       1.981247
       7.420000      -1.429807       2.075260       1.982714
       7.430000      -1.465754       2.063285       1.980346
       7.440000      -1.502001       2.051902       1.973947
       7.450000      -1.535944       2.040152       1.963714
       7.460000      -1.564596       2.027062       1.950285
       7.470000      -1.585073       2.011973       1.934696
       7.480000      -1.595129       1.994707       1.918218
       7.490000      -1.593574       1.975538       1.902130
       7.500000      -1.580471       1.955050       1.887509
       7.510000      -1.557056       1.933983       1.875120
       7.520000      -1.525445       1.913148       1.865425
       7.530000      -1.488232       1.893402       1.858678
       7.540000      -1.448110       1.875596       1.855031
       7.550000      -1.407544       1.860466       1.854585
       7.560000      -1.368510       1.848481       1.857365
       7.570000      -1.332281       1.839751       1.863252
       7.580000      -1.299292       1.834063       1.871924
       7.590000      -1.269173       1.831030       1.882842
       7.600000      -1.240952       1.830245       1.895314
       7.610000      -1.213433       1.831366       1.908626
       7.620000      -1.185599       1.834100       1.922178
       7.630000      -1.156932       1.838112       1.935614
       7.640000      -1.127553       1.842960       1.948861
       7.650000      -1.098170       1.848108       1.962080
       7.660000      -1.069903       1.853022       1.975534
       7.670000      -1.044035       1.857332       1.989440
       7.680000      -1.021796       1.860946       2.003864
       7.690000      -1.004188       1.864081       2.018722
       7.700000      -0.991892       1.867174       2.033851
       7.710000      -0.985220       1.870709       2.049122
       7.720000      -0.984146       1.875024       2.064501
       7.730000      -0.988388       1.880162       2.080043
       7.740000      -0.997490       1.885839       2.095811
       7.750000      -1.010863       1.891551       2.111782
       7.760000      -1.027721       1.896802       2.127796
       7.770000      -1.046962       1.901342       2.143541
       7.780000      -1.067062       1.905342       2.158590
       7.790000      -1.086073       1.909384       2.172438
       7.800000      -1.101770       1.914285       2.184561
       7.810000      -1.111931       1.920805       2.194479
       7.820000      -1.114664       1.929353       2.201855
       7.830000      -1.108716       1.939791       2.206584
       7.840000      -1.093701       1.951416       2.208851
       7.850000      -1.070209       1.963094       2.209132
       7.860000      -1.039802       1.973499       2.208114
       7.870000      -1.004838       1.981387       2.206570
       7.880000      -0.968172       1.985829       2.205209
       7.890000      -0.932759       1.986387       2.204552
       7.900000      -0.901245       1.983204       2.204873
       7.910000      -0.875644       1.977016       2.206204
       7.920000      -0.857151       1.969056       2.208420
       7.930000      -0.846134       1.960836       2.211330
       7.940000      -0.842262       1.953857       2.214762
       7.950000      -0.844692       1.949331       2.218592
       7.960000      -0.852253       1.948011       2.222734
       7.970000      -0.863597       1.950213       2.227115
       7.980000      -0.877345       1.955964       2.231662
       7.990000      -0.892229       1.965200       2.236312
       8.000000      -0.907241       1.977888       2.241045
       8.010000      -0.921716       1.994028       2.245908
       8.020000      -0.935298       2.013534       2.251013
       8.030000      -0.947782       2.036073       2.256519
       8.040000      -0.958904       2.060937       2.262587
       8.050000      -0.968154       2.087030       2.269348
       8.060000      -0.974715       2.112977       2.276881
       8.070000      -0.977546       2.137341       2.285207
       8.080000      -0.975589       2.158870       2.294305
       8.090000      -0.968026       2.176714       2.304144
       8.100000      -0.954485       2.190527       2.314725
       8.110000      -0.935109       2.200436       2.326132
       8.120000      -0.910469       2.206897       2.338552
       8.130000      -0.881399       2.210528       2.352258
       8.140000      -0.848837       2.211978       2.367551
       8.150000      -0.813750       2.211860       2.384668
       8.160000      -0.777153       2.210700       2.403698
       8.170000      -0.740159       2.208871       2.424528
       8.180000      -0.703994       2.206506       2.446819
       8.190000      -0.669930       2.203482       2.470011
       8.200000      -0.639158       2.199485       2.493359
       8.210000      -0.612644       2.194190       2.515995
       8.220000      -0.591026       2.187461       2.537033
       8.230000      -0.574617       2.179474       2.555699
       8.240000      -0.563473       2.170698       2.571459
       8.250000      -0.557512       2.161722       2.584115
       8.260000      -0.556608       2.153019       2.593823
       8.270000      -0.560638       2.144748       2.601033
       8.280000      -0.569463       2.136691       2.606390
       8.290000      -0.582871       2.128343       2.610631
       8.300000      -0.600498       2.119104       2.614509
       8.310000      -0.621755       2.108460       2.618765
       8.320000      -0.645764       2.096059       2.624103
       8.330000      -0.671335       2.081669       2.631155
       8.340000      -0.697008       2.065079       2.640425
       8.350000      -0.721195       2.046061       2.652224
       8.360000      -0.742405       2.024438       2.666627
       8.370000      -0.759492       2.000223       2.683457
       8.380000      -0.771815       1.973747       2.702307
       8.390000      -0.779229       1.945680       2.722608
       8.400000      -0.781925       1.916935       2.743719
       8.410000      -0.780205       1.888492       2.765037
       8.420000      -0.774321       1.861252       2.786084
       8.430000      -0.764427       1.835997       2.806534
       8.440000      -0.750649       1.813463       2.826181
       8.450000      -0.733195       1.794448       2.844868
       8.460000      -0.712419       1.779859       2.862412
       8.470000      -0.688819       1.770672       2.878585
       8.480000      -0.662970       1.767827       2.893137
       8.490000      -0.635438       1.772117       2.905875
       8.500000      -0.606721       1.784096       2.916751
       8.510000      -0.577227       1.804002       2.925922
       8.520000      -0.547293       1.831672       2.933777
       8.530000      -0.517250       1.866442       2.940908
       8.540000      -0.487501       1.907085       2.948051
       8.550000      -0.458595       1.951817       2.955992
       8.560000      -0.431243       1.998398       2.965465
       8.570000      -0.406269       2.044323       2.977036
       8.580000      -0.384468       2.087074       2.991001
       8.590000      -0.366429       2.124386       3.007343
       8.600000      -0.352362       2.154515       3.025751
       8.610000      -0.342009       2.176430       3.045726
       8.620000      -0.334711       2.189903       3.066727
       8.630000      -0.329622       2.195456       3.088326
       8.640000      -0.325987       2.194203       3.110312
       8.650000      -0.323357       2.187642       3.132706
       8.660000      -0.321637       2.177452       3.155685
       8.670000      -0.321000       2.165350       3.179433
       8.680000      -0.321721       2.152957       3.203989
       8.690000      -0.324043       2.141664       3.229143
       8.700000      -0.328105       2.132493       3.254416
       8.710000      -0.333900       2.125989       3.279132
       8.720000      -0.341252       2.122205       3.302560
       8.730000      -0.349794       2.120741       3.324093
       8.740000      -0.359016       2.120782       3.343425
       8.750000      -0.368372       2.121085       3.360647
       8.760000      -0.377437       2.119953       3.376247
       8.770000      -0.386029       2.115323       3.390981
       8.780000      -0.394241       2.105053       3.405675
       8.790000      -0.402353       2.087405       3.421025
       8.800000      -0.410657       2.061580       3.437463
       8.810000      -0.419274       2.028104       3.455095
       8.820000      -0.428047       1.988877       3.473703
       8.830000      -0.436570       1.946824       3.492785
       8.840000      -0.444357       1.905227       3.511611
       8.850000      -0.451087       1.866926       3.529309
       8.860000      -0.456826       1.833622       3.544991
       8.870000      -0.462153       1.805483       3.557910
       8.880000      -0.468131       1.781138       3.567628
       8.890000      -0.476114       1.758063       3.574165
       8.900000      -0.487447       1.733214       3.578095
       8.910000      -0.503125       1.703745       3.580540
       8.920000      -0.523501       1.667615       3.583043
       8.930000      -0.548138       1.623929       3.587319
       8.940000      -0.575856       1.572945       3.594930
       8.950000      -0.604980       1.515810       3.606992
       8.960000      -0.633722       1.454161       3.623969
       8.970000      -0.660552       1.389781       3.645628
       8.980000      -0.684424       1.324431       3.671151
       8.990000      -0.704827       1.259829       3.699351
       9.000000      -0.721661       1.197679       3.728972
       9.010000      -0.735071       1.139629       3.758974
       9.020000      -0.745313       1.087101       3.788742
       9.030000      -0.752709       1.041027       3.818141
       9.040000      -0.757674       1.001622       3.847423
       9.050000      -0.760761       0.968278       3.877025
       9.060000      -0.762677       0.939659       3.907365
       9.070000      -0.764233       0.913950       3.938709
       9.080000      -0.766237       0.889234       3.971120
       9.090000      -0.769345       0.863885       4.004500
       9.100000      -0.773919       0.836904       4.038659
       9.110000      -0.779924       0.808062       4.073408
       9.120000      -0.786923       0.777743       4.108617
       9.130000      -0.794182       0.746534       4.144234
       9.140000      -0.800867       0.714702       4.180254
       9.150000      -0.806248       0.681833       4.216667
       9.160000      -0.809872       0.646786       4.253407
       9.170000      -0.811627       0.608011       4.290331
       9.180000      -0.811698       0.564095       4.327226
       9.190000      -0.810421       0.514366       4.363853
       9.200000      -0.808100       0.459331       4.400026
       9.210000      -0.804862       0.400814       4.435702
       9.220000      -0.800593       0.341722       4.471058
       9.230000      -0.794992       0.285500       4.506516
       9.240000      -0.787688       0.235461       4.542669
       9.250000      -0.778367       0.194206       4.580122
       9.260000      -0.766865       0.163293       4.619278
       9.270000      -0.753224       0.143212       4.660147
       9.280000      -0.737723       0.133557       4.702241
       9.290000      -0.720888       0.133294       4.744618
       9.300000      -0.703489       0.141018       4.786030
       9.310000      -0.686474       0.155140       4.825110
       9.320000      -0.670856       0.173984       4.860502
       9.330000      -0.657561       0.195796       4.890871
       9.340000      -0.647274       0.218709       4.914782
       9.350000      -0.640335       0.240718       4.930483
       9.360000      -0.636690       0.259759       4.935699
       9.370000      -0.635920       0.273919       4.927498
       9.380000      -0.637314       0.281758       4.902308
       9.390000      -0.639997       0.282649       4.856069
       9.400000      -0.643073       0.276972       4.784471
       9.410000      -0.645787       0.266080       4.683294
       9.420000      -0.647655       0.252011       4.548838
       9.430000      -0.648531       0.237077       4.378473
       9.440000      -0.648565       0.223482       4.171246
       9.450000      -0.648092       0.213059       3.928419
       9.460000      -0.647480       0.207126       3.653765
       9.470000      -0.647006       0.206425       3.353455
       9.480000      -0.646799       0.211087       3.035449
       9.490000      -0.646879       0.220645       2.708480
       9.500000      -0.647241       0.234108       2.380910
       9.510000      -0.647956       0.250102       2.059819
       9.520000      -0.649212       0.267041       1.750545
       9.530000      -0.651262       0.283298       1.456639
       9.540000      -0.654303       0.297315       1.180081
       9.550000      -0.658339       0.307687       0.921586
       9.560000      -0.663099       0.313240       0.680922
       9.570000      -0.668055       0.313128       0.457227
       9.580000      -0.672533       0.306964       0.249368
       9.590000      -0.675862       0.294943       0.056279
       9.600000      -0.677513       0.277929      -0.122746
       9.610000      -0.677171       0.257454      -0.287955
       9.620000      -0.674749       0.235608      -0.439285
       9.630000      -0.670377       0.214795      -0.576742
       9.640000      -0.664381       0.197379      -0.700870
       9.650000      -0.657268       0.185288      -0.813080
       9.660000      -0.649675       0.179681      -0.915694
       9.670000      -0.642292       0.180795      -1.011617
       9.680000      -0.635736       0.187986      -1.103723
       9.690000      -0.630444       0.199928      -1.194104
       9.700000      -0.626605       0.214856      -1.283469
       9.710000      -0.624163       0.230811      -1.370896
       9.720000      -0.622893       0.245855      -1.454083
       9.730000      -0.622490       0.258268      -1.530013
       9.740000      -0.622650       0.266726      -1.595792
       9.750000      -0.623096       0.270421      -1.649335
       9.760000      -0.623571       0.269119      -1.689717
       9.770000      -0.623829       0.263129      -1.717180
       9.780000      -0.623645       0.253194      -1.732930
       9.790000      -0.622852       0.240300      -1.738868
       9.800000      -0.621375       0.225441      -1.737300
       9.810000      -0.619244       0.209379      -1.730612
       9.820000      -0.616592       0.192451      -1.720898
       9.830000      -0.613649       0.174508      -1.709576
       9.840000      -0.610727       0.154993      -1.697105
       9.850000      -0.608176       0.133175      -1.682903
       9.860000      -0.606332       0.108459      -1.665568
       9.870000      -0.605443       0.080706      -1.643364
       9.880000      -0.605609       0.050448      -1.614836
       9.890000      -0.606786       0.018930      -1.579320
       9.900000      -0.608815      -0.012043      -1.537177
       9.910000      -0.611491      -0.040408      -1.489701
       9.920000      -0.614601      -0.064189      -1.438797
       9.930000      -0.617930      -0.081801      -1.386598
       9.940000      -0.621234      -0.092236      -1.335163
       9.950000      -0.624210      -0.095139      -1.286309
       9.960000      -0.626496      -0.090792      -1.241567
       9.970000      -0.627751      -0.080040      -1.202222
       9.980000      -0.627775      -0.064159      -1.169336
       9.990000      -0.626640      -0.044655      -1.143717
      10.000000      -0.624741      -0.023048      -1.125806
      10.010000      -0.622728      -0.000691      -1.115507
      10.020000      -0.621342       0.021306      -1.112043
      10.030000      -0.621202       0.042020      -1.113955
      10.040000      -0.622632       0.060592      -1.119311
      10.050000      -0.625570       0.076141      -1.126119
      10.060000      -0.629593       0.087796      -1.132774
      10.070000      -0.634037       0.094856      -1.138376
      10.080000      -0.638175       0.096983      -1.142777
      10.090000      -0.641411       0.094337      -1.146364
      10.100000      -0.643409       0.087568      -1.149702
      10.110000      -0.644161       0.077654      -1.153199
      10.120000      -0.643961       0.065653      -1.156914
      10.130000      -0.643334       0.052466      -1.160567
      10.140000      -0.642910       0.038697      -1.163707
      10.150000      -0.643293       0.024638      -1.165950
      10.160000      -0.644935       0.010349      -1.167187
      10.170000      -0.648029      -0.004197      -1.167687
      10.180000      -0.652439      -0.018976      -1.168079
      10.190000      -0.657689      -0.033782      -1.169205
      10.200000      -0.663030      -0.048153      -1.171890
      10.210000      -0.667581      -0.061363      -1.176656
      10.220000      -0.670515      -0.072495      -1.183447
      10.230000      -0.671232      -0.080573      -1.191469
      10.240000      -0.669456      -0.084736      -1.199220
      10.250000      -0.665232      -0.084389      -1.204727
      10.260000      -0.658856      -0.079314      -1.205949
      10.270000      -0.650765      -0.069690      -1.201197
      10.280000      -0.641442      -0.056032      -1.189476
      10.290000      -0.631357      -0.039066      -1.170637
      10.300000      -0.620924      -0.019582      -1.145352
      10.310000      -0.610488       0.001695      -1.114946
      10.320000      -0.600296       0.024211      -1.081156
      10.330000      -0.590480       0.047652      -1.045863
      10.340000      -0.581057       0.071957      -1.010840
      10.350000      -0.571959       0.097237      -0.977553
      10.360000      -0.563083       0.123602      -0.947030
      10.370000      -0.554353       0.150932      -0.919849
      10.380000      -0.545755       0.178679      -0.896231
      10.390000      -0.537348       0.205786      -0.876217
      10.400000      -0.529249       0.230739      -0.859830
      10.410000      -0.521603       0.251761      -0.847163
      10.420000      -0.514541       0.267075      -0.838338
      10.430000      -0.508126       0.275211      -0.833373
      10.440000      -0.502303       0.275263      -0.832021
      10.450000      -0.496866       0.267056      -0.833679
      10.460000      -0.491485       0.251163      -0.837404
      10.470000      -0.485789       0.228784      -0.842041
      10.480000      -0.479474       0.201550      -0.846398
      10.490000      -0.472402       0.171319      -0.849397
      10.500000      -0.464630       0.140006      -0.850172
      10.510000      -0.456365       0.109434      -0.848106
      10.520000      -0.447872       0.081193      -0.842847
      10.530000      -0.439379       0.056490      -0.834313
      10.540000      -0.431008       0.036017      -0.822702
      10.550000      -0.422753       0.019873      -0.808492
      10.560000      -0.414501       0.007601      -0.792395
      10.570000      -0.406082      -0.001664      -0.775271
      10.580000      -0.397336      -0.008968      -0.758013
      10.590000      -0.388179      -0.015293      -0.741442
      10.600000      -0.378657      -0.021375      -0.726233
      10.610000      -0.368954      -0.027618      -0.712877
      10.620000      -0.359359      -0.034098      -0.701656
      10.630000      -0.350186      -0.040627      -0.692615
      10.640000      -0.341695      -0.046833      -0.685553
      10.650000      -0.334025      -0.052237      -0.680048
      10.660000      -0.327175      -0.056308      -0.675561
      10.670000      -0.321027      -0.058492      -0.671572
      10.680000      -0.315396      -0.058257      -0.667713
      10.690000      -0.310082      -0.055155      -0.663820
      10.700000      -0.304921      -0.048931      -0.659897
      10.710000      -0.299816      -0.039648      -0.656039
      10.720000      -0.294783      -0.027784      -0.652367
      10.730000      -0.289969      -0.014251      -0.649005
      10.740000      -0.285672      -0.000303      -0.646076
      10.750000      -0.282324       0.012641      -0.643688
      10.760000      -0.280462       0.023208      -0.641875
      10.770000      -0.280672       0.030245      -0.640512
      10.780000      -0.283522       0.032911      -0.639226
      10.790000      -0.289484       0.030698      -0.637374
      10.800000      -0.298851       0.023408      -0.634111
      10.810000      -0.311678       0.011129      -0.628540
      10.820000      -0.327741      -0.005763      -0.619904
      10.830000      -0.346563      -0.026605      -0.607728
      10.840000      -0.367477      -0.050465      -0.591891
      10.850000      -0.389743      -0.076199      -0.572592
      10.860000      -0.412665      -0.102518      -0.550272
      10.870000      -0.435685      -0.128057      -0.525519
      10.880000      -0.458422      -0.151435      -0.498985
      10.890000      -0.480637      -0.171325      -0.471316
      10.900000      -0.502167      -0.186557      -0.443101
      10.910000      -0.522833      -0.196253      -0.414832
      10.920000      -0.542392      -0.199955      -0.386860
      10.930000      -0.560515      -0.197691      -0.359375
      10.940000      -0.576806      -0.189956      -0.332385
      10.950000      -0.590836      -0.177623      -0.305737
      10.960000      -0.602184      -0.161799      -0.279164
      10.970000      -0.610489      -0.143696      -0.252365
      10.980000      -0.615504      -0.124490      -0.225075
      10.990000      -0.617135      -0.105195      -0.197132
      11.000000      -0.615438      -0.086542      -0.168507
      11.010000      -0.610594      -0.068885      -0.139314
      11.020000      -0.602858      -0.052208      -0.109811
      11.030000      -0.592523      -0.036212      -0.080367
      11.040000      -0.579917      -0.020495      -0.051421
      11.050000      -0.565398      -0.004736      -0.023418
      11.060000      -0.549365       0.011179       0.003274
      11.070000      -0.532244       0.027115       0.028433
      11.080000      -0.514460       0.042738       0.052055
      11.090000      -0.496414       0.057610       0.074364
      11.100000      -0.478453       0.071315       0.095779
      11.110000      -0.460853       0.083556       0.116817
      11.120000      -0.443807       0.094226       0.137966
      11.130000      -0.427424       0.103400       0.159568
      11.140000      -0.411744       0.111293       0.181755
      11.150000      -0.396758       0.118183       0.204436
      11.160000      -0.382452       0.124355       0.227350
      11.170000      -0.368827       0.130065       0.250146
      11.180000      -0.355928       0.135528       0.272466
      11.190000      -0.343839       0.140924       0.294017
      11.200000      -0.332657       0.146405       0.314596
      11.210000      -0.322459       0.152111       0.334072
      11.220000      -0.313256       0.158189       0.352330
      11.230000      -0.304961       0.164808       0.369198
      11.240000      -0.297385       0.172149       0.384402
      11.250000      -0.290265       0.180360       0.397562
      11.260000      -0.283308       0.189476       0.408253
      11.270000      -0.276252       0.199327       0.416100
      11.280000      -0.268916       0.209462       0.420875
      11.290000      -0.261227       0.219122       0.422576
      11.300000      -0.253240       0.227293       0.421446
      11.310000      -0.245132       0.232825       0.417950
      11.320000      -0.237182       0.234625       0.412691
      11.330000      -0.229732       0.231854       0.406318
      11.340000      -0.223135       0.224098       0.399439
      11.350000      -0.217715       0.211464       0.392563
      11.360000      -0.213740       0.194574       0.386102
      11.370000      -0.211405       0.174454       0.380389
      11.380000      -0.210840       0.152339       0.375709
      11.390000      -0.212109       0.129447       0.372315
      11.400000      -0.215202       0.106801       0.370436
      11.410000      -0.220031       0.085117       0.370262
      11.420000      -0.226405       0.064793       0.371935
      11.430000      -0.234025       0.045961       0.375523
      11.440000      -0.242481       0.028577       0.381009
      11.450000      -0.251276       0.012549       0.388282
      11.460000      -0.259876      -0.002150       0.397147
      11.470000      -0.267773      -0.015407       0.407349
      11.480000      -0.274537      -0.026981       0.418609
      11.490000      -0.279852      -0.036600       0.430662
      11.500000      -0.283508      -0.044081       0.443291
      11.510000      -0.285375      -0.049400       0.456347
      11.520000      -0.285373      -0.052681       0.469748
      11.530000      -0.283450      -0.054100       0.483453
      11.540000      -0.279602      -0.053781       0.497418
      11.550000      -0.273898      -0.051761       0.511551
      11.560000      -0.266521      -0.048050       0.525690
      11.570000      -0.257788      -0.042758       0.539612
      11.580000      -0.248131      -0.036184       0.553098
      11.590000      -0.238043      -0.028816       0.566002
      11.600000      -0.227995      -0.021217       0.578327
      11.610000      -0.218356      -0.013840       0.590269
      11.620000      -0.209330      -0.006865       0.602206
      11.630000      -0.200948      -0.000110       0.614630
      11.640000      -0.193107       0.006925       0.628036
      11.650000      -0.185645       0.014921       0.642798
      11.660000      -0.178412       0.024547       0.659068
      11.670000      -0.171326       0.036285       0.676739
      11.680000      -0.164375       0.050319       0.695481
      11.690000      -0.157601       0.066491       0.714833
      11.700000      -0.151062       0.084336       0.734318
      11.710000      -0.144805       0.103135       0.753554
      11.720000      -0.138845       0.121999       0.772320
      11.730000      -0.133168       0.139957       0.790576
      11.740000      -0.127745       0.156056       0.808430
      11.750000      -0.122558       0.169438       0.826087
      11.760000      -0.117629       0.179416       0.843795
      11.770000      -0.113029       0.185518       0.861794
      11.780000      -0.108868       0.187534       0.880285
      11.790000      -0.105265       0.185539       0.899407
      11.800000      -0.102311       0.179923       0.919218
      11.810000      -0.100057       0.171367       0.939694
      11.820000      -0.098521       0.160786       0.960728
      11.830000      -0.097719       0.149221       0.982152
      11.840000      -0.097695       0.137700       1.003746
      11.850000      -0.098535       0.127116       1.025245
      11.860000      -0.100352       0.118128       1.046340
      11.870000      -0.103252       0.111126       1.066666
      11.880000      -0.107300       0.106250       1.085790
      11.890000      -0.112484       0.103460       1.103207
      11.900000      -0.118711       0.102634       1.118335
      11.910000      -0.125818       0.103648       1.130533
      11.920000      -0.133604       0.106421       1.139137
      11.930000      -0.141865       0.110901       1.143502
      11.940000      -0.150434       0.117024       1.143038
      11.950000      -0.159209       0.124663       1.137239
      11.960000      -0.168159       0.133593       1.125683
      11.970000      -0.177311       0.143508       1.108027
      11.980000      -0.186713       0.154064       1.083990
      11.990000      -0.196377       0.164935       1.053351
      12.000000      -0.206236       0.175864       1.015970
      12.010000      -0.216114       0.186677       0.971827
      12.020000      -0.225718       0.197278       0.921095
      12.030000      -0.234671       0.207619       0.864212
      12.040000      -0.242559       0.217703       0.801955
      12.050000      -0.248990       0.227591       0.735505
      12.060000      -0.253665       0.237424       0.666467
      12.070000      -0.256420       0.247420       0.596817
      12.080000      -0.257257       0.257828       0.528781
      12.090000      -0.256344       0.268868       0.464619
      12.100000      -0.253989       0.280678       0.406384
      12.110000      -0.250588       0.293290       0.355685
      12.120000      -0.246570       0.306650       0.313530
      12.130000      -0.242324       0.320656       0.280276
      12.140000      -0.238143       0.335197       0.255665
      12.150000      -0.234178       0.350159       0.238936
      12.160000      -0.230420       0.365385       0.228939
      12.170000      -0.226727       0.380611       0.224226
      12.180000      -0.222882       0.395403       0.223122
      12.190000      -0.218672       0.409143       0.223781
      12.200000      -0.213951       0.421080       0.224263
      12.210000      -0.208673       0.430433       0.222650
      12.220000      -0.202894       0.436524       0.217196
      12.230000      -0.196749       0.438919       0.206518
      12.240000      -0.190417       0.437541       0.189769
      12.250000      -0.184091       0.432741       0.166794
      12.260000      -0.177955       0.425308       0.138193
      12.270000      -0.172169       0.416399       0.105286
      12.280000      -0.166861       0.407377       0.069952
      12.290000      -0.162124       0.399581       0.034377
      12.300000      -0.158024       0.394088       0.000746
      12.310000      -0.154604       0.391503      -0.029042
      12.320000      -0.151883       0.391870      -0.053599
      12.330000      -0.149855       0.394697      -0.072183
      12.340000      -0.148488       0.399104      -0.084728
      12.350000      -0.147724       0.404015      -0.091757
      12.360000      -0.147497       0.408363      -0.094236
      12.370000      -0.147747       0.411236      -0.093378
      12.380000      -0.148435       0.411941      -0.090450
      12.390000      -0.149553       0.410008      -0.086606
      12.400000      -0.151114       0.405152      -0.082776
      12.410000      -0.153130       0.397251      -0.079623
      12.420000      -0.155579       0.386352      -0.077567
      12.430000      -0.158377       0.372690      -0.076867
      12.440000      -0.161365       0.356711      -0.077699
      12.450000      -0.164314       0.339068      -0.080223
      12.460000      -0.166957       0.320600      -0.084596
      12.470000      -0.169013       0.302261      -0.090950
      12.480000      -0.170232       0.285028      -0.099374
      12.490000      -0.170421       0.269760      -0.109906
      12.500000      -0.169467       0.257051      -0.122559
      12.510000      -0.167354       0.247120      -0.137354
      12.520000      -0.164161       0.239777      -0.154337
      12.530000      -0.160044       0.234495      -0.173567
      12.540000      -0.155210       0.230551      -0.195072
      12.550000      -0.149881       0.227210      -0.218780
      12.560000      -0.144274       0.223890      -0.244459
      12.570000      -0.138582       0.220295      -0.271664
      12.580000      -0.132969       0.216446      -0.299746
      12.590000      -0.127560       0.212625      -0.327900
      12.600000      -0.122440       0.209229      -0.355288
      12.610000      -0.117643       0.206610      -0.381168
      12.620000      -0.113157       0.204952      -0.405000
      12.630000      -0.108936       0.204242      -0.426479
      12.640000      -0.104915       0.204314      -0.445470
      12.650000      -0.101039       0.204943      -0.461913
      12.660000      -0.097273       0.205923      -0.475733
      12.670000      -0.093621       0.207111      -0.486819
      12.680000      -0.090117       0.208392      -0.495052
      12.690000      -0.086818       0.209624      -0.500354
      12.700000      -0.083766       0.210591      -0.502713
      12.710000      -0.080966       0.211028      -0.502182
      12.720000      -0.078357       0.210702      -0.498872
      12.730000      -0.075818       0.209535      -0.492949
      12.740000      -0.073187       0.207687      -0.484649
      12.750000      -0.070316       0.205565      -0.474297
      12.760000      -0.067110       0.203741      -0.462310
      12.770000      -0.063554       0.202798      -0.449180
      12.780000      -0.059713       0.203151      -0.435442
      12.790000      -0.055706       0.204902      -0.421621
      12.800000      -0.051669       0.207766      -0.408183
      12.810000      -0.047726       0.211105      -0.395475
      12.820000      -0.043971       0.214052      -0.383691
      12.830000      -0.040466       0.215700      -0.372844
      12.840000      -0.037252       0.215303      -0.362775
      12.850000      -0.034362       0.212440      -0.353199
      12.860000      -0.031838       0.207113      -0.343764
      12.870000      -0.029718       0.199745      -0.334131
      12.880000      -0.028018       0.191101      -0.324038
      12.890000      -0.026707       0.182129      -0.313353
      12.900000      -0.025687       0.173782      -0.302098
      12.910000      -0.024799       0.166834      -0.290457
      12.920000      -0.023859       0.161757      -0.278747
      12.930000      -0.022701       0.158654      -0.267391
      12.940000      -0.021236       0.157278      -0.256860
      12.950000      -0.019477       0.157105      -0.247625
      12.960000      -0.017529       0.157448      -0.240113
      12.970000      -0.015558       0.157587      -0.234672
      12.980000      -0.013741       0.156890      -0.231544
      12.990000      -0.012224       0.154899      -0.230866
      13.000000      -0.011105       0.151371      -0.232665
      13.010000      -0.010434       0.146272      -0.236882
      13.020000      -0.010229       0.139729      -0.243385
      13.030000      -0.010491       0.131971      -0.251965
      13.040000      -0.011218       0.123262      -0.262327
      13.050000      -0.012419       0.113847      -0.274075
      13.060000      -0.014113       0.103918      -0.286711
      13.070000      -0.016326       0.093603      -0.299659
      13.080000      -0.019077       0.082987      -0.312298
      13.090000      -0.022355       0.072139      -0.323994
      13.100000      -0.026094       0.061132      -0.334129
      13.110000      -0.030168       0.050027      -0.342144
      13.120000      -0.034382       0.038853      -0.347600
      13.130000      -0.038492       0.027598      -0.350254
      13.140000      -0.042240       0.016242      -0.350114
      13.150000      -0.045389       0.004835      -0.347447
      13.160000      -0.047765      -0.006414      -0.342735
      13.170000      -0.049281      -0.017095      -0.336594
      13.180000      -0.049929      -0.026619      -0.329669
      13.190000      -0.049749      -0.034323      -0.322548
      13.200000      -0.048795      -0.039607      -0.315686
      13.210000      -0.047096      -0.042053      -0.309370
      13.220000      -0.044651      -0.041495      -0.303718
      13.230000      -0.041440      -0.038024      -0.298697
      13.240000      -0.037447      -0.031950      -0.294170
      13.250000      -0.032690      -0.023742      -0.289922
      13.260000      -0.027230      -0.013967      -0.285699
      13.270000      -0.021171      -0.003230      -0.281221
      13.280000      -0.014646       0.007867      -0.276212
      13.290000      -0.007805       0.018755      -0.270435
      13.300000      -0.000799       0.028906      -0.263730
      13.310000       0.006222       0.037837      -0.256034
      13.320000       0.013115       0.045109      -0.247383
      13.330000       0.019741       0.050350      -0.237886
      13.340000       0.025970       0.053316      -0.227696
      13.350000       0.031688       0.053953      -0.216972
      13.360000       0.036801       0.052451      -0.205860
      13.370000       0.041242       0.049237      -0.194468
      13.380000       0.044979       0.044924      -0.182853
      13.390000       0.048020       0.040202      -0.171009
      13.400000       0.050417       0.035725      -0.158871
      13.410000       0.052274       0.032006      -0.146344
      13.420000       0.053744       0.029362      -0.133344
      13.430000       0.055017       0.027896      -0.119842
      13.440000       0.056298       0.027516      -0.105901
      13.450000       0.057787       0.027993      -0.091683
      13.460000       0.059653       0.029025      -0.077431
      13.470000       0.062019       0.030327      -0.063446
      13.480000       0.064964       0.031711      -0.050057
      13.490000       0.068519       0.033126      -0.037598
      13.500000       0.072667       0.034665      -0.026389
      13.510000       0.077350       0.036520      -0.016726
      13.520000       0.082476       0.038929      -0.008856
      13.530000       0.087926       0.042118      -0.002949
      13.540000       0.093575       0.046257       0.000925
      13.550000       0.099299       0.051419       0.002824
      13.560000       0.104992       0.057553       0.002954
      13.570000       0.110563       0.064458       0.001680
      13.580000       0.115937       0.071788      -0.000473
      13.590000       0.121053       0.079089      -0.002849
      13.600000       0.125856       0.085872      -0.004735
      13.610000       0.130300       0.091709      -0.005451
      13.620000       0.134354       0.096318      -0.004456
      13.630000       0.138007       0.099613      -0.001429
      13.640000       0.141268       0.101704       0.003715
      13.650000       0.144163       0.102854       0.010857
      13.660000       0.146726       0.103394       0.019741
      13.670000       0.148991       0.103653       0.030054
      13.680000       0.150996       0.103895       0.041480
      13.690000       0.152782       0.104291       0.053717
      13.700000       0.154395       0.104904       0.066480
      13.710000       0.155890       0.105690       0.079473
      13.720000       0.157320       0.106497       0.092381
      13.730000       0.158725       0.107079       0.104868
      13.740000       0.160122       0.107139       0.116598
      13.750000       0.161511       0.106395       0.127268
      13.760000       0.162876       0.104665       0.136635
      13.770000       0.164204       0.101944       0.144530
      13.780000       0.165494       0.098439       0.150863
      13.790000       0.166760       0.094540       0.155611
      13.800000       0.168027       0.090732       0.158813
      13.810000       0.169333       0.087471       0.160566
      13.820000       0.170713       0.085072       0.161009
      13.830000       0.172195       0.083660       0.160308
      13.840000       0.173789       0.083193       0.158625
      13.850000       0.175487       0.083547       0.156090
      13.860000       0.177259       0.084621       0.152791
      13.870000       0.179069       0.086401       0.148776
      13.880000       0.180887       0.088968       0.144089
      13.890000       0.182701       0.092462       0.138821
      13.900000       0.184529       0.097002       0.133151
      13.910000       0.186416       0.102615       0.127357
      13.920000       0.188425       0.109198       0.121796
      13.930000       0.190617       0.116519       0.116838
      13.940000       0.193031       0.124257       0.112797
      13.950000       0.195663       0.132054       0.109880
      13.960000       0.198470       0.139556       0.108164
      13.970000       0.201372       0.146443       0.107603
      13.980000       0.204276       0.152433       0.108065
      13.990000       0.207093       0.157290       0.109354
      14.000000       0.209749       0.160853       0.111244
      14.010000       0.212180       0.163059       0.113490
      14.020000       0.214314       0.163956       0.115852
      14.030000       0.216067       0.163693       0.118106
      14.040000       0.217337       0.162471       0.120053
      14.050000       0.218023       0.160483       0.121524
      14.060000       0.218046       0.157871       0.122373
      14.070000       0.217368       0.154730       0.122483
      14.080000       0.216007       0.151135       0.121760
      14.090000       0.214031       0.147186       0.120129
      14.100000       0.211555       0.143037       0.117526
      14.110000       0.208721       0.138885       0.113882
      14.120000       0.205686       0.134928       0.109132
      14.130000       0.202611       0.131324       0.103222
      14.140000       0.199652       0.128156       0.096153
      14.150000       0.196955       0.125433       0.088018
      14.160000       0.194655       0.123092       0.079036
      14.170000       0.192868       0.121013       0.069557
      14.180000       0.191682       0.119040       0.060041
      14.190000       0.191145       0.117007       0.051011
      14.200000       0.191253       0.114767       0.042978
      14.210000       0.191952       0.112214       0.036363
      14.220000       0.193148       0.109286       0.031426
      14.230000       0.194718       0.105964       0.028239
      14.240000       0.196536       0.102266       0.026687
      14.250000       0.198487       0.098239       0.026519
      14.260000       0.200483       0.093980       0.027413
      14.270000       0.202474       0.089652       0.029043
      14.280000       0.204449       0.085501       0.031130
      14.290000       0.206439       0.081843       0.033462
      14.300000       0.208501       0.079028       0.035886
      14.310000       0.210700       0.077364       0.038295
      14.320000       0.213087       0.077050       0.040598
      14.330000       0.215686       0.078125       0.042713
      14.340000       0.218485       0.080450       0.044551
      14.350000       0.221452       0.083730       0.046021
      14.360000       0.224537       0.087569       0.047029
      14.370000       0.227688       0.091524       0.047477
      14.380000       0.230855       0.095174       0.047285
      14.390000       0.233997       0.098182       0.046409
      14.400000       0.237086       0.100360       0.044876
      14.410000       0.240112       0.101737       0.042802
      14.420000       0.243075       0.102578       0.040397
      14.430000       0.245979       0.103355       0.037939
      14.440000       0.248821       0.104649       0.035739
      14.450000       0.251578       0.107008       0.034096
      14.460000       0.254210       0.110810       0.033253
      14.470000       0.256662       0.116189       0.033375
      14.480000       0.258874       0.123029       0.034529
      14.490000       0.260793       0.131026       0.036686
      14.500000       0.262378       0.139794       0.039726
      14.510000       0.263604       0.148952       0.043461
      14.520000       0.264458       0.158192       0.047666
      14.530000       0.264943       0.167295       0.052107
      14.540000       0.265076       0.176102       0.056577
      14.550000       0.264894       0.184455       0.060916
      14.560000       0.264455       0.192153       0.065031
      14.570000       0.263836       0.198937       0.068897
      14.580000       0.263120       0.204512       0.072557
      14.590000       0.262389       0.208605       0.076109
      14.600000       0.261706       0.211035       0.079686
      14.610000       0.261124       0.211768       0.083429
      14.620000       0.260687       0.210946       0.087452
      14.630000       0.260436       0.208858       0.091824
      14.640000       0.260413       0.205872       0.096554
      14.650000       0.260656       0.202336       0.101594
      14.660000       0.261187       0.198506       0.106849
      14.670000       0.262010       0.194512       0.112195
      14.680000       0.263109       0.190384       0.117499
      14.690000       0.264447       0.186098       0.122627
      14.700000       0.265976       0.181624       0.127461
      14.710000       0.267643       0.176939       0.131897
      14.720000       0.269391       0.172025       0.135849
      14.730000       0.271175       0.166851       0.139245
      14.740000       0.272960       0.161378       0.142028
      14.750000       0.274733       0.155575       0.144160
      14.760000       0.276500       0.149446       0.145621
      14.770000       0.278280       0.143049       0.146412
      14.780000       0.280095       0.136482       0.146549
      14.790000       0.281963       0.129870       0.146069
      14.800000       0.283886       0.123353       0.145028
      14.810000       0.285855       0.117081       0.143518
      14.820000       0.287856       0.111236       0.141670
      14.830000       0.289877       0.106033       0.139651
      14.840000       0.291914       0.101700       0.137641
      14.850000       0.293970       0.098446       0.135801
      14.860000       0.296046       0.096410       0.134233
      14.870000       0.298131       0.095641       0.132971
      14.880000       0.300194       0.096092       0.131980
      14.890000       0.302179       0.097644       0.131189
      14.900000       0.304005       0.100134       0.130527
      14.910000       0.305585       0.103387       0.129959
      14.920000       0.306840       0.107243       0.129505
      14.930000       0.307712       0.111562       0.129234
      14.940000       0.308181       0.116231       0.129243
      14.950000       0.308261       0.121144       0.129623
      14.960000       0.307996       0.126190       0.130429
      14.970000       0.307455       0.131236       0.131670
      14.980000       0.306733       0.136143       0.133304
      14.990000       0.305945       0.140802       0.135250
      15.000000       0.305228       0.145156       0.137404
      15.010000       0.304720       0.149222       0.139662
      15.020000       0.304541       0.153062       0.141943
      15.030000       0.304771       0.156749       0.144203
      15.040000       0.305435       0.160319       0.146440
      15.050000       0.306507       0.163754       0.148686
      15.060000       0.307924       0.166986       0.150988
      15.070000       0.309614       0.169943       0.153388
      15.080000       0.311517       0.172601       0.155914
      15.090000       0.313600       0.175031       0.158570
      15.100000       0.315861       0.177411       0.161347
      15.110000       0.318320       0.179990       0.164227
      15.120000       0.321003       0.183033       0.167193
      15.130000       0.323925       0.186739       0.170232
      15.140000       0.327072       0.191190       0.173343
      15.150000       0.330408       0.196321       0.176537
      15.160000       0.333867       0.201926       0.179848
      15.170000       0.337372       0.207699       0.183329
      15.180000       0.340836       0.213276       0.187047
      15.190000       0.344183       0.218295       0.191074
      15.200000       0.347352       0.222441       0.195466
      15.210000       0.350307       0.225474       0.200256
      15.220000       0.353041       0.227243       0.205446
      15.230000       0.355565       0.227687       0.211012
      15.240000       0.357912       0.226826       0.216912
      15.250000       0.360116       0.224750       0.223096
      15.260000       0.362215       0.221608       0.229519
      15.270000       0.364239       0.217582       0.236136
      15.280000       0.366210       0.212857       0.242906
      15.290000       0.368140       0.207588       0.249782
      15.300000       0.370032       0.201894       0.256705
      15.310000       0.371887       0.195868       0.263601
      15.320000       0.373708       0.189615       0.270375
      15.330000       0.375505       0.183279       0.276914
      15.340000       0.377288       0.177039       0.283083
      15.350000       0.379064       0.171093       0.288720
      15.360000       0.380825       0.165611       0.293638
      15.370000       0.382546       0.160713       0.297623
      15.380000       0.384184       0.156466       0.300443
      15.390000       0.385686       0.152901       0.301866
      15.400000       0.386984       0.150036       0.301688
      15.410000       0.388007       0.147901       0.299763
      15.420000       0.388675       0.146545       0.296045
      15.430000       0.388902       0.146035       0.290613
      15.440000       0.388602       0.146440       0.283688
      15.450000       0.387695       0.147809       0.275630
      15.460000       0.386123       0.150144       0.266914
      15.470000       0.383862       0.153391       0.258089
      15.480000       0.380934       0.157446       0.249725
      15.490000       0.377406       0.162171       0.242346
      15.500000       0.373393       0.167414       0.236370
      15.510000       0.369050       0.173016       0.232062
      15.520000       0.364563       0.178818       0.229515
      15.530000       0.360135       0.184657       0.228666
      15.540000       0.355975       0.190370       0.229327
      15.550000       0.352268       0.195795       0.231232
      15.560000       0.349161       0.200779       0.234078
      15.570000       0.346739       0.205188       0.237560
      15.580000       0.345024       0.208915       0.241393
      15.590000       0.343984       0.211898       0.245332
      15.600000       0.343545       0.214116       0.249186
      15.610000       0.343616       0.215589       0.252824
      15.620000       0.344102       0.216365       0.256185
      15.630000       0.344918       0.216501       0.259273
      15.640000       0.345990       0.216055       0.262152
      15.650000       0.347263       0.215081       0.264922
      15.660000       0.348690       0.213621       0.267697
      15.670000       0.350233       0.211713       0.270575
      15.680000       0.351852       0.209393       0.273623
      15.690000       0.353511       0.206704       0.276863
      15.700000       0.355172       0.203710       0.280281
      15.710000       0.356805       0.200502       0.283838
      15.720000       0.358385       0.197194       0.287485
      15.730000       0.359896       0.193909       0.291180
      15.740000       0.361336       0.190765       0.294897
      15.750000       0.362705       0.187867       0.298630
      15.760000       0.364013       0.185308       0.302397
      15.770000       0.365274       0.183185       0.306232
      15.780000       0.366512       0.181607       0.310179
      15.790000       0.367756       0.180702       0.314279
      15.800000       0.369040       0.180606       0.318557
      15.810000       0.370396       0.181438       0.323019
      15.820000       0.371842       0.183270       0.327648
      15.830000       0.373380       0.186105       0.332414
      15.840000       0.374996       0.189867       0.337280
      15.850000       0.376663       0.194411       0.342211
      15.860000       0.378346       0.199541       0.347179
      15.870000       0.380006       0.205031       0.352166
      15.880000       0.381606       0.210650       0.357157
      15.890000       0.383106       0.216179       0.362136
      15.900000       0.384474       0.221419       0.367082
      15.910000       0.385691       0.226205       0.371966
      15.920000       0.386750       0.230415       0.376754
      15.930000       0.387665       0.233978       0.381408
      15.940000       0.388466       0.236880       0.385892
      15.950000       0.389196       0.239161       0.390169
      15.960000       0.389903       0.240895       0.394195
      15.970000       0.390629       0.242161       0.397922
      15.980000       0.391410       0.243011       0.401287
      15.990000       0.392271       0.243452       0.404212
      16.000000       0.393234       0.243448       0.406612
      16.010000       0.394321       0.242940       0.408403
      16.020000       0.395559       0.241880       0.409514
      16.030000       0.396973       0.240247       0.409897
      16.040000       0.398590       0.238071       0.409533
      16.050000       0.400427       0.235433       0.408442
      16.060000       0.402491       0.232460       0.406689
      16.070000       0.404779       0.229326       0.404389
      16.080000       0.407279       0.226233       0.401709
      16.090000       0.409969       0.223404       0.398860
      16.100000       0.412826       0.221069       0.396078
      16.110000       0.415826       0.219450       0.393605
      16.120000       0.418943       0.218743       0.391656
      16.130000       0.422151       0.219096       0.390394
      16.140000       0.425418       0.220588       0.389910
      16.150000       0.428706       0.223217       0.390218
      16.160000       0.431969       0.226897       0.391263
      16.170000       0.435158       0.231469       0.392936
      16.180000       0.438225       0.236718       0.395100
      16.190000       0.441127       0.242403       0.397605
      16.200000       0.443834       0.248279       0.400306
      16.210000       0.446328       0.254124       0.403071
      16.220000       0.448603       0.259751       0.405796
      16.230000       0.450661       0.265020       0.408407
      16.240000       0.452508       0.269835       0.410868
      16.250000       0.454159       0.274136       0.413174
      16.260000       0.455627       0.277880       0.415354
      16.270000       0.456924       0.281019       0.417459
      16.280000       0.458056       0.283490       0.419554
      16.290000       0.459017       0.285206       0.421710
      16.300000       0.459788       0.286071       0.423990
      16.310000       0.460344       0.286003       0.426442
      16.320000       0.460666       0.284967       0.429101
      16.330000       0.460751       0.282993       0.431985
      16.340000       0.460624       0.280183       0.435102
      16.350000       0.460339       0.276700       0.438451
      16.360000       0.459960       0.272737       0.442030
      16.370000       0.459554       0.268489       0.445832
      16.380000       0.459166       0.264136       0.449847
      16.390000       0.458819       0.259832       0.454059
      16.400000       0.458505       0.255719       0.458442
      16.410000       0.458197       0.251939       0.462956
      16.420000       0.457859       0.248637       0.467552
      16.430000       0.457455       0.245950       0.472169
      16.440000       0.456958       0.243998       0.476740
      16.450000       0.456356       0.242870       0.481200
      16.460000       0.455653       0.242614       0.485483
      16.470000       0.454861       0.243243       0.489538
      16.480000       0.454000       0.244730       0.493323
      16.490000       0.453083       0.247009       0.496817
      16.500000       0.452118       0.249979       0.500013
      16.510000       0.451101       0.253509       0.502920
      16.520000       0.450015       0.257450       0.505562
      16.530000       0.448842       0.261654       0.507970
      16.540000       0.447565       0.265990       0.510180
      16.550000       0.446177       0.270356       0.512223
      16.560000       0.444695       0.274687       0.514123
      16.570000       0.443156       0.278952       0.515902
      16.580000       0.441626       0.283147       0.517587
      16.590000       0.440190       0.287286       0.519217
      16.600000       0.438944       0.291389       0.520847
      16.610000       0.437976       0.295482       0.522541
      16.620000       0.437346       0.299590       0.524359
      16.630000       0.437079       0.303733       0.526346
      16.640000       0.437157       0.307911       0.528523
      16.650000       0.437529       0.312093       0.530888
      16.660000       0.438121       0.316207       0.533420
      16.670000       0.438858       0.320148       0.536085
      16.680000       0.439679       0.323792       0.538840
      16.690000       0.440545       0.327028       0.541644
      16.700000       0.441444       0.329779       0.544460
      16.710000       0.442388       0.332017       0.547260
      16.720000       0.443401       0.333766       0.550029
      16.730000       0.444506       0.335076       0.552767
      16.740000       0.445716       0.336003       0.555484
      16.750000       0.447024       0.336577       0.558206
      16.760000       0.448402       0.336789       0.560963
      16.770000       0.449806       0.336594       0.563793
      16.780000       0.451182       0.335919       0.566732
      16.790000       0.452475       0.334683       0.569804
      16.800000       0.453637       0.332827       0.573018
      16.810000       0.454639       0.330340       0.576355
      16.820000       0.455473       0.327284       0.579774
      16.830000       0.456158       0.323804       0.583214
      16.840000       0.456742       0.320115       0.586609
      16.850000       0.457293       0.316470       0.589898
      16.860000       0.457887       0.313125       0.593039
      16.870000       0.458596       0.310311       0.596011
      16.880000       0.459474       0.308215       0.598813
      16.890000       0.460554       0.306969       0.601455
      16.900000       0.461846       0.306651       0.603950
      16.910000       0.463342       0.307276       0.606305
      16.920000       0.465021       0.308808       0.608517
      16.930000       0.466857       0.311157       0.610569
      16.940000       0.468821       0.314200       0.612434
      16.950000       0.470887       0.317782       0.614076
      16.960000       0.473029       0.321724       0.615460
      16.970000       0.475225       0.325829       0.616558
      16.980000       0.477451       0.329885       0.617354
      16.990000       0.479682       0.333683       0.617838
      17.000000       0.481894       0.337037       0.617996
      17.010000       0.484058       0.339813       0.617790
      17.020000       0.486156       0.341965       0.617146
      17.030000       0.488180       0.343542       0.615960
      17.040000       0.490135       0.344690       0.614117
      17.050000       0.492034       0.345613       0.611526
      17.060000       0.493892       0.346518       0.608145
      17.070000       0.495715       0.347568       0.604000
      17.080000       0.497495       0.348845       0.599172
      17.090000       0.499215       0.350350       0.593787
      17.100000       0.500847       0.352017       0.587988
      17.110000       0.502365       0.353746       0.581933
      17.120000       0.503750       0.355426       0.575793
      17.130000       0.504990       0.356967       0.569754
      17.140000       0.506084       0.358316       0.564014
      17.150000       0.507040       0.359463       0.558775
      17.160000       0.507873       0.360436       0.554221
      17.170000       0.508602       0.361291       0.550491
      17.180000       0.509250       0.362100       0.547660
      17.190000       0.509845       0.362937       0.545724
      17.200000       0.510417       0.363884       0.544607
      17.210000       0.510999       0.365018       0.544187
      17.220000       0.511619       0.366420       0.544324
      17.230000       0.512298       0.368152       0.544889
      17.240000       0.513041       0.370258       0.545769
      17.250000       0.513838       0.372739       0.546878
      17.260000       0.514665       0.375559       0.548144
      17.270000       0.515484       0.378647       0.549503
      17.280000       0.516251       0.381910       0.550892
      17.290000       0.516925       0.385251       0.552242
      17.300000       0.517473       0.388583       0.553473
      17.310000       0.517879       0.391828       0.554497
      17.320000       0.518145       0.394912       0.555218
      17.330000       0.518292       0.397762       0.555541
      17.340000       0.518346       0.400302       0.555389
      17.350000       0.518330       0.402462       0.554721
      17.360000       0.518255       0.404195       0.553553
      17.370000       0.518115       0.405487       0.551964
      17.380000       0.517896       0.406360       0.550092
      17.390000       0.517579       0.406867       0.548113
      17.400000       0.517151       0.407069       0.546209
      17.410000       0.516607       0.407028       0.544539
      17.420000       0.515956       0.406791       0.543222
      17.430000       0.515216       0.406387       0.542328
      17.440000       0.514413       0.405837       0.541886
      17.450000       0.513578       0.405155       0.541888
      17.460000       0.512740       0.404358       0.542310
      17.470000       0.511927       0.403467       0.543109
      17.480000       0.511169       0.402514       0.544238
      17.490000       0.510494       0.401537       0.545638
      17.500000       0.509932       0.400586       0.547247
      17.510000       0.509517       0.399714       0.549001
      17.520000       0.509282       0.398982       0.550835
      17.530000       0.509262       0.398448       0.552694
      17.540000       0.509488       0.398162       0.554527
      17.550000       0.509979       0.398161       0.556290
      17.560000       0.510744       0.398459       0.557944
      17.570000       0.511779       0.399041       0.559444
      17.580000       0.513071       0.399867       0.560739
      17.590000       0.514601       0.400876       0.561765
      17.600000       0.516344       0.401994       0.562453
      17.610000       0.518272       0.403148       0.562736
      17.620000       0.520350       0.404265       0.562564
      17.630000       0.522537       0.405289       0.561918
      17.640000       0.524787       0.406176       0.560822
      17.650000       0.527052       0.406901       0.559348
      17.660000       0.529287       0.407455       0.557609
      17.670000       0.531454       0.407848       0.555745
      17.680000       0.533525       0.408107       0.553900
      17.690000       0.535485       0.408269       0.552201
      17.700000       0.537328       0.408370       0.550738
      17.710000       0.539064       0.408436       0.549561
      17.720000       0.540706       0.408478       0.548673
      17.730000       0.542277       0.408502       0.548040
      17.740000       0.543799       0.408515       0.547600
      17.750000       0.545292       0.408543       0.547278
      17.760000       0.546770       0.408626       0.546996
      17.770000       0.548238       0.408818       0.546691
      17.780000       0.549693       0.409170       0.546316
      17.790000       0.551121       0.409721       0.545850
      17.800000       0.552510       0.410498       0.545287
      17.810000       0.553847       0.411519       0.544637
      17.820000       0.555123       0.412799       0.543927
      17.830000       0.556337       0.414357       0.543202
      17.840000       0.557488       0.416208       0.542529
      17.850000       0.558575       0.418349       0.541989
      17.860000       0.559595       0.420750       0.541670
      17.870000       0.560541       0.423358       0.541647
      17.880000       0.561407       0.426097       0.541974
      17.890000       0.562187       0.428885       0.542676
      17.900000       0.562878       0.431636       0.543749
      17.910000       0.563484       0.434269       0.545167
      17.920000       0.564009       0.436704       0.546893
      17.930000       0.564454       0.438864       0.548890
      17.940000       0.564815       0.440670       0.551121
      17.950000       0.565079       0.442048       0.553555
      17.960000       0.565227       0.442944       0.556159
      17.970000       0.565235       0.443326       0.558894
      17.980000       0.565077       0.443195       0.561710
      17.990000       0.564726       0.442581       0.564541
      18.000000       0.564164       0.441540       0.567302
      18.010000       0.563385       0.440149       0.569889
      18.020000       0.562406       0.438492       0.572185
      18.030000       0.561272       0.436665       0.574072
      18.040000       0.560055       0.434765       0.575445
      18.050000       0.558847       0.432899       0.576223
      18.060000       0.557746       0.431183       0.576357
      18.070000       0.556837       0.429735       0.575830
      18.080000       0.556183       0.428664       0.574653
      18.090000       0.555814       0.428057       0.572871
      18.100000       0.555731       0.427954       0.570562
      18.110000       0.555913       0.428353       0.567841
      18.120000       0.556322       0.429204       0.564856
      18.130000       0.556914       0.430428       0.561774
      18.140000       0.557650       0.431929       0.558761
      18.150000       0.558502       0.433609       0.555964
      18.160000       0.559453       0.435377       0.553493
      18.170000       0.560494       0.437160       0.551406
      18.180000       0.561624       0.438900       0.549720
      18.190000       0.562839       0.440557       0.548414
      18.200000       0.564129       0.442102       0.547454
      18.210000       0.565476       0.443517       0.546809
      18.220000       0.566858       0.444792       0.546456
      18.230000       0.568245       0.445921       0.546384
      18.240000       0.569606       0.446903       0.546585
      18.250000       0.570914       0.447736       0.547041
      18.260000       0.572144       0.448416       0.547722
      18.270000       0.573279       0.448931       0.548582
      18.280000       0.574314       0.449267       0.549565
      18.290000       0.575254       0.449408       0.550620
      18.300000       0.576111       0.449348       0.551715
      18.310000       0.576911       0.449102       0.552846
      18.320000       0.577686       0.448708       0.554040
      18.330000       0.578470       0.448226       0.555346
      18.340000       0.579296       0.447725       0.556821
      18.350000       0.580188       0.447274       0.558514
      18.360000       0.581161       0.446933       0.560452
      18.370000       0.582213       0.446753       0.562634
      18.380000       0.583329       0.446771       0.565027
      18.390000       0.584484       0.447010       0.567567
      18.400000       0.585648       0.447479       0.570161
      18.410000       0.586785       0.448167       0.572694
      18.420000       0.587863       0.449052       0.575037
      18.430000       0.588854       0.450108       0.577066
      18.440000       0.589735       0.451314       0.578673
      18.450000       0.590493       0.452660       0.579791
      18.460000       0.591120       0.454148       0.580405
      18.470000       0.591614       0.455783       0.580562
      18.480000       0.591977       0.457575       0.580371
      18.490000       0.592216       0.459520       0.579979
      18.500000       0.592347       0.461605       0.579556
      18.510000       0.592389       0.463795       0.579264
      18.520000       0.592370       0.466034       0.579234
      18.530000       0.592318       0.468246       0.579553
      18.540000       0.592264       0.470337       0.580257
      18.550000       0.592230       0.472207       0.581336
      18.560000       0.592234       0.473760       0.582730
      18.570000       0.592285       0.474918       0.584344
      18.580000       0.592389       0.475640       0.586052
      18.590000       0.592552       0.475924       0.587712
      18.600000       0.592779       0.475814       0.589183
      18.610000       0.593074       0.475385       0.590348
      18.620000       0.593441       0.474731       0.591137
      18.630000       0.593882       0.473947       0.591535
      18.640000       0.594398       0.473118       0.591596
      18.650000       0.594988       0.472313       0.591418
      18.660000       0.595648       0.471590       0.591128
      18.670000       0.596373       0.471007       0.590848
      18.680000       0.597158       0.470627       0.590668
      18.690000       0.597993       0.470522       0.590633
      18.700000       0.598864       0.470760       0.590749
      18.710000       0.599750       0.471389       0.590991
      18.720000       0.600622       0.472419       0.591328
      18.730000       0.601444       0.473818       0.591737
      18.740000       0.602175       0.475511       0.592223
      18.750000       0.602783       0.477398       0.592821
      18.760000       0.603248       0.479367       0.593591
      18.770000       0.603575       0.481315       0.594605
      18.780000       0.603795       0.483159       0.595927
      18.790000       0.603968       0.484851       0.597598
      18.800000       0.604166       0.486369       0.599618
      18.810000       0.604465       0.487721       0.601951
      18.820000       0.604923       0.488933       0.604530
      18.830000       0.605574       0.490039       0.607271
      18.840000       0.606426       0.491081       0.610090
      18.850000       0.607467       0.492102       0.612915
      18.860000       0.608664       0.493142       0.615694
      18.870000       0.609981       0.494236       0.618401
      18.880000       0.611373       0.495404       0.621030
      18.890000       0.612794       0.496654       0.623593
      18.900000       0.614197       0.497979       0.626101
      18.910000       0.615540       0.499359       0.628560
      18.920000       0.616786       0.500763       0.630954
      18.930000       0.617909       0.502159       0.633240
      18.940000       0.618897       0.503508       0.635341
      18.950000       0.619752       0.504774       0.637151
      18.960000       0.620491       0.505921       0.638541
      18.970000       0.621142       0.506920       0.639371
      18.980000       0.621738       0.507754       0.639517
      18.990000       0.622316       0.508424       0.638882
      19.000000       0.622911       0.508963       0.637417
      19.010000       0.623552       0.509428       0.635127
      19.020000       0.624260       0.509893       0.632074
      19.030000       0.625047       0.510440       0.628375
      19.040000       0.625910       0.511137       0.624186
      19.050000       0.626841       0.512026       0.619697
      19.060000       0.627819       0.513114       0.615113
      19.070000       0.628819       0.514376       0.610637
      19.080000       0.629809       0.515750       0.606453
      19.090000       0.630753       0.517156       0.602710
      19.100000       0.631615       0.518501       0.599503
      19.110000       0.632358       0.519696       0.596878
      19.120000       0.632953       0.520669       0.594838
      19.130000       0.633386       0.521381       0.593357
      19.140000       0.633660       0.521832       0.592398
      19.150000       0.633796       0.522053       0.591922
      19.160000       0.633834       0.522105       0.591891
      19.170000       0.633818       0.522060       0.592274
      19.180000       0.633793       0.521992       0.593047
      19.190000       0.633796       0.521965       0.594182
      19.200000       0.633850       0.522030       0.595652
      19.210000       0.633963       0.522217       0.597418
      19.220000       0.634132       0.522527       0.599430
      19.230000       0.634343       0.522933       0.601624
      19.240000       0.634576       0.523387       0.603929
      19.250000       0.634809       0.523826       0.606272
      19.260000       0.635028       0.524191       0.608589
      19.270000       0.635234       0.524448       0.610830
      19.280000       0.635439       0.524591       0.612965
      19.290000       0.635674       0.524651       0.614982
      19.300000       0.635975       0.524681       0.616887
      19.310000       0.636376       0.524742       0.618683
      19.320000       0.636902       0.524887       0.620370
      19.330000       0.637567       0.525145       0.621926
      19.340000       0.638365       0.525521       0.623312
      19.350000       0.639280       0.525992       0.624475
      19.360000       0.640289       0.526528       0.625356
      19.370000       0.641364       0.527098       0.625908
      19.380000       0.642484       0.527685       0.626105
      19.390000       0.643634       0.528291       0.625955
      19.400000       0.644806       0.528934       0.625510
      19.410000       0.645993       0.529638       0.624852
      19.420000       0.647186       0.530419       0.624083
      19.430000       0.648375       0.531282       0.623293
      19.440000       0.649543       0.532208       0.622544
      19.450000       0.650669       0.533163       0.621853
      19.460000       0.651729       0.534100       0.621198
      19.470000       0.652702       0.534972       0.620532
      19.480000       0.653573       0.535749       0.619810
      19.490000       0.654340       0.536420       0.619005
      19.500000       0.655009       0.537005       0.618118
      19.510000       0.655595       0.537541       0.617169
      19.520000       0.656109       0.538076       0.616171
      19.530000       0.656551       0.538658       0.615117
      19.540000       0.656905       0.539321       0.613958
      19.550000       0.657141       0.540084       0.612620
      19.560000       0.657217       0.540950       0.611020
      19.570000       0.657090       0.541902       0.609100
      19.580000       0.656719       0.542914       0.606847
      19.590000       0.656074       0.543951       0.604304
      19.600000       0.655133       0.544981       0.601562
      19.610000       0.653889       0.545984       0.598736
      19.620000       0.652340       0.546951       0.595946
      19.630000       0.650495       0.547889       0.593300
      19.640000       0.648378       0.548810       0.590886
      19.650000       0.646028       0.549727       0.588776
      19.660000       0.643506       0.550647       0.587027
      19.670000       0.640894       0.551574       0.585688
      19.680000       0.638287       0.552505       0.584789
      19.690000       0.635785       0.553441       0.584336
      19.700000       0.633473       0.554380       0.584310
      19.710000       0.631420       0.555322       0.584670
      19.720000       0.629667       0.556265       0.585364
      19.730000       0.628233       0.557204       0.586339
      19.740000       0.627115       0.558130       0.587559
      19.750000       0.626295       0.559034       0.589006
      19.760000       0.625745       0.559902       0.590686
      19.770000       0.625435       0.560719       0.592621
      19.780000       0.625333       0.561465       0.594833
      19.790000       0.625410       0.562120       0.597333
      19.800000       0.625637       0.562658       0.600102
      19.810000       0.625980       0.563056       0.603086
      19.820000       0.626398       0.563294       0.606200
      19.830000       0.626843       0.563351       0.609332
      19.840000       0.627267       0.563208       0.612360
      19.850000       0.627621       0.562850       0.615161
      19.860000       0.627871       0.562270       0.617627
      19.870000       0.627997       0.561474       0.619670
      19.880000       0.628004       0.560493       0.621232
      19.890000       0.627917       0.559386       0.622285
      19.900000       0.627780       0.558238       0.622831
      19.910000       0.627647       0.557148       0.622893
      19.920000       0.627577       0.556220       0.622510
      19.930000       0.627626       0.555545       0.621721
      19.940000       0.627838       0.555196       0.620567
      19.950000       0.628246       0.555220       0.619088
      19.960000       0.628869       0.555633       0.617330
      19.970000       0.629708       0.556426       0.615352
      19.980000       0.630753       0.557564       0.613230
      19.990000       0.631979       0.558992       0.611050
      20.000000       0.633350       0.560640       0.608909
