  # energy grid [eV]     epsi_x  epsi_y  epsi_z
       0.000000            NaN            NaN            NaN
       0.010000       0.296015       0.025140       0.740796
       0.020000       0.593831       0.050600       0.675526
       0.030000       0.895279       0.076703       0.719772
       0.040000       1.202240       0.103787       0.744979
       0.050000       1.516675       0.132203       0.737843
       0.060000       1.840658       0.162322       0.705667
       0.070000       2.176404       0.194534       0.658659
       0.080000       2.526310       0.229248       0.605153
       0.090000       2.892988       0.266879       0.550809
       0.100000       3.279317       0.307830       0.499049
       0.110000       3.688488       0.352457       0.451714
       0.120000       4.124066       0.401011       0.409627
       0.130000       4.590054       0.453557       0.372991
       0.140000       5.090967       0.509852       0.341655
       0.150000       5.631913       0.569196       0.315277
       0.160000       6.218686       0.630273       0.293421
       0.170000       6.857860       0.691025       0.275600
       0.180000       7.556890       0.748632       0.261304
       0.190000       8.324203       0.799699       0.250003
       0.200000       9.169269       0.840709       0.241160
       0.210000      10.102639       0.868697       0.234243
       0.220000      11.135908       0.881943       0.228758
       0.230000      12.281564       0.880417       0.224288
       0.240000      13.552682       0.865740       0.220523
       0.250000      14.962377       0.840687       0.217292
       0.260000      16.522971       0.808443       0.214554
       0.270000      18.244768       0.771931       0.212375
       0.280000      20.134366       0.733404       0.210882
       0.290000      22.192348       0.694367       0.210199
       0.300000      24.410244       0.655722       0.210386
       0.310000      26.766728       0.618041       0.211384
       0.320000      29.223482       0.581786       0.212967
       0.330000      31.721877       0.547440       0.214739
       0.340000      34.182347       0.515514       0.216151
       0.350000      36.508347       0.486484       0.216572
       0.360000      38.595720       0.460718       0.215398
       0.370000      40.346430       0.438421       0.212170
       0.380000      41.683963       0.419615       0.206683
       0.390000      42.566883       0.404139       0.199030
       0.400000      42.996909       0.391660       0.189572
       0.410000      43.018170       0.381692       0.178843
       0.420000      42.706121       0.373632       0.167433
       0.430000      42.148412       0.366810       0.155889
       0.440000      41.423968       0.360569       0.144647
       0.450000      40.587914       0.354347       0.134015
       0.460000      39.667484       0.347744       0.124178
       0.470000      38.669335       0.340533       0.115227
       0.480000      37.593834       0.332628       0.107183
       0.490000      36.449089       0.324017       0.100023
       0.500000      35.258170       0.314708       0.093701
       0.510000      34.056828       0.304716       0.088158
       0.520000      32.883978       0.294091       0.083335
       0.530000      31.770116       0.282950       0.079173
       0.540000      30.728766       0.271497       0.075617
       0.550000      29.753953       0.260003       0.072615
       0.560000      28.824256       0.248764       0.070113
       0.570000      27.911872       0.238052       0.068057
       0.580000      26.993312       0.228084       0.066383
       0.590000      26.057543       0.219003       0.065027
       0.600000      25.108257       0.210885       0.063921
       0.610000      24.159655       0.203748       0.063007
       0.620000      23.228154       0.197573       0.062242
       0.630000      22.323921       0.192312       0.061612
       0.640000      21.445621       0.187906       0.061127
       0.650000      20.580092       0.184284       0.060822
       0.660000      19.706815       0.181377       0.060743
       0.670000      18.805395       0.179116       0.060942
       0.680000      17.863169       0.177439       0.061459
       0.690000      16.879905       0.176288       0.062323
       0.700000      15.867949       0.175617       0.063546
       0.710000      14.848369       0.175391       0.065118
       0.720000      13.845309       0.175588       0.067010
       0.730000      12.880938       0.176193       0.069164
       0.740000      11.972365       0.177202       0.071496
       0.750000      11.130642       0.178614       0.073888
       0.760000      10.361245       0.180432       0.076193
       0.770000       9.665291       0.182663       0.078244
       0.780000       9.040892       0.185314       0.079875
       0.790000       8.484354       0.188396       0.080957
       0.800000       7.991085       0.191924       0.081422
       0.810000       7.556226       0.195916       0.081275
       0.820000       7.175046       0.200394       0.080583
       0.830000       6.843184       0.205388       0.079445
       0.840000       6.556764       0.210932       0.077962
       0.850000       6.312458       0.217066       0.076213
       0.860000       6.107491       0.223840       0.074257
       0.870000       5.939637       0.231310       0.072142
       0.880000       5.807183       0.239543       0.069914
       0.890000       5.708905       0.248614       0.067624
       0.900000       5.644020       0.258606       0.065323
       0.910000       5.612150       0.269615       0.063053
       0.920000       5.613268       0.281741       0.060838
       0.930000       5.647633       0.295091       0.058692
       0.940000       5.715689       0.309770       0.056623
       0.950000       5.817881       0.325873       0.054642
       0.960000       5.954383       0.343470       0.052775
       0.970000       6.124674       0.362583       0.051057
       0.980000       6.327025       0.383159       0.049529
       0.990000       6.557928       0.405039       0.048230
       1.000000       6.811659       0.427934       0.047194
       1.010000       7.080166       0.451409       0.046442
       1.020000       7.353524       0.474907       0.045986
       1.030000       7.621046       0.497807       0.045823
       1.040000       7.872873       0.519519       0.045943
       1.050000       8.101575       0.539590       0.046321
       1.060000       8.303165       0.557796       0.046924
       1.070000       8.477195       0.574171       0.047704
       1.080000       8.626060       0.588989       0.048606
       1.090000       8.753941       0.602708       0.049558
       1.100000       8.865838       0.615899       0.050480
       1.110000       8.966820       0.629191       0.051283
       1.120000       9.061446       0.643219       0.051884
       1.130000       9.153363       0.658581       0.052217
       1.140000       9.245197       0.675806       0.052253
       1.150000       9.338791       0.695337       0.052013
       1.160000       9.435545       0.717508       0.051562
       1.170000       9.536531       0.742519       0.051000
       1.180000       9.642294       0.770390       0.050441
       1.190000       9.752568       0.800896       0.049992
       1.200000       9.866200       0.833519       0.049746
       1.210000       9.981278       0.867430       0.049771
       1.220000      10.095186       0.901552       0.050110
       1.230000      10.204400       0.934710       0.050784
       1.240000      10.304108       0.965872       0.051785
       1.250000      10.387917       0.994409       0.053082
       1.260000      10.447742       1.020271       0.054613
       1.270000      10.473882       1.043971       0.056283
       1.280000      10.455287       1.066356       0.057967
       1.290000      10.380228       1.088246       0.059522
       1.300000      10.237577       1.110071       0.060800
       1.310000      10.018677       1.131634       0.061679
       1.320000       9.719499       1.152083       0.062085
       1.330000       9.342441       1.170114       0.062004
       1.340000       8.897018       1.184382       0.061480
       1.350000       8.398934       1.193987       0.060594
       1.360000       7.867670       1.198868       0.059440
       1.370000       7.323385       1.199949       0.058100
       1.380000       6.784140       1.198979       0.056637
       1.390000       6.264168       1.198164       0.055100
       1.400000       5.773328       1.199747       0.053528
       1.410000       5.317448       1.205689       0.051967
       1.420000       4.899116       1.217470       0.050468
       1.430000       4.518577       1.236025       0.049085
       1.440000       4.174516       1.261727       0.047868
       1.450000       3.864678       1.294415       0.046857
       1.460000       3.586324       1.333430       0.046076
       1.470000       3.336537       1.377697       0.045534
       1.480000       3.112429       1.425872       0.045224
       1.490000       2.911264       1.476598       0.045129
       1.500000       2.730524       1.528803       0.045224
       1.510000       2.567935       1.581962       0.045477
       1.520000       2.421479       1.636181       0.045852
       1.530000       2.289374       1.692023       0.046306
       1.540000       2.170066       1.750117       0.046787
       1.550000       2.062200       1.810696       0.047247
       1.560000       1.964605       1.873233       0.047642
       1.570000       1.876269       1.936342       0.047947
       1.580000       1.796322       1.998011       0.048166
       1.590000       1.724013       2.056150       0.048328
       1.600000       1.658701       2.109309       0.048482
       1.610000       1.599831       2.157315       0.048680
       1.620000       1.546920       2.201583       0.048964
       1.630000       1.499541       2.244970       0.049357
       1.640000       1.457300       2.291247       0.049854
       1.650000       1.419819       2.344391       0.050430
       1.660000       1.386714       2.407901       0.051045
       1.670000       1.357581       2.484276       0.051661
       1.680000       1.331993       2.574637       0.052256
       1.690000       1.309519       2.678490       0.052832
       1.700000       1.289767       2.793601       0.053418
       1.710000       1.272429       2.916031       0.054062
       1.720000       1.257339       3.040442       0.054813
       1.730000       1.244483       3.160768       0.055710
       1.740000       1.233977       3.271209       0.056767
       1.750000       1.226002       3.367349       0.057970
       1.760000       1.220737       3.447040       0.059276
       1.770000       1.218302       3.510750       0.060620
       1.780000       1.218736       3.561290       0.061927
       1.790000       1.221991       3.603079       0.063122
       1.800000       1.227950       3.641248       0.064137
       1.810000       1.236455       3.680872       0.064924
       1.820000       1.247333       3.726541       0.065456
       1.830000       1.260439       3.782306       0.065725
       1.840000       1.275672       3.851892       0.065736
       1.850000       1.292965       3.938942       0.065507
       1.860000       1.312266       4.047047       0.065059
       1.870000       1.333515       4.179487       0.064428
       1.880000       1.356655       4.338705       0.063663
       1.890000       1.381654       4.525623       0.062826
       1.900000       1.408523       4.738872       0.061985
       1.910000       1.437281       4.974014       0.061200
       1.920000       1.467906       5.222880       0.060509
       1.930000       1.500292       5.473228       0.059924
       1.940000       1.534256       5.709029       0.059434
       1.950000       1.569566       5.911688       0.059008
       1.960000       1.605954       6.062312       0.058608
       1.970000       1.643107       6.144831       0.058196
       1.980000       1.680622       6.149242       0.057738
       1.990000       1.717980       6.073940       0.057204
       2.000000       1.754515       5.926170       0.056567
       2.010000       1.789387       5.720319       0.055806
       2.020000       1.821520       5.474693       0.054912
       2.030000       1.849565       5.207965       0.053896
       2.040000       1.871879       4.936407       0.052789
       2.050000       1.886565       4.672418       0.051642
       2.060000       1.891569       4.424233       0.050522
       2.070000       1.884849       4.196378       0.049494
       2.080000       1.864636       3.990410       0.048620
       2.090000       1.829775       3.805642       0.047952
       2.100000       1.780074       3.639802       0.047528
       2.110000       1.716536       3.489658       0.047378
       2.120000       1.641369       3.351671       0.047519
       2.130000       1.557707       3.222617       0.047964
       2.140000       1.469134       3.100081       0.048721
       2.150000       1.379143       2.982696       0.049791
       2.160000       1.290713       2.870111       0.051166
       2.170000       1.206070       2.762763       0.052832
       2.180000       1.126656       2.661560       0.054760
       2.190000       1.053219       2.567584       0.056903
       2.200000       0.985983       2.481872       0.059194
       2.210000       0.924823       2.405268       0.061539
       2.220000       0.869418       2.338336       0.063825
       2.230000       0.819357       2.281293       0.065917
       2.240000       0.774210       2.233962       0.067681
       2.250000       0.733555       2.195771       0.068997
       2.260000       0.696988       2.165839       0.069788
       2.270000       0.664129       2.143163       0.070038
       2.280000       0.634618       2.126857       0.069793
       2.290000       0.608115       2.116341       0.069160
       2.300000       0.584297       2.111359       0.068283
       2.310000       0.562855       2.111831       0.067320
       2.320000       0.543499       2.117602       0.066422
       2.330000       0.525952       2.128240       0.065718
       2.340000       0.509972       2.143019       0.065308
       2.350000       0.495353       2.161111       0.065262
       2.360000       0.481946       2.181936       0.065621
       2.370000       0.469654       2.205531       0.066404
       2.380000       0.458425       2.232783       0.067607
       2.390000       0.448231       2.265436       0.069203
       2.400000       0.439045       2.305852       0.071146
       2.410000       0.430815       2.356616       0.073370
       2.420000       0.423455       2.420083       0.075789
       2.430000       0.416834       2.497960       0.078302
       2.440000       0.410787       2.590955       0.080800
       2.450000       0.405137       2.698526       0.083176
       2.460000       0.399717       2.818709       0.085334
       2.470000       0.394406       2.948080       0.087193
       2.480000       0.389146       3.081859       0.088694
       2.490000       0.383941       3.214162       0.089797
       2.500000       0.378838       3.338376       0.090482
       2.510000       0.373897       3.447571       0.090747
       2.520000       0.369162       3.534919       0.090618
       2.530000       0.364640       3.594103       0.090149
       2.540000       0.360300       3.619801       0.089421
       2.550000       0.356083       3.608282       0.088543
       2.560000       0.351931       3.558059       0.087636
       2.570000       0.347813       3.470417       0.086818
       2.580000       0.343748       3.349510       0.086186
       2.590000       0.339808       3.201880       0.085811
       2.600000       0.336107       3.035471       0.085732
       2.610000       0.332775       2.858469       0.085966
       2.620000       0.329937       2.678339       0.086516
       2.630000       0.327701       2.501258       0.087385
       2.640000       0.326154       2.331912       0.088576
       2.650000       0.325360       2.173555       0.090092
       2.660000       0.325359       2.028190       0.091930
       2.670000       0.326162       1.896795       0.094067
       2.680000       0.327745       1.779567       0.096452
       2.690000       0.330038       1.676129       0.099007
       2.700000       0.332928       1.585729       0.101629
       2.710000       0.336268       1.507386       0.104201
       2.720000       0.339909       1.440010       0.106615
       2.730000       0.343735       1.382484       0.108779
       2.740000       0.347704       1.333708       0.110638
       2.750000       0.351868       1.292603       0.112169
       2.760000       0.356363       1.258078       0.113388
       2.770000       0.361372       1.228989       0.114334
       2.780000       0.367068       1.204109       0.115066
       2.790000       0.373572       1.182175       0.115641
       2.800000       0.380914       1.162002       0.116113
       2.810000       0.389031       1.142648       0.116520
       2.820000       0.397779       1.123564       0.116884
       2.830000       0.406967       1.104656       0.117217
       2.840000       0.416398       1.086232       0.117533
       2.850000       0.425902       1.068841       0.117850
       2.860000       0.435345       1.053079       0.118200
       2.870000       0.444610       1.039411       0.118622
       2.880000       0.453556       1.028052       0.119142
       2.890000       0.461978       1.018938       0.119770
       2.900000       0.469581       1.011774       0.120489
       2.910000       0.475980       1.006143       0.121259
       2.920000       0.480725       1.001621       0.122037
       2.930000       0.483331       0.997857       0.122793
       2.940000       0.483338       0.994580       0.123524
       2.950000       0.480374       0.991559       0.124265
       2.960000       0.474241       0.988564       0.125078
       2.970000       0.464985       0.985378       0.126045
       2.980000       0.452922       0.981884       0.127243
       2.990000       0.438613       0.978186       0.128734
       3.000000       0.422781       0.974689       0.130554
       3.010000       0.406203       0.972088       0.132705
       3.020000       0.389603       0.971276       0.135157
       3.030000       0.373580       0.973195       0.137844
       3.040000       0.358567       0.978707       0.140676
       3.050000       0.344824       0.988493       0.143545
       3.060000       0.332452       1.003006       0.146341
       3.070000       0.321419       1.022465       0.148956
       3.080000       0.311603       1.046865       0.151286
       3.090000       0.302827       1.076007       0.153228
       3.100000       0.294893       1.109543       0.154694
       3.110000       0.287616       1.147021       0.155612
       3.120000       0.280839       1.187937       0.155950
       3.130000       0.274440       1.231775       0.155722
       3.140000       0.268338       1.278045       0.154995
       3.150000       0.262492       1.326313       0.153879
       3.160000       0.256901       1.376237       0.152518
       3.170000       0.251598       1.427570       0.151060
       3.180000       0.246630       1.480134       0.149637
       3.190000       0.242048       1.533764       0.148336
       3.200000       0.237881       1.588230       0.147187
       3.210000       0.234129       1.643179       0.146157
       3.220000       0.230760       1.698088       0.145169
       3.230000       0.227718       1.752230       0.144132
       3.240000       0.224938       1.804667       0.142971
       3.250000       0.222360       1.854272       0.141656
       3.260000       0.219939       1.899785       0.140220
       3.270000       0.217651       1.939892       0.138749
       3.280000       0.215485       1.973311       0.137367
       3.290000       0.213445       1.998932       0.136206
       3.300000       0.211542       2.015992       0.135388
       3.310000       0.209793       2.024295       0.135004
       3.320000       0.208224       2.024365       0.135103
       3.330000       0.206857       2.017446       0.135688
       3.340000       0.205708       2.005293       0.136713
       3.350000       0.204772       1.989811       0.138084
       3.360000       0.204028       1.972682       0.139666
       3.370000       0.203437       1.955159       0.141306
       3.380000       0.202952       1.938084       0.142855
       3.390000       0.202531       1.922075       0.144198
       3.400000       0.202146       1.907724       0.145272
       3.410000       0.201791       1.895666       0.146082
       3.420000       0.201483       1.886464       0.146692
       3.430000       0.201260       1.880393       0.147204
       3.440000       0.201169       1.877237       0.147730
       3.450000       0.201258       1.876252       0.148375
       3.460000       0.201571       1.876366       0.149211
       3.470000       0.202142       1.876568       0.150277
       3.480000       0.203005       1.876334       0.151576
       3.490000       0.204191       1.875900       0.153085
       3.500000       0.205732       1.876229       0.154762
       3.510000       0.207655       1.878710       0.156554
       3.520000       0.209975       1.884709       0.158400
       3.530000       0.212690       1.895171       0.160230
       3.540000       0.215773       1.910384       0.161959
       3.550000       0.219171       1.929968       0.163497
       3.560000       0.222815       1.953083       0.164761
       3.570000       0.226627       1.978753       0.165694
       3.580000       0.230541       2.006170       0.166286
       3.590000       0.234516       2.034800       0.166578
       3.600000       0.238539       2.064241       0.166656
       3.610000       0.242634       2.093888       0.166633
       3.620000       0.246848       2.122605       0.166630
       3.630000       0.251254       2.148595       0.166750
       3.640000       0.255948       2.169588       0.167071
       3.650000       0.261046       2.183321       0.167630
       3.660000       0.266676       2.188109       0.168432
       3.670000       0.272962       2.183264       0.169454
       3.680000       0.280007       2.169137       0.170655
       3.690000       0.287876       2.146830       0.171977
       3.700000       0.296597       2.117774       0.173350
       3.710000       0.306167       2.083429       0.174688
       3.720000       0.316572       2.045213       0.175895
       3.730000       0.327803       2.004588       0.176875
       3.740000       0.339872       1.963135       0.177542
       3.750000       0.352809       1.922521       0.177839
       3.760000       0.366660       1.884379       0.177735
       3.770000       0.381458       1.850180       0.177225
       3.780000       0.397196       1.821151       0.176312
       3.790000       0.413776       1.798271       0.175004
       3.800000       0.430941       1.782278       0.173315
       3.810000       0.448219       1.773653       0.171274
       3.820000       0.464888       1.772557       0.168943
       3.830000       0.480008       1.778721       0.166429
       3.840000       0.492518       1.791321       0.163881
       3.850000       0.501426       1.808870       0.161485
       3.860000       0.506022       1.829209       0.159435
       3.870000       0.506066       1.849650       0.157917
       3.880000       0.501855       1.867331       0.157082
       3.890000       0.494161       1.879747       0.157036
       3.900000       0.484048       1.885333       0.157824
       3.910000       0.472662       1.883873       0.159435
       3.920000       0.461050       1.876560       0.161799
       3.930000       0.450054       1.865693       0.164793
       3.940000       0.440276       1.854133       0.168255
       3.950000       0.432087       1.844768       0.171993
       3.960000       0.425674       1.840137       0.175800
       3.970000       0.421080       1.842249       0.179472
       3.980000       0.418262       1.852548       0.182819
       3.990000       0.417129       1.871930       0.185690
       4.000000       0.417577       1.900762       0.187989
       4.010000       0.419513       1.938862       0.189691
       4.020000       0.422878       1.985447       0.190854
       4.030000       0.427653       2.039059       0.191616
       4.040000       0.433857       2.097536       0.192172
       4.050000       0.441523       2.158079       0.192756
       4.060000       0.450663       2.217482       0.193596
       4.070000       0.461232       2.272511       0.194890
       4.080000       0.473097       2.320338       0.196766
       4.090000       0.486039       2.358847       0.199267
       4.100000       0.499761       2.386703       0.202343
       4.110000       0.513930       2.403146       0.205864
       4.120000       0.528208       2.407680       0.209643
       4.130000       0.542291       2.399861       0.213473
       4.140000       0.555937       2.379342       0.217156
       4.150000       0.569002       2.346159       0.220530
       4.160000       0.581476       2.301119       0.223482
       4.170000       0.593521       2.246035       0.225949
       4.180000       0.605485       2.183681       0.227915
       4.190000       0.617883       2.117440       0.229403
       4.200000       0.631336       2.050806       0.230462
       4.210000       0.646476       1.986907       0.231157
       4.220000       0.663842       1.928190       0.231555
       4.230000       0.683777       1.876288       0.231710
       4.240000       0.706339       1.832009       0.231664
       4.250000       0.731221       1.795397       0.231449
       4.260000       0.757704       1.765832       0.231093
       4.270000       0.784657       1.742185       0.230629
       4.280000       0.810623       1.723035       0.230087
       4.290000       0.834024       1.706947       0.229493
       4.300000       0.853481       1.692729       0.228863
       4.310000       0.868155       1.679577       0.228207
       4.320000       0.878011       1.667021       0.227532
       4.330000       0.883844       1.654720       0.226854
       4.340000       0.887072       1.642229       0.226202
       4.350000       0.889362       1.628900       0.225623
       4.360000       0.892230       1.613988       0.225190
       4.370000       0.896715       1.596943       0.224998
       4.380000       0.903188       1.577704       0.225159
       4.390000       0.911279       1.556850       0.225788
       4.400000       0.919930       1.535522       0.226982
       4.410000       0.927575       1.515171       0.228797
       4.420000       0.932451       1.497271       0.231242
       4.430000       0.933010       1.483111       0.234273
       4.440000       0.928327       1.473702       0.237795
       4.450000       0.918363       1.469762       0.241672
       4.460000       0.903981       1.471730       0.245725
       4.470000       0.886714       1.479762       0.249739
       4.480000       0.868408       1.493707       0.253466
       4.490000       0.850872       1.513082       0.256657
       4.500000       0.835651       1.537077       0.259096
       4.510000       0.823923       1.564616       0.260649
       4.520000       0.816504       1.594484       0.261295
       4.530000       0.813916       1.625511       0.261134
       4.540000       0.816468       1.656782       0.260371
       4.550000       0.824331       1.687800       0.259271
       4.560000       0.837592       1.718514       0.258111
       4.570000       0.856281       1.749189       0.257143
       4.580000       0.880366       1.780155       0.256564
       4.590000       0.909729       1.811542       0.256507
       4.600000       0.944119       1.843129       0.257040
       4.610000       0.983106       1.874392       0.258160
       4.620000       1.026049       1.904734       0.259791
       4.630000       1.072091       1.933835       0.261794
       4.640000       1.120197       1.961949       0.263978
       4.650000       1.169228       1.989992       0.266136
       4.660000       1.218075       2.019347       0.268091
       4.670000       1.265838       2.051421       0.269729
       4.680000       1.312035       2.087122       0.271028
       4.690000       1.356767       2.126430       0.272052
       4.700000       1.400776       2.168201       0.272913
       4.710000       1.445339       2.210269       0.273725
       4.720000       1.492000       2.249839       0.274547
       4.730000       1.542201       2.284090       0.275348
       4.740000       1.596913       2.310823       0.276005
       4.750000       1.656354       2.328956       0.276331
       4.760000       1.719819       2.338741       0.276126
       4.770000       1.785641       2.341635       0.275228
       4.780000       1.851276       2.339912       0.273548
       4.790000       1.913508       2.336147       0.271085
       4.800000       1.968814       2.332729       0.267913
       4.810000       2.013854       2.331533       0.264160
       4.820000       2.046041       2.333795       0.259992
       4.830000       2.064031       2.340132       0.255605
       4.840000       2.067996       2.350623       0.251211
       4.850000       2.059538       2.364861       0.247030
       4.860000       2.041268       2.381979       0.243261
       4.870000       2.016197       2.400710       0.240065
       4.880000       1.987159       2.419544       0.237542
       4.890000       1.956419       2.437003       0.235733
       4.900000       1.925520       2.451933       0.234623
       4.910000       1.895285       2.463710       0.234145
       4.920000       1.865873       2.472272       0.234193
       4.930000       1.836866       2.477977       0.234630
       4.940000       1.807424       2.481377       0.235303
       4.950000       1.776548       2.483016       0.236053
       4.960000       1.743407       2.483297       0.236728
       4.970000       1.707601       2.482405       0.237190
       4.980000       1.669240       2.480267       0.237325
       4.990000       1.628819       2.476560       0.237052
       5.000000       1.587011       2.470775       0.236323
       5.010000       1.544489       2.462369       0.235136
       5.020000       1.501872       2.450913       0.233527
       5.030000       1.459772       2.436187       0.231563
       5.040000       1.418871       2.418183       0.229321
       5.050000       1.379981       2.397044       0.226879
       5.060000       1.344048       2.373016       0.224307
       5.070000       1.312096       2.346460       0.221666
       5.080000       1.285143       2.317891       0.219011
       5.090000       1.264107       2.288018       0.216398
       5.100000       1.249728       2.257702       0.213887
       5.110000       1.242507       2.227840       0.211544
       5.120000       1.242678       2.199190       0.209441
       5.130000       1.250199       2.172201       0.207645
       5.140000       1.264791       2.146907       0.206204
       5.150000       1.286007       2.122952       0.205138
       5.160000       1.313360       2.099775       0.204430
       5.170000       1.346450       2.076895       0.204029
       5.180000       1.385053       2.054214       0.203855
       5.190000       1.429102       2.032203       0.203821
       5.200000       1.478536       2.011899       0.203848
       5.210000       1.533065       1.994697       0.203880
       5.220000       1.591916       1.982007       0.203890
       5.230000       1.653660       1.974888       0.203877
       5.240000       1.716175       1.973751       0.203860
       5.250000       1.776754       1.978219       0.203867
       5.260000       1.832348       1.987145       0.203922
       5.270000       1.879897       1.998767       0.204030
       5.280000       1.916710       2.010941       0.204166
       5.290000       1.940837       2.021404       0.204266
       5.300000       1.951343       2.028020       0.204240
       5.310000       1.948423       2.029017       0.203989
       5.320000       1.933314       2.023192       0.203439
       5.330000       1.908033       2.010081       0.202565
       5.340000       1.875018       1.990028       0.201398
       5.350000       1.836792       1.964139       0.200024
       5.360000       1.795714       1.934115       0.198558
       5.370000       1.753845       1.901990       0.197132
       5.380000       1.712879       1.869810       0.195878
       5.390000       1.674082       1.839317       0.194920
       5.400000       1.638213       1.811688       0.194362
       5.410000       1.605433       1.787424       0.194274
       5.420000       1.575279       1.766413       0.194679
       5.430000       1.546756       1.748149       0.195541
       5.440000       1.518571       1.732055       0.196764
       5.450000       1.489470       1.717790       0.198202
       5.460000       1.458537       1.705442       0.199683
       5.470000       1.425382       1.695567       0.201028
       5.480000       1.390133       1.689059       0.202088
       5.490000       1.353331       1.686955       0.202763
       5.500000       1.315783       1.690249       0.203022
       5.510000       1.278464       1.699746       0.202899
       5.520000       1.242457       1.715974       0.202483
       5.530000       1.208885       1.739103       0.201892
       5.540000       1.178827       1.768869       0.201242
       5.550000       1.153202       1.804535       0.200628
       5.560000       1.132681       1.844900       0.200107
       5.570000       1.117641       1.888394       0.199695
       5.580000       1.108175       1.933227       0.199376
       5.590000       1.104157       1.977566       0.199119
       5.600000       1.105339       2.019715       0.198888
       5.610000       1.111446       2.058247       0.198666
       5.620000       1.122240       2.092089       0.198463
       5.630000       1.137543       2.120511       0.198318
       5.640000       1.157196       2.143040       0.198294
       5.650000       1.181005       2.159337       0.198458
       5.660000       1.208688       2.169139       0.198857
       5.670000       1.239873       2.172318       0.199491
       5.680000       1.274151       2.169074       0.200304
       5.690000       1.311155       2.160118       0.201184
       5.700000       1.350614       2.146707       0.201992
       5.710000       1.392322       2.130429       0.202587
       5.720000       1.436011       2.112819       0.202864
       5.730000       1.481160       2.094973       0.202767
       5.740000       1.526826       2.077348       0.202296
       5.750000       1.571589       2.059796       0.201498
       5.760000       1.613658       2.041813       0.200456
       5.770000       1.651147       2.022861       0.199280
       5.780000       1.682450       2.002666       0.198097
       5.790000       1.706558       1.981355       0.197037
       5.800000       1.723223       1.959420       0.196224
       5.810000       1.732885       1.937543       0.195757
       5.820000       1.736404       1.916369       0.195706
       5.830000       1.734692       1.896329       0.196097
       5.840000       1.728416       1.877574       0.196909
       5.850000       1.717845       1.859999       0.198077
       5.860000       1.702912       1.843329       0.199492
       5.870000       1.683418       1.827237       0.201020
       5.880000       1.659267       1.811453       0.202521
       5.890000       1.630636       1.795824       0.203869
       5.900000       1.597989       1.780301       0.204980
       5.910000       1.562011       1.764854       0.205825
       5.920000       1.523506       1.749397       0.206440
       5.930000       1.483371       1.733801       0.206917
       5.940000       1.442632       1.718009       0.207390
       5.950000       1.402499       1.702195       0.208004
       5.960000       1.364358       1.686868       0.208883
       5.970000       1.329672       1.672852       0.210112
       5.980000       1.299825       1.661176       0.211714
       5.990000       1.275953       1.652906       0.213651
       6.000000       1.258824       1.648994       0.215837
       6.010000       1.248779       1.650137       0.218151
       6.020000       1.245711       1.656651       0.220463
       6.030000       1.249085       1.668388       0.222659
       6.040000       1.257987       1.684726       0.224663
       6.050000       1.271227       1.704695       0.226452
       6.060000       1.287500       1.727217       0.228060
       6.070000       1.305573       1.751397       0.229565
       6.080000       1.324447       1.776736       0.231072
       6.090000       1.343423       1.803148       0.232690
       6.100000       1.362054       1.830777       0.234513
       6.110000       1.380028       1.859697       0.236606
       6.120000       1.397060       1.889656       0.238994
       6.130000       1.412835       1.919990       0.241659
       6.140000       1.426998       1.949727       0.244541
       6.150000       1.439171       1.977821       0.247557
       6.160000       1.448968       2.003400       0.250619
       6.170000       1.455996       2.025918       0.253651
       6.180000       1.459878       2.045178       0.256605
       6.190000       1.460293       2.061252       0.259457
       6.200000       1.457044       2.074347       0.262197
       6.210000       1.450123       2.084681       0.264821
       6.220000       1.439751       2.092406       0.267312
       6.230000       1.426358       2.097615       0.269620
       6.240000       1.410523       2.100399       0.271660
       6.250000       1.392884       2.100909       0.273306
       6.260000       1.374024       2.099331       0.274413
       6.270000       1.354378       2.095795       0.274846
       6.280000       1.334177       2.090230       0.274515
       6.290000       1.313463       2.082264       0.273414
       6.300000       1.292182       2.071228       0.271635
       6.310000       1.270323       2.056283       0.269374
       6.320000       1.248061       2.036667       0.266897
       6.330000       1.225853       2.011974       0.264504
       6.340000       1.204436       1.982406       0.262477
       6.350000       1.184747       1.948880       0.261041
       6.360000       1.167767       1.912997       0.260337
       6.370000       1.154383       1.876872       0.260418
       6.380000       1.145270       1.842881       0.261260
       6.390000       1.140849       1.813394       0.262777
       6.400000       1.141291       1.790517       0.264857
       6.410000       1.146571       1.775900       0.267372
       6.420000       1.156530       1.770603       0.270202
       6.430000       1.170940       1.775033       0.273234
       6.440000       1.189527       1.788929       0.276367
       6.450000       1.211974       1.811369       0.279520
       6.460000       1.237891       1.840813       0.282631
       6.470000       1.266783       1.875167       0.285667
       6.480000       1.298023       1.911922       0.288621
       6.490000       1.330847       1.948356       0.291511
       6.500000       1.364361       1.981818       0.294374
       6.510000       1.397567       2.010033       0.297261
       6.520000       1.429429       2.031388       0.300231
       6.530000       1.458978       2.045141       0.303344
       6.540000       1.485474       2.051522       0.306657
       6.550000       1.508559       2.051674       0.310216
       6.560000       1.528329       2.047438       0.314044
       6.570000       1.545287       2.040972       0.318136
       6.580000       1.560182       2.034326       0.322441
       6.590000       1.573816       2.029070       0.326854
       6.600000       1.586890       2.026095       0.331203
       6.610000       1.599958       2.025639       0.335259
       6.620000       1.613464       2.027496       0.338764
       6.630000       1.627798       2.031321       0.341480
       6.640000       1.643324       2.036875       0.343235
       6.650000       1.660313       2.044096       0.343971
       6.660000       1.678834       2.052979       0.343754
       6.670000       1.698658       2.063352       0.342769
       6.680000       1.719269       2.074680       0.341277
       6.690000       1.739982       2.086036       0.339574
       6.700000       1.760159       2.096285       0.337935
       6.710000       1.779400       2.104436       0.336569
       6.720000       1.797665       2.110013       0.335598
       6.730000       1.815262       2.113264       0.335041
       6.740000       1.832734       2.115112       0.334824
       6.750000       1.850706       2.116861       0.334801
       6.760000       1.869752       2.119813       0.334792
       6.770000       1.890340       2.124959       0.334618
       6.780000       1.912814       2.132832       0.334134
       6.790000       1.937394       2.143517       0.333247
       6.800000       1.964115       2.156744       0.331927
       6.810000       1.992733       2.171972       0.330203
       6.820000       2.022636       2.188442       0.328158
       6.830000       2.052857       2.205220       0.325916
       6.840000       2.082247       2.221305       0.323619
       6.850000       2.109786       2.235845       0.321413
       6.860000       2.134938       2.248422       0.319423
       6.870000       2.157880       2.259254       0.317742
       6.880000       2.179512       2.269211       0.316419
       6.890000       2.201261       2.279592       0.315451
       6.900000       2.224806       2.291807       0.314795
       6.910000       2.251818       2.307083       0.314373
       6.920000       2.283779       2.326329       0.314103
       6.930000       2.321838       2.350149       0.313917
       6.940000       2.366675       2.378917       0.313785
       6.950000       2.418375       2.412833       0.313727
       6.960000       2.476312       2.451873       0.313809
       6.970000       2.539120       2.495625       0.314134
       6.980000       2.604753       2.543060       0.314828
       6.990000       2.670691       2.592361       0.316022
       7.000000       2.734258       2.640971       0.317838
       7.010000       2.793007       2.685903       0.320372
       7.020000       2.845063       2.724309       0.323686
       7.030000       2.889319       2.754097       0.327792
       7.040000       2.925402       2.774371       0.332637
       7.050000       2.953413       2.785512       0.338096
       7.060000       2.973543       2.788872       0.343970
       7.070000       2.985733       2.786275       0.349996
       7.080000       2.989540       2.779586       0.355880
       7.090000       2.984301       2.770545       0.361332
       7.100000       2.969543       2.760816       0.366107
       7.110000       2.945466       2.752107       0.370032
       7.120000       2.913265       2.746173       0.373022
       7.130000       2.875143       2.744636       0.375078
       7.140000       2.834002       2.748717       0.376276
       7.150000       2.792950       2.759014       0.376763
       7.160000       2.754825       2.775432       0.376736
       7.170000       2.721864       2.797288       0.376437
       7.180000       2.695573       2.823512       0.376126
       7.190000       2.676716       2.852832       0.376071
       7.200000       2.665356       2.883837       0.376516
       7.210000       2.660888       2.914918       0.377672
       7.220000       2.662109       2.944173       0.379696
       7.230000       2.667354       2.969451       0.382680
       7.240000       2.674741       2.988561       0.386649
       7.250000       2.682434       2.999612       0.391563
       7.260000       2.688860       3.001314       0.397335
       7.270000       2.692773       2.993106       0.403849
       7.280000       2.693210       2.975083       0.410993
       7.290000       2.689403       2.947815       0.418684
       7.300000       2.680759       2.912204       0.426884
       7.310000       2.666942       2.869446       0.435610
       7.320000       2.648015       2.821067       0.444937
       7.330000       2.624530       2.768920       0.454997
       7.340000       2.597498       2.715077       0.465977
       7.350000       2.568199       2.661613       0.478100
       7.360000       2.537891       2.610376       0.491607
       7.370000       2.507489       2.562777       0.506728
       7.380000       2.477328       2.519667       0.523657
       7.390000       2.447093       2.481288       0.542538
       7.400000       2.415966       2.447321       0.563461
       7.410000       2.382946       2.417028       0.586468
       7.420000       2.347229       2.389450       0.611564
       7.430000       2.308459       2.363613       0.638718
       7.440000       2.266772       2.338670       0.667850
       7.450000       2.222608       2.313959       0.698810
       7.460000       2.176440       2.289011       0.731350
       7.470000       2.128584       2.263537       0.765099
       7.480000       2.079171       2.237464       0.799555
       7.490000       2.028298       2.210978       0.834088
       7.500000       1.976220       2.184550       0.867979
       7.510000       1.923487       2.158871       0.900476
       7.520000       1.870943       2.134713       0.930866
       7.530000       1.819597       2.112749       0.958557
       7.540000       1.770432       2.093413       0.983143
       7.550000       1.724224       2.076838       1.004438
       7.560000       1.681433       2.062907       1.022456
       7.570000       1.642191       2.051409       1.037361
       7.580000       1.606379       2.042215       1.049404
       7.590000       1.573757       2.035414       1.058874
       7.600000       1.544076       2.031298       1.066084
       7.610000       1.517159       2.030227       1.071379
       7.620000       1.492914       2.032403       1.075142
       7.630000       1.471317       2.037691       1.077785
       7.640000       1.452377       2.045524       1.079719
       7.650000       1.436101       2.054931       1.081306
       7.660000       1.422440       2.064647       1.082816
       7.670000       1.411216       2.073268       1.084399
       7.680000       1.402048       2.079419       1.086100
       7.690000       1.394313       2.081900       1.087901
       7.700000       1.387159       2.079812       1.089786
       7.710000       1.379611       2.072640       1.091787
       7.720000       1.370741       2.060317       1.094001
       7.730000       1.359870       2.043269       1.096591
       7.740000       1.346720       2.022430       1.099760
       7.750000       1.331464       1.999209       1.103729
       7.760000       1.314643       1.975366       1.108708
       7.770000       1.296982       1.952808       1.114846
       7.780000       1.279161       1.933344       1.122180
       7.790000       1.261642       1.918453       1.130604
       7.800000       1.244608       1.909136       1.139864
       7.810000       1.228028       1.905873       1.149584
       7.820000       1.211815       1.908650       1.159314
       7.830000       1.195967       1.917048       1.168585
       7.840000       1.180640       1.930351       1.176943
       7.850000       1.166108       1.947668       1.183996
       7.860000       1.152652       1.968067       1.189443
       7.870000       1.140450       1.990702       1.193099
       7.880000       1.129495       2.014899       1.194889
       7.890000       1.119599       2.040178       1.194818
       7.900000       1.110450       2.066211       1.192916
       7.910000       1.101716       2.092702       1.189207
       7.920000       1.093148       2.119240       1.183698
       7.930000       1.084628       2.145163       1.176421
       7.940000       1.076174       2.169542       1.167467
       7.950000       1.067887       2.191302       1.157017
       7.960000       1.059901       2.209475       1.145344
       7.970000       1.052345       2.223456       1.132807
       7.980000       1.045324       2.233157       1.119844
       7.990000       1.038924       2.238998       1.106969
       8.000000       1.033223       2.241796       1.094758
       8.010000       1.028332       2.242619       1.083802
       8.020000       1.024413       2.242678       1.074641
       8.030000       1.021683       2.243204       1.067702
       8.040000       1.020337       2.245286       1.063276
       8.050000       1.020421       2.249650       1.061516
       8.060000       1.021694       2.256432       1.062478
       8.070000       1.023553       2.265047       1.066149
       8.080000       1.025072       2.274237       1.072469
       8.090000       1.025169       2.282284       1.081338
       8.100000       1.022840       2.287368       1.092625
       8.110000       1.017388       2.287925       1.106183
       8.120000       1.008542       2.282927       1.121876
       8.130000       0.996441       2.271989       1.139606
       8.140000       0.981508       2.255295       1.159319
       8.150000       0.964290       2.233405       1.181004
       8.160000       0.945341       2.207036       1.204653
       8.170000       0.925167       2.176942       1.230231
       8.180000       0.904226       2.143893       1.257643
       8.190000       0.882971       2.108708       1.286713
       8.200000       0.861863       2.072238       1.317182
       8.210000       0.841364       2.035268       1.348717
       8.220000       0.821893       1.998412       1.380919
       8.230000       0.803785       1.962091       1.413351
       8.240000       0.787281       1.926621       1.445575
       8.250000       0.772549       1.892365       1.477190
       8.260000       0.759725       1.859838       1.507862
       8.270000       0.748930       1.829704       1.537344
       8.280000       0.740254       1.802680       1.565462
       8.290000       0.733731       1.779409       1.592087
       8.300000       0.729295       1.760344       1.617110
       8.310000       0.726775       1.745681       1.640433
       8.320000       0.725907       1.735329       1.661991
       8.330000       0.726369       1.728897       1.681814
       8.340000       0.727826       1.725679       1.700063
       8.350000       0.729971       1.724669       1.717019
       8.360000       0.732552       1.724603       1.733011
       8.370000       0.735374       1.724080       1.748288
       8.380000       0.738273       1.721743       1.762914
       8.390000       0.741094       1.716493       1.776712
       8.400000       0.743690       1.707661       1.789293
       8.410000       0.745955       1.695089       1.800170
       8.420000       0.747878       1.679090       1.808899
       8.430000       0.749562       1.660328       1.815202
       8.440000       0.751191       1.639646       1.819024
       8.450000       0.752944       1.617882       1.820516
       8.460000       0.754890       1.595720       1.819978
       8.470000       0.756918       1.573579       1.817801
       8.480000       0.758732       1.551567       1.814424
       8.490000       0.759901       1.529502       1.810292
       8.500000       0.759946       1.506978       1.805817
       8.510000       0.758449       1.483455       1.801321
       8.520000       0.755137       1.458359       1.796979
       8.530000       0.749942       1.431199       1.792801
       8.540000       0.743020       1.401695       1.788676
       8.550000       0.734719       1.369897       1.784486
       8.560000       0.725529       1.336235       1.780250
       8.570000       0.715996       1.301475       1.776238
       8.580000       0.706650       1.266591       1.772994
       8.590000       0.697932       1.232596       1.771255
       8.600000       0.690168       1.200397       1.771789
       8.610000       0.683568       1.170719       1.775217
       8.620000       0.678239       1.144087       1.781893
       8.630000       0.674201       1.120852       1.791849
       8.640000       0.671387       1.101237       1.804833
       8.650000       0.669626       1.085366       1.820410
       8.660000       0.668625       1.073278       1.838091
       8.670000       0.667962       1.064907       1.857472
       8.680000       0.667100       1.060053       1.878332
       8.690000       0.665453       1.058340       1.900666
       8.700000       0.662490       1.059210       1.924649
       8.710000       0.657856       1.061946       1.950546
       8.720000       0.651472       1.065731       1.978631
       8.730000       0.643550       1.069722       2.009154
       8.740000       0.634538       1.073131       2.042392
       8.750000       0.624988       1.075286       2.078743
       8.760000       0.615422       1.075690       2.118835
       8.770000       0.606229       1.074043       2.163560
       8.780000       0.597617       1.070256       2.214032
       8.790000       0.589630       1.064446       2.271470
       8.800000       0.582208       1.056919       2.337052
       8.810000       0.575262       1.048151       2.411774
       8.820000       0.568735       1.038747       2.496339
       8.830000       0.562633       1.029378       2.591057
       8.840000       0.557013       1.020704       2.695763
       8.850000       0.551964       1.013276       2.809716
       8.860000       0.547581       1.007476       2.931507
       8.870000       0.543940       1.003476       3.059012
       8.880000       0.541083       1.001267       3.189470
       8.890000       0.538996       1.000728       3.319719
       8.900000       0.537596       1.001717       3.446597
       8.910000       0.536731       1.004169       3.567356
       8.920000       0.536207       1.008159       3.679953
       8.930000       0.535830       1.013911       3.783050
       8.940000       0.535448       1.021773       3.875744
       8.950000       0.534976       1.032143       3.957179
       8.960000       0.534373       1.045381       4.026258
       8.970000       0.533617       1.061733       4.081612
       8.980000       0.532676       1.081276       4.121835
       8.990000       0.531512       1.103911       4.145834
       9.000000       0.530110       1.129392       4.153122
       9.010000       0.528514       1.157367       4.143951
       9.020000       0.526846       1.187436       4.119275
       9.030000       0.525302       1.219192       4.080635
       9.040000       0.524105       1.252260       4.030007
       9.050000       0.523453       1.286287       3.969631
       9.060000       0.523464       1.320903       3.901816
       9.070000       0.524136       1.355638       3.828717
       9.080000       0.525345       1.389848       3.752171
       9.090000       0.526859       1.422681       3.673668
       9.100000       0.528385       1.453138       3.594498
       9.110000       0.529618       1.480230       3.515978
       9.120000       0.530308       1.503187       3.439603
       9.130000       0.530319       1.521639       3.366988
       9.140000       0.529659       1.535666       3.299587
       9.150000       0.528485       1.545697       3.238330
       9.160000       0.527059       1.552296       3.183351
       9.170000       0.525693       1.555953       3.133949
       9.180000       0.524677       1.556968       3.088830
       9.190000       0.524226       1.555473       3.046518
       9.200000       0.524438       1.551549       3.005795
       9.210000       0.525288       1.545361       2.965975
       9.220000       0.526643       1.537241       2.926953
       9.230000       0.528318       1.527715       2.889053
       9.240000       0.530132       1.517470       2.852779
       9.250000       0.531965       1.507293       2.818575
       9.260000       0.533789       1.497976       2.786647
       9.270000       0.535666       1.490211       2.756876
       9.280000       0.537712       1.484512       2.728817
       9.290000       0.540056       1.481170       2.701785
       9.300000       0.542797       1.480275       2.675017
       9.310000       0.545970       1.481752       2.647877
       9.320000       0.549531       1.485372       2.620030
       9.330000       0.553358       1.490731       2.591540
       9.340000       0.557256       1.497213       2.562870
       9.350000       0.560969       1.503996       2.534809
       9.360000       0.564210       1.510123       2.508333
       9.370000       0.566690       1.514641       2.484435
       9.380000       0.568167       1.516720       2.463918
       9.390000       0.568474       1.515722       2.447183
       9.400000       0.567545       1.511214       2.434071
       9.410000       0.565403       1.502951       2.423807
       9.420000       0.562139       1.490882       2.415107
       9.430000       0.557888       1.475181       2.406435
       9.440000       0.552828       1.456282       2.396339
       9.450000       0.547186       1.434878       2.383747
       9.460000       0.541241       1.411865       2.368110
       9.470000       0.535317       1.388238       2.349358
       9.480000       0.529741       1.364982       2.327718
       9.490000       0.524782       1.342997       2.303509
       9.500000       0.520611       1.323071       2.277022
       9.510000       0.517278       1.305895       2.248526
       9.520000       0.514734       1.292047       2.218393
       9.530000       0.512880       1.281962       2.187257
       9.540000       0.511620       1.275848       2.156121
       9.550000       0.510921       1.273619       2.126356
       9.560000       0.510837       1.274838       2.099549
       9.570000       0.511511       1.278703       2.077287
       9.580000       0.513141       1.284084       2.060907
       9.590000       0.515915       1.289635       2.051313
       9.600000       0.519948       1.293986       2.048865
       9.610000       0.525227       1.295993       2.053364
       9.620000       0.531588       1.294976       2.064103
       9.630000       0.538727       1.290882       2.079994
       9.640000       0.546249       1.284298       2.099721
       9.650000       0.553735       1.276334       2.121927
       9.660000       0.560804       1.268409       2.145370
       9.670000       0.567165       1.261992       2.169048
       9.680000       0.572624       1.258379       2.192280
       9.690000       0.577085       1.258508       2.214737
       9.700000       0.580531       1.262842       2.236443
       9.710000       0.583005       1.271300       2.257724
       9.720000       0.584590       1.283239       2.279115
       9.730000       0.585392       1.297492       2.301238
       9.740000       0.585514       1.312491       2.324679
       9.750000       0.585036       1.326472       2.349904
       9.760000       0.584024       1.337737       2.377218
       9.770000       0.582551       1.344899       2.406773
       9.780000       0.580730       1.347056       2.438577
       9.790000       0.578728       1.343854       2.472519
       9.800000       0.576763       1.335465       2.508374
       9.810000       0.575065       1.322520       2.545803
       9.820000       0.573849       1.306005       2.584336
       9.830000       0.573288       1.287123       2.623375
       9.840000       0.573504       1.267112       2.662224
       9.850000       0.574573       1.247045       2.700154
       9.860000       0.576521       1.227650       2.736478
       9.870000       0.579319       1.209237       2.770596
       9.880000       0.582868       1.191745       2.801970
       9.890000       0.587008       1.174913       2.830075
       9.900000       0.591543       1.158509       2.854365
       9.910000       0.596296       1.142530       2.874308
       9.920000       0.601173       1.127288       2.889490
       9.930000       0.606209       1.113372       2.899714
       9.940000       0.611574       1.101502       2.905055
       9.950000       0.617527       1.092358       2.905833
       9.960000       0.624358       1.086445       2.902506
       9.970000       0.632315       1.084029       2.895535
       9.980000       0.641553       1.085150       2.885267
       9.990000       0.652100       1.089707       2.871894
      10.000000       0.663860       1.097569       2.855498
      10.010000       0.676631       1.108663       2.836156
      10.020000       0.690149       1.123020       2.814083
      10.030000       0.704132       1.140753       2.789729
      10.040000       0.718307       1.162023       2.763796
      10.050000       0.732407       1.186996       2.737139
      10.060000       0.746150       1.215836       2.710591
      10.070000       0.759224       1.248702       2.684785
      10.080000       0.771306       1.285744       2.660041
      10.090000       0.782127       1.327046       2.636377
      10.100000       0.791534       1.372530       2.613620
      10.110000       0.799545       1.421827       2.591549
      10.120000       0.806335       1.474156       2.569999
      10.130000       0.812181       1.528272       2.548880
      10.140000       0.817375       1.582502       2.528121
      10.150000       0.822142       1.634907       2.507573
      10.160000       0.826587       1.683520       2.486952
      10.170000       0.830677       1.726602       2.465852
      10.180000       0.834249       1.762842       2.443851
      10.190000       0.837053       1.791448       2.420661
      10.200000       0.838816       1.812159       2.396267
      10.210000       0.839320       1.825201       2.370993
      10.220000       0.838473       1.831235       2.345474
      10.230000       0.836353       1.831278       2.320553
      10.240000       0.833198       1.826591       2.297127
      10.250000       0.829351       1.818551       2.276000
      10.260000       0.825174       1.808510       2.257771
      10.270000       0.820968       1.797680       2.242770
      10.280000       0.816946       1.787026       2.231039
      10.290000       0.813242       1.777177       2.222323
      10.300000       0.809959       1.768340       2.216067
      10.310000       0.807199       1.760262       2.211410
      10.320000       0.805071       1.752263       2.207230
      10.330000       0.803658       1.743353       2.202245
      10.340000       0.802999       1.732415       2.195181
      10.350000       0.803081       1.718408       2.184964
      10.360000       0.803852       1.700565       2.170882
      10.370000       0.805244       1.678532       2.152667
      10.380000       0.807189       1.652436       2.130503
      10.390000       0.809634       1.622850       2.104961
      10.400000       0.812552       1.590664       2.076899
      10.410000       0.815950       1.556915       2.047362
      10.420000       0.819870       1.522618       2.017458
      10.430000       0.824376       1.488655       1.988236
      10.440000       0.829538       1.455739       1.960566
      10.450000       0.835402       1.424422       1.935063
      10.460000       0.841966       1.395115       1.912058
      10.470000       0.849164       1.368115       1.891634
      10.480000       0.856856       1.343603       1.873681
      10.490000       0.864839       1.321637       1.857970
      10.500000       0.872863       1.302114       1.844211
      10.510000       0.880666       1.284735       1.832132
      10.520000       0.888004       1.268980       1.821552
      10.530000       0.894689       1.254148       1.812431
      10.540000       0.900613       1.239448       1.804874
      10.550000       0.905764       1.224143       1.799083
      10.560000       0.910211       1.207691       1.795273
      10.570000       0.914090       1.189852       1.793592
      10.580000       0.917564       1.170716       1.794076
      10.590000       0.920790       1.150671       1.796633
      10.600000       0.923860       1.130308       1.801049
      10.610000       0.926762       1.110297       1.807013
      10.620000       0.929347       1.091271       1.814160
      10.630000       0.931343       1.073734       1.822131
      10.640000       0.932416       1.058027       1.830639
      10.650000       0.932275       1.044332       1.839523
      10.660000       0.930783       1.032726       1.848781
      10.670000       0.928014       1.023234       1.858570
      10.680000       0.924237       1.015876       1.869180
      10.690000       0.919826       1.010685       1.880998
      10.700000       0.915128       1.007695       1.894480
      10.710000       0.910375       1.006913       1.910128
      10.720000       0.905645       1.008274       1.928486
      10.730000       0.900886       1.011607       1.950142
      10.740000       0.895971       1.016635       1.975704
      10.750000       0.890754       1.023004       2.005763
      10.760000       0.885110       1.030352       2.040820
      10.770000       0.878973       1.038371       2.081201
      10.780000       0.872361       1.046837       2.126984
      10.790000       0.865392       1.055591       2.177958
      10.800000       0.858279       1.064465       2.233646
      10.810000       0.851301       1.073193       2.293388
      10.820000       0.844750       1.081341       2.356476
      10.830000       0.838889       1.088284       2.422274
      10.840000       0.833915       1.093251       2.490282
      10.850000       0.829945       1.095427       2.560094
      10.860000       0.827019       1.094077       2.631274
      10.870000       0.825115       1.088673       2.703179
      10.880000       0.824151       1.078982       2.774782
      10.890000       0.823995       1.065105       2.844574
      10.900000       0.824466       1.047473       2.910544
      10.910000       0.825361       1.026794       2.970312
      10.920000       0.826481       1.003980       3.021368
      10.930000       0.827662       0.980039       3.061393
      10.940000       0.828800       0.955960       3.088573
      10.950000       0.829872       0.932599       3.101821
      10.960000       0.830954       0.910588       3.100880
      10.970000       0.832219       0.890288       3.086275
      10.980000       0.833925       0.871790       3.059157
      10.990000       0.836372       0.854954       3.021066
      11.000000       0.839850       0.839483       2.973678
      11.010000       0.844602       0.824997       2.918596
      11.020000       0.850794       0.811104       2.857250
      11.030000       0.858499       0.797450       2.790887
      11.040000       0.867690       0.783771       2.720645
      11.050000       0.878219       0.769923       2.647634
      11.060000       0.889803       0.755907       2.572973
      11.070000       0.902004       0.741867       2.497777
      11.080000       0.914242       0.728060       2.423106
      11.090000       0.925826       0.714801       2.349905
      11.100000       0.936035       0.702403       2.278971
      11.110000       0.944235       0.691121       2.210928
      11.120000       0.950013       0.681111       2.146213
      11.130000       0.953303       0.672402       2.085062
      11.140000       0.954434       0.664890       2.027494
      11.150000       0.954080       0.658342       1.973330
      11.160000       0.953118       0.652438       1.922262
      11.170000       0.952439       0.646821       1.873960
      11.180000       0.952792       0.641180       1.828200
      11.190000       0.954691       0.635313       1.784936
      11.200000       0.958407       0.629177       1.744304
      11.210000       0.964018       0.622874       1.706551
      11.220000       0.971485       0.616602       1.671929
      11.230000       0.980738       0.610579       1.640604
      11.240000       0.991734       0.604974       1.612617
      11.250000       1.004491       0.599873       1.587880
      11.260000       1.019082       0.595288       1.566210
      11.270000       1.035583       0.591188       1.547359
      11.280000       1.053998       0.587530       1.531043
      11.290000       1.074196       0.584277       1.516968
      11.300000       1.095879       0.581390       1.504861
      11.310000       1.118624       0.578799       1.494489
      11.320000       1.141957       0.576384       1.485670
      11.330000       1.165463       0.573959       1.478255
      11.340000       1.188871       0.571294       1.472091
      11.350000       1.212112       0.568160       1.466980
      11.360000       1.235346       0.564390       1.462630
      11.370000       1.258952       0.559921       1.458639
      11.380000       1.283463       0.554817       1.454493
      11.390000       1.309466       0.549251       1.449621
      11.400000       1.337479       0.543453       1.443470
      11.410000       1.367823       0.537662       1.435614
      11.420000       1.400522       0.532066       1.425844
      11.430000       1.435220       0.526774       1.414230
      11.440000       1.471153       0.521800       1.401128
      11.450000       1.507183       0.517059       1.387136
      11.460000       1.541924       0.512382       1.373005
      11.470000       1.573949       0.507533       1.359518
      11.480000       1.602009       0.502256       1.347366
      11.490000       1.625212       0.496336       1.337051
      11.500000       1.643111       0.489660       1.328819
      11.510000       1.655696       0.482257       1.322639
      11.520000       1.663324       0.474288       1.318217
      11.530000       1.666626       0.465998       1.315020
      11.540000       1.666385       0.457648       1.312308
      11.550000       1.663395       0.449468       1.309176
      11.560000       1.658312       0.441630       1.304625
      11.570000       1.651518       0.434252       1.297690
      11.580000       1.643052       0.427403       1.287622
      11.590000       1.632629       0.421131       1.274058
      11.600000       1.619757       0.415477       1.257119
      11.610000       1.603914       0.410484       1.237384
      11.620000       1.584758       0.406194       1.215743
      11.630000       1.562304       0.402637       1.193193
      11.640000       1.537018       0.399817       1.170659
      11.650000       1.509781       0.397702       1.148855
      11.660000       1.481740       0.396234       1.128224
      11.670000       1.454113       0.395341       1.108921
      11.680000       1.428035       0.394959       1.090856
      11.690000       1.404484       0.395041       1.073755
      11.700000       1.384264       0.395560       1.057260
      11.710000       1.368006       0.396498       1.041018
      11.720000       1.356140       0.397829       1.024743
      11.730000       1.348835       0.399507       1.008246
      11.740000       1.345948       0.401459       0.991424
      11.750000       1.347017       0.403581       0.974251
      11.760000       1.351319       0.405744       0.956761
      11.770000       1.357978       0.407799       0.939037
      11.780000       1.366125       0.409597       0.921200
      11.790000       1.375047       0.410992       0.903411
      11.800000       1.384308       0.411855       0.885866
      11.810000       1.393761       0.412085       0.868783
      11.820000       1.403467       0.411617       0.852377
      11.830000       1.413520       0.410441       0.836837
      11.840000       1.423880       0.408600       0.822303
      11.850000       1.434269       0.406189       0.808868
      11.860000       1.444178       0.403332       0.796584
      11.870000       1.452936       0.400152       0.785456
      11.880000       1.459817       0.396745       0.775443
      11.890000       1.464102       0.393158       0.766437
      11.900000       1.465118       0.389395       0.758268
      11.910000       1.462244       0.385443       0.750716
      11.920000       1.454918       0.381318       0.743540
      11.930000       1.442683       0.377096       0.736508
      11.940000       1.425270       0.372928       0.729422
      11.950000       1.402726       0.369029       0.722135
      11.960000       1.375539       0.365637       0.714555
      11.970000       1.344693       0.362981       0.706646
      11.980000       1.311600       0.361252       0.698422
      11.990000       1.277927       0.360582       0.689938
      12.000000       1.245360       0.361039       0.681296
      12.010000       1.215397       0.362626       0.672650
      12.020000       1.189190       0.365277       0.664210
      12.030000       1.167476       0.368855       0.656228
      12.040000       1.150569       0.373153       0.648977
      12.050000       1.138398       0.377900       0.642702
      12.060000       1.130597       0.382783       0.637577
      12.070000       1.126603       0.387490       0.633667
      12.080000       1.125748       0.391767       0.630912
      12.090000       1.127331       0.395469       0.629139
      12.100000       1.130655       0.398592       0.628096
      12.110000       1.135057       0.401275       0.627494
      12.120000       1.139927       0.403765       0.627036
      12.130000       1.144740       0.406367       0.626447
      12.140000       1.149077       0.409394       0.625483
      12.150000       1.152642       0.413119       0.623954
      12.160000       1.155283       0.417736       0.621731
      12.170000       1.157017       0.423356       0.618764
      12.180000       1.158035       0.430002       0.615072
      12.190000       1.158690       0.437631       0.610719
      12.200000       1.159465       0.446156       0.605793
      12.210000       1.160913       0.455451       0.600384
      12.220000       1.163591       0.465358       0.594582
      12.230000       1.167992       0.475672       0.588496
      12.240000       1.174488       0.486123       0.582271
      12.250000       1.183308       0.496362       0.576090
      12.260000       1.194552       0.505976       0.570169
      12.270000       1.208243       0.514520       0.564725
      12.280000       1.224370       0.521582       0.559951
      12.290000       1.242902       0.526847       0.555995
      12.300000       1.263743       0.530152       0.552954
      12.310000       1.286652       0.531502       0.550879
      12.320000       1.311153       0.531060       0.549777
      12.330000       1.336501       0.529104       0.549619
      12.340000       1.361726       0.525959       0.550333
      12.350000       1.385759       0.521916       0.551807
      12.360000       1.407577       0.517172       0.553893
      12.370000       1.426324       0.511792       0.556417
      12.380000       1.441338       0.505728       0.559200
      12.390000       1.452089       0.498885       0.562065
      12.400000       1.458091       0.491198       0.564849
      12.410000       1.458836       0.482697       0.567400
      12.420000       1.453812       0.473535       0.569576
      12.430000       1.442583       0.463964       0.571262
      12.440000       1.424912       0.454296       0.572374
      12.450000       1.400902       0.444853       0.572864
      12.460000       1.371077       0.435941       0.572714
      12.470000       1.336378       0.427825       0.571924
      12.480000       1.298048       0.420723       0.570494
      12.490000       1.257439       0.414795       0.568419
      12.500000       1.215834       0.410135       0.565711
      12.510000       1.174323       0.406757       0.562422
      12.520000       1.133765       0.404601       0.558680
      12.530000       1.094792       0.403530       0.554691
      12.540000       1.057830       0.403343       0.550728
      12.550000       1.023109       0.403794       0.547078
      12.560000       0.990674       0.404612       0.544004
      12.570000       0.960412       0.405518       0.541697
      12.580000       0.932111       0.406248       0.540264
      12.590000       0.905537       0.406579       0.539722
      12.600000       0.880520       0.406350       0.540013
      12.610000       0.857016       0.405493       0.541021
      12.620000       0.835126       0.404042       0.542580
      12.630000       0.815071       0.402146       0.544480
      12.640000       0.797139       0.400040       0.546459
      12.650000       0.781630       0.398026       0.548207
      12.660000       0.768802       0.396436       0.549368
      12.670000       0.758836       0.395598       0.549575
      12.680000       0.751822       0.395804       0.548484
      12.690000       0.747749       0.397277       0.545834
      12.700000       0.746520       0.400149       0.541486
      12.710000       0.747969       0.404444       0.535470
      12.720000       0.751888       0.410075       0.527985
      12.730000       0.758050       0.416855       0.519382
      12.740000       0.766216       0.424513       0.510115
      12.750000       0.776128       0.432725       0.500682
      12.760000       0.787492       0.441147       0.491573
      12.770000       0.799958       0.449447       0.483231
      12.780000       0.813137       0.457329       0.476033
      12.790000       0.826638       0.464553       0.470271
      12.800000       0.840139       0.470953       0.466148
      12.810000       0.853433       0.476433       0.463756
      12.820000       0.866450       0.480960       0.463064
      12.830000       0.879224       0.484539       0.463897
      12.840000       0.891835       0.487176       0.465926
      12.850000       0.904346       0.488860       0.468679
      12.860000       0.916756       0.489559       0.471577
      12.870000       0.928972       0.489242       0.473999
      12.880000       0.940810       0.487911       0.475381
      12.890000       0.952012       0.485622       0.475296
      12.900000       0.962286       0.482503       0.473530
      12.910000       0.971369       0.478740       0.470102
      12.920000       0.979103       0.474564       0.465225
      12.930000       0.985505       0.470224       0.459239
      12.940000       0.990800       0.465969       0.452513
      12.950000       0.995402       0.462039       0.445370
      12.960000       0.999852       0.458648       0.438048
      12.970000       1.004727       0.455979       0.430698
      12.980000       1.010533       0.454167       0.423408
      12.990000       1.017608       0.453294       0.416246
      13.000000       1.026048       0.453387       0.409291
      13.010000       1.035657       0.454432       0.402647
      13.020000       1.045939       0.456394       0.396433
      13.030000       1.056119       0.459249       0.390761
      13.040000       1.065199       0.462993       0.385721
      13.050000       1.072045       0.467645       0.381359
      13.060000       1.075504       0.473227       0.377683
      13.070000       1.074582       0.479732       0.374661
      13.080000       1.068639       0.487090       0.372238
      13.090000       1.057579       0.495148       0.370340
      13.100000       1.041936       0.503669       0.368896
      13.110000       1.022797       0.512360       0.367840
      13.120000       1.001588       0.520916       0.367118
      13.130000       0.979768       0.529068       0.366684
      13.140000       0.958560       0.536623       0.366485
      13.150000       0.938768       0.543482       0.366447
      13.160000       0.920721       0.549630       0.366472
      13.170000       0.904321       0.555116       0.366448
      13.180000       0.889153       0.560020       0.366269
      13.190000       0.874618       0.564418       0.365855
      13.200000       0.860057       0.568374       0.365158
      13.210000       0.844843       0.571934       0.364154
      13.220000       0.828452       0.575139       0.362829
      13.230000       0.810506       0.578030       0.361162
      13.240000       0.790834       0.580654       0.359128
      13.250000       0.769515       0.583060       0.356704
      13.260000       0.746893       0.585295       0.353887
      13.270000       0.723545       0.587407       0.350708
      13.280000       0.700196       0.589451       0.347236
      13.290000       0.677611       0.591495       0.343579
      13.300000       0.656498       0.593614       0.339864
      13.310000       0.637429       0.595877       0.336227
      13.320000       0.620809       0.598329       0.332792
      13.330000       0.606869       0.600980       0.329666
      13.340000       0.595684       0.603795       0.326927
      13.350000       0.587198       0.606697       0.324620
      13.360000       0.581254       0.609566       0.322756
      13.370000       0.577617       0.612238       0.321305
      13.380000       0.576005       0.614518       0.320206
      13.390000       0.576116       0.616204       0.319380
      13.400000       0.577641       0.617128       0.318744
      13.410000       0.580289       0.617193       0.318235
      13.420000       0.583795       0.616407       0.317809
      13.430000       0.587929       0.614895       0.317434
      13.440000       0.592510       0.612896       0.317077
      13.450000       0.597394       0.610733       0.316683
      13.460000       0.602471       0.608766       0.316166
      13.470000       0.607654       0.607337       0.315418
      13.480000       0.612876       0.606706       0.314324
      13.490000       0.618102       0.607005       0.312797
      13.500000       0.623342       0.608222       0.310801
      13.510000       0.628664       0.610205       0.308372
      13.520000       0.634194       0.612693       0.305607
      13.530000       0.640122       0.615357       0.302657
      13.540000       0.646689       0.617842       0.299689
      13.550000       0.654165       0.619805       0.296869
      13.560000       0.662804       0.620951       0.294330
      13.570000       0.672779       0.621056       0.292168
      13.580000       0.684123       0.619990       0.290435
      13.590000       0.696697       0.617727       0.289139
      13.600000       0.710204       0.614350       0.288255
      13.610000       0.724251       0.610048       0.287731
      13.620000       0.738453       0.605095       0.287498
      13.630000       0.752515       0.599802       0.287476
      13.640000       0.766280       0.594474       0.287586
      13.650000       0.779686       0.589363       0.287761
      13.660000       0.792671       0.584655       0.287952
      13.670000       0.805065       0.580497       0.288129
      13.680000       0.816529       0.577027       0.288275
      13.690000       0.826577       0.574414       0.288376
      13.700000       0.834664       0.572862       0.288414
      13.710000       0.840326       0.572582       0.288367
      13.720000       0.843284       0.573735       0.288217
      13.730000       0.843505       0.576381       0.287964
      13.740000       0.841159       0.580431       0.287633
      13.750000       0.836521       0.585646       0.287270
      13.760000       0.829838       0.591656       0.286933
      13.770000       0.821245       0.598010       0.286678
      13.780000       0.810753       0.604232       0.286557
      13.790000       0.798321       0.609862       0.286611
      13.800000       0.783964       0.614490       0.286876
      13.810000       0.767852       0.617782       0.287383
      13.820000       0.750342       0.619504       0.288152
      13.830000       0.731942       0.619559       0.289185
      13.840000       0.713226       0.618003       0.290463
      13.850000       0.694734       0.615039       0.291947
      13.860000       0.676907       0.610972       0.293586
      13.870000       0.660059       0.606151       0.295335
      13.880000       0.644379       0.600909       0.297166
      13.890000       0.629953       0.595517       0.299085
      13.900000       0.616774       0.590173       0.301129
      13.910000       0.604756       0.585002       0.303372
      13.920000       0.593757       0.580088       0.305910
      13.930000       0.583602       0.575500       0.308853
      13.940000       0.574122       0.571334       0.312311
      13.950000       0.565181       0.567738       0.316385
      13.960000       0.556706       0.564910       0.321155
      13.970000       0.548690       0.563075       0.326681
      13.980000       0.541181       0.562436       0.332996
      13.990000       0.534264       0.563125       0.340108
      14.000000       0.528031       0.565175       0.347997
      14.010000       0.522558       0.568522       0.356625
      14.020000       0.517882       0.573025       0.365935
      14.030000       0.514001       0.578503       0.375866
      14.040000       0.510869       0.584761       0.386340
      14.050000       0.508389       0.591586       0.397267
      14.060000       0.506408       0.598737       0.408535
      14.070000       0.504717       0.605911       0.420016
      14.080000       0.503070       0.612736       0.431581
      14.090000       0.501242       0.618782       0.443114
      14.100000       0.499098       0.623601       0.454523
      14.110000       0.496645       0.626777       0.465748
      14.120000       0.494053       0.627982       0.476749
      14.130000       0.491602       0.627016       0.487503
      14.140000       0.489606       0.623833       0.497986
      14.150000       0.488325       0.618547       0.508159
      14.160000       0.487912       0.611433       0.517956
      14.170000       0.488396       0.602899       0.527274
      14.180000       0.489709       0.593449       0.535981
      14.190000       0.491725       0.583634       0.543930
      14.200000       0.494301       0.573996       0.550982
      14.210000       0.497296       0.565024       0.557024
      14.220000       0.500570       0.557120       0.561972
      14.230000       0.503968       0.550579       0.565767
      14.240000       0.507295       0.545595       0.568368
      14.250000       0.510315       0.542264       0.569747
      14.260000       0.512777       0.540613       0.569902
      14.270000       0.514453       0.540621       0.568867
      14.280000       0.515203       0.542227       0.566716
      14.290000       0.515013       0.545339       0.563558
      14.300000       0.514003       0.549833       0.559522
      14.310000       0.512405       0.555551       0.554739
      14.320000       0.510515       0.562312       0.549326
      14.330000       0.508628       0.569923       0.543367
      14.340000       0.506985       0.578188       0.536900
      14.350000       0.505723       0.586895       0.529912
      14.360000       0.504867       0.595795       0.522358
      14.370000       0.504346       0.604571       0.514177
      14.380000       0.504044       0.612823       0.505315
      14.390000       0.503854       0.620077       0.495744
      14.400000       0.503720       0.625825       0.485474
      14.410000       0.503649       0.629606       0.474551
      14.420000       0.503708       0.631092       0.463056
      14.430000       0.504008       0.630154       0.451103
      14.440000       0.504695       0.626896       0.438824
      14.450000       0.505941       0.621632       0.426362
      14.460000       0.507920       0.614827       0.413860
      14.470000       0.510787       0.607021       0.401463
      14.480000       0.514631       0.598759       0.389310
      14.490000       0.519426       0.590517       0.377543
      14.500000       0.524996       0.582666       0.366297
      14.510000       0.530990       0.575448       0.355699
      14.520000       0.536909       0.568989       0.345856
      14.530000       0.542166       0.563325       0.336850
      14.540000       0.546163       0.558442       0.328726
      14.550000       0.548372       0.554302       0.321488
      14.560000       0.548387       0.550854       0.315095
      14.570000       0.545960       0.548038       0.309460
      14.580000       0.541021       0.545774       0.304461
      14.590000       0.533692       0.543973       0.299947
      14.600000       0.524279       0.542528       0.295755
      14.610000       0.513232       0.541328       0.291718
      14.620000       0.501078       0.540258       0.287690
      14.630000       0.488350       0.539211       0.283552
      14.640000       0.475528       0.538089       0.279227
      14.650000       0.463010       0.536795       0.274694
      14.660000       0.451097       0.535225       0.269987
      14.670000       0.440006       0.533249       0.265188
      14.680000       0.429878       0.530711       0.260415
      14.690000       0.420787       0.527451       0.255792
      14.700000       0.412744       0.523324       0.251429
      14.710000       0.405696       0.518239       0.247411
      14.720000       0.399536       0.512193       0.243789
      14.730000       0.394125       0.505298       0.240589
      14.740000       0.389320       0.497783       0.237820
      14.750000       0.384997       0.489984       0.235486
      14.760000       0.381071       0.482291       0.233587
      14.770000       0.377499       0.475093       0.232126
      14.780000       0.374272       0.468720       0.231105
      14.790000       0.371394       0.463405       0.230521
      14.800000       0.368860       0.459269       0.230360
      14.810000       0.366644       0.456335       0.230596
      14.820000       0.364700       0.454544       0.231192
      14.830000       0.362978       0.453785       0.232111
      14.840000       0.361431       0.453921       0.233324
      14.850000       0.360027       0.454801       0.234823
      14.860000       0.358751       0.456269       0.236621
      14.870000       0.357602       0.458155       0.238747
      14.880000       0.356607       0.460273       0.241231
      14.890000       0.355822       0.462411       0.244092
      14.900000       0.355332       0.464341       0.247317
      14.910000       0.355239       0.465839       0.250859
      14.920000       0.355642       0.466717       0.254642
      14.930000       0.356624       0.466847       0.258565
      14.940000       0.358248       0.466174       0.262521
      14.950000       0.360560       0.464698       0.266399
      14.960000       0.363584       0.462446       0.270096
      14.970000       0.367312       0.459440       0.273522
      14.980000       0.371687       0.455687       0.276609
      14.990000       0.376590       0.451182       0.279313
      15.000000       0.381836       0.445936       0.281622
      15.010000       0.387200       0.440007       0.283548
      15.020000       0.392458       0.433511       0.285130
      15.030000       0.397433       0.426620       0.286421
      15.040000       0.402033       0.419531       0.287486
      15.050000       0.406252       0.412433       0.288399
      15.060000       0.410153       0.405479       0.289238
      15.070000       0.413836       0.398762       0.290087
      15.080000       0.417408       0.392317       0.291027
      15.090000       0.420969       0.386122       0.292139
      15.100000       0.424611       0.380114       0.293499
      15.110000       0.428412       0.374215       0.295179
      15.120000       0.432429       0.368358       0.297257
      15.130000       0.436701       0.362511       0.299813
      15.140000       0.441237       0.356691       0.302932
      15.150000       0.446029       0.350949       0.306698
      15.160000       0.451049       0.345359       0.311195
      15.170000       0.456249       0.339984       0.316503
      15.180000       0.461546       0.334861       0.322697
      15.190000       0.466811       0.329982       0.329844
      15.200000       0.471868       0.325305       0.338000
      15.210000       0.476509       0.320769       0.347198
      15.220000       0.480530       0.316313       0.357444
      15.230000       0.483772       0.311901       0.368712
      15.240000       0.486156       0.307520       0.380953
      15.250000       0.487691       0.303182       0.394102
      15.260000       0.488468       0.298913       0.408094
      15.270000       0.488638       0.294741       0.422875
      15.280000       0.488383       0.290701       0.438403
      15.290000       0.487895       0.286828       0.454638
      15.300000       0.487342       0.283165       0.471533
      15.310000       0.486835       0.279765       0.489010
      15.320000       0.486399       0.276686       0.506946
      15.330000       0.485955       0.273986       0.525173
      15.340000       0.485321       0.271706       0.543470
      15.350000       0.484242       0.269859       0.561575
      15.360000       0.482437       0.268426       0.579203
      15.370000       0.479655       0.267356       0.596069
      15.380000       0.475729       0.266569       0.611923
      15.390000       0.470603       0.265969       0.626580
      15.400000       0.464352       0.265449       0.639930
      15.410000       0.457167       0.264908       0.651937
      15.420000       0.449337       0.264268       0.662610
      15.430000       0.441194       0.263484       0.671978
      15.440000       0.433068       0.262549       0.680066
      15.450000       0.425237       0.261498       0.686878
      15.460000       0.417906       0.260387       0.692400
      15.470000       0.411215       0.259284       0.696604
      15.480000       0.405260       0.258249       0.699467
      15.490000       0.400123       0.257324       0.700989
      15.500000       0.395878       0.256528       0.701204
      15.510000       0.392578       0.255856       0.700188
      15.520000       0.390232       0.255287       0.698051
      15.530000       0.388781       0.254790       0.694929
      15.540000       0.388092       0.254333       0.690964
      15.550000       0.387973       0.253880       0.686291
      15.560000       0.388199       0.253397       0.681013
      15.570000       0.388555       0.252851       0.675188
      15.580000       0.388865       0.252209       0.668815
      15.590000       0.389016       0.251456       0.661833
      15.600000       0.388973       0.250601       0.654133
      15.610000       0.388762       0.249683       0.645595
      15.620000       0.388452       0.248768       0.636125
      15.630000       0.388122       0.247931       0.625700
      15.640000       0.387823       0.247236       0.614394
      15.650000       0.387565       0.246719       0.602381
      15.660000       0.387311       0.246380       0.589903
      15.670000       0.387003       0.246191       0.577234
      15.680000       0.386584       0.246099       0.564639
      15.690000       0.386035       0.246047       0.552342
      15.700000       0.385382       0.245974       0.540515
      15.710000       0.384702       0.245825       0.529271
      15.720000       0.384097       0.245556       0.518668
      15.730000       0.383661       0.245136       0.508717
      15.740000       0.383436       0.244554       0.499399
      15.750000       0.383386       0.243824       0.490672
      15.760000       0.383379       0.242982       0.482486
      15.770000       0.383213       0.242087       0.474787
      15.780000       0.382652       0.241208       0.467528
      15.790000       0.381477       0.240422       0.460670
      15.800000       0.379541       0.239794       0.454183
      15.810000       0.376797       0.239366       0.448040
      15.820000       0.373310       0.239145       0.442210
      15.830000       0.369252       0.239100       0.436646
      15.840000       0.364878       0.239170       0.431271
      15.850000       0.360489       0.239273       0.425976
      15.860000       0.356400       0.239329       0.420621
      15.870000       0.352907       0.239276       0.415048
      15.880000       0.350257       0.239080       0.409102
      15.890000       0.348639       0.238732       0.402651
      15.900000       0.348167       0.238241       0.395598
      15.910000       0.348877       0.237621       0.387891
      15.920000       0.350720       0.236884       0.379516
      15.930000       0.353560       0.236043       0.370487
      15.940000       0.357181       0.235113       0.360851
      15.950000       0.361304       0.234114       0.350682
      15.960000       0.365612       0.233077       0.340091
      15.970000       0.369797       0.232040       0.329225
      15.980000       0.373601       0.231047       0.318257
      15.990000       0.376867       0.230135       0.307367
      16.000000       0.379558       0.229331       0.296731
      16.010000       0.381754       0.228631       0.286500
      16.020000       0.383618       0.228004       0.276796
      16.030000       0.385341       0.227385       0.267703
      16.040000       0.387085       0.226688       0.259269
      16.050000       0.388945       0.225818       0.251506
      16.060000       0.390941       0.224691       0.244402
      16.070000       0.393042       0.223253       0.237932
      16.080000       0.395195       0.221487       0.232063
      16.090000       0.397355       0.219419       0.226766
      16.100000       0.399501       0.217107       0.222006
      16.110000       0.401631       0.214631       0.217740
      16.120000       0.403755       0.212078       0.213912
      16.130000       0.405883       0.209528       0.210447
      16.140000       0.408030       0.207056       0.207260
      16.150000       0.410209       0.204721       0.204265
      16.160000       0.412427       0.202574       0.201392
      16.170000       0.414661       0.200651       0.198592
      16.180000       0.416826       0.198970       0.195847
      16.190000       0.418756       0.197529       0.193161
      16.200000       0.420196       0.196302       0.190556
      16.210000       0.420837       0.195245       0.188055
      16.220000       0.420367       0.194306       0.185681
      16.230000       0.418544       0.193438       0.183445
      16.240000       0.415260       0.192604       0.181346
      16.250000       0.410563       0.191778       0.179372
      16.260000       0.404658       0.190950       0.177492
      16.270000       0.397858       0.190120       0.175670
      16.280000       0.390527       0.189294       0.173859
      16.290000       0.383014       0.188489       0.172021
      16.300000       0.375595       0.187722       0.170123
      16.310000       0.368450       0.187005       0.168148
      16.320000       0.361657       0.186346       0.166089
      16.330000       0.355217       0.185742       0.163957
      16.340000       0.349086       0.185183       0.161774
      16.350000       0.343226       0.184653       0.159576
      16.360000       0.337622       0.184136       0.157410
      16.370000       0.332305       0.183620       0.155325
      16.380000       0.327333       0.183102       0.153362
      16.390000       0.322781       0.182586       0.151547
      16.400000       0.318701       0.182085       0.149891
      16.410000       0.315112       0.181607       0.148392
      16.420000       0.311985       0.181154       0.147043
      16.430000       0.309248       0.180712       0.145839
      16.440000       0.306811       0.180254       0.144784
      16.450000       0.304582       0.179743       0.143887
      16.460000       0.302494       0.179142       0.143165
      16.470000       0.300507       0.178428       0.142639
      16.480000       0.298607       0.177597       0.142331
      16.490000       0.296789       0.176662       0.142258
      16.500000       0.295040       0.175650       0.142433
      16.510000       0.293334       0.174592       0.142855
      16.520000       0.291638       0.173509       0.143515
      16.530000       0.289930       0.172417       0.144388
      16.540000       0.288220       0.171321       0.145441
      16.550000       0.286552       0.170227       0.146635
      16.560000       0.285008       0.169142       0.147921
      16.570000       0.283690       0.168079       0.149246
      16.580000       0.282705       0.167055       0.150553
      16.590000       0.282158       0.166094       0.151786
      16.600000       0.282144       0.165223       0.152895
      16.610000       0.282737       0.164479       0.153844
      16.620000       0.283986       0.163902       0.154610
      16.630000       0.285901       0.163536       0.155182
      16.640000       0.288452       0.163416       0.155559
      16.650000       0.291569       0.163563       0.155740
      16.660000       0.295161       0.163978       0.155728
      16.670000       0.299133       0.164640       0.155531
      16.680000       0.303412       0.165510       0.155165
      16.690000       0.307963       0.166536       0.154653
      16.700000       0.312786       0.167657       0.154026
      16.710000       0.317905       0.168807       0.153310
      16.720000       0.323340       0.169925       0.152527
      16.730000       0.329083       0.170961       0.151690
      16.740000       0.335080       0.171883       0.150804
      16.750000       0.341213       0.172688       0.149875
      16.760000       0.347297       0.173397       0.148907
      16.770000       0.353078       0.174050       0.147910
      16.780000       0.358248       0.174696       0.146893
      16.790000       0.362485       0.175377       0.145867
      16.800000       0.365499       0.176126       0.144838
      16.810000       0.367092       0.176952       0.143812
      16.820000       0.367188       0.177850       0.142791
      16.830000       0.365850       0.178800       0.141774
      16.840000       0.363254       0.179771       0.140759
      16.850000       0.359649       0.180728       0.139742
      16.860000       0.355306       0.181630       0.138725
      16.870000       0.350474       0.182433       0.137715
      16.880000       0.345349       0.183082       0.136725
      16.890000       0.340065       0.183509       0.135767
      16.900000       0.334689       0.183639       0.134856
      16.910000       0.329240       0.183400       0.133993
      16.920000       0.323694       0.182732       0.133171
      16.930000       0.318016       0.181608       0.132371
      16.940000       0.312180       0.180048       0.131565
      16.950000       0.306194       0.178119       0.130729
      16.960000       0.300118       0.175932       0.129842
      16.970000       0.294060       0.173623       0.128899
      16.980000       0.288158       0.171332       0.127904
      16.990000       0.282559       0.169180       0.126874
      17.000000       0.277393       0.167256       0.125832
      17.010000       0.272760       0.165610       0.124805
      17.020000       0.268725       0.164251       0.123820
      17.030000       0.265327       0.163160       0.122906
      17.040000       0.262583       0.162300       0.122084
      17.050000       0.260498       0.161633       0.121374
      17.060000       0.259073       0.161129       0.120788
      17.070000       0.258304       0.160773       0.120333
      17.080000       0.258182       0.160559       0.120006
      17.090000       0.258687       0.160487       0.119806
      17.100000       0.259782       0.160551       0.119726
      17.110000       0.261410       0.160738       0.119759
      17.120000       0.263493       0.161026       0.119893
      17.130000       0.265930       0.161388       0.120109
      17.140000       0.268598       0.161792       0.120381
      17.150000       0.271351       0.162205       0.120675
      17.160000       0.274019       0.162596       0.120957
      17.170000       0.276411       0.162933       0.121196
      17.180000       0.278331       0.163183       0.121369
      17.190000       0.279600       0.163318       0.121464
      17.200000       0.280080       0.163311       0.121482
      17.210000       0.279693       0.163143       0.121430
      17.220000       0.278417       0.162796       0.121327
      17.230000       0.276276       0.162257       0.121195
      17.240000       0.273322       0.161519       0.121061
      17.250000       0.269621       0.160587       0.120949
      17.260000       0.265264       0.159481       0.120878
      17.270000       0.260367       0.158240       0.120856
      17.280000       0.255085       0.156919       0.120875
      17.290000       0.249600       0.155582       0.120908
      17.300000       0.244108       0.154296       0.120907
      17.310000       0.238797       0.153122       0.120818
      17.320000       0.233827       0.152117       0.120587
      17.330000       0.229321       0.151324       0.120177
      17.340000       0.225352       0.150775       0.119583
      17.350000       0.221953       0.150482       0.118827
      17.360000       0.219118       0.150438       0.117961
      17.370000       0.216812       0.150619       0.117050
      17.380000       0.214979       0.150984       0.116163
      17.390000       0.213552       0.151487       0.115358
      17.400000       0.212458       0.152075       0.114676
      17.410000       0.211629       0.152699       0.114139
      17.420000       0.211012       0.153312       0.113744
      17.430000       0.210577       0.153879       0.113472
      17.440000       0.210324       0.154375       0.113290
      17.450000       0.210274       0.154781       0.113162
      17.460000       0.210463       0.155088       0.113060
      17.470000       0.210932       0.155294       0.112966
      17.480000       0.211716       0.155405       0.112876
      17.490000       0.212828       0.155434       0.112797
      17.500000       0.214251       0.155398       0.112741
      17.510000       0.215921       0.155315       0.112718
      17.520000       0.217723       0.155194       0.112730
      17.530000       0.219500       0.155039       0.112768
      17.540000       0.221069       0.154843       0.112808
      17.550000       0.222259       0.154594       0.112816
      17.560000       0.222938       0.154283       0.112749
      17.570000       0.223044       0.153908       0.112566
      17.580000       0.222587       0.153477       0.112239
      17.590000       0.221639       0.153010       0.111757
      17.600000       0.220306       0.152534       0.111131
      17.610000       0.218695       0.152075       0.110394
      17.620000       0.216891       0.151656       0.109587
      17.630000       0.214937       0.151291       0.108759
      17.640000       0.212831       0.150980       0.107948
      17.650000       0.210539       0.150712       0.107186
      17.660000       0.208009       0.150470       0.106490
      17.670000       0.205194       0.150233       0.105863
      17.680000       0.202069       0.149984       0.105300
      17.690000       0.198634       0.149704       0.104786
      17.700000       0.194917       0.149379       0.104295
      17.710000       0.190965       0.148995       0.103804
      17.720000       0.186841       0.148542       0.103287
      17.730000       0.182619       0.148008       0.102729
      17.740000       0.178388       0.147388       0.102123
      17.750000       0.174244       0.146680       0.101478
      17.760000       0.170288       0.145894       0.100814
      17.770000       0.166613       0.145045       0.100159
      17.780000       0.163303       0.144160       0.099543
      17.790000       0.160423       0.143264       0.098991
      17.800000       0.158018       0.142381       0.098517
      17.810000       0.156108       0.141524       0.098118
      17.820000       0.154694       0.140698       0.097778
      17.830000       0.153759       0.139894       0.097472
      17.840000       0.153269       0.139096       0.097169
      17.850000       0.153178       0.138282       0.096843
      17.860000       0.153426       0.137423       0.096480
      17.870000       0.153941       0.136491       0.096074
      17.880000       0.154635       0.135463       0.095630
      17.890000       0.155411       0.134328       0.095161
      17.900000       0.156165       0.133088       0.094681
      17.910000       0.156801       0.131765       0.094211
      17.920000       0.157246       0.130392       0.093770
      17.930000       0.157468       0.129014       0.093380
      17.940000       0.157483       0.127677       0.093061
      17.950000       0.157362       0.126424       0.092826
      17.960000       0.157212       0.125294       0.092683
      17.970000       0.157160       0.124315       0.092631
      17.980000       0.157330       0.123503       0.092661
      17.990000       0.157821       0.122859       0.092756
      18.000000       0.158702       0.122372       0.092903
      18.010000       0.160006       0.122017       0.093087
      18.020000       0.161728       0.121765       0.093298
      18.030000       0.163833       0.121589       0.093532
      18.040000       0.166256       0.121467       0.093785
      18.050000       0.168913       0.121390       0.094056
      18.060000       0.171703       0.121361       0.094343
      18.070000       0.174516       0.121389       0.094643
      18.080000       0.177242       0.121487       0.094952
      18.090000       0.179786       0.121668       0.095268
      18.100000       0.182076       0.121944       0.095593
      18.110000       0.184082       0.122322       0.095938
      18.120000       0.185816       0.122798       0.096320
      18.130000       0.187326       0.123359       0.096766
      18.140000       0.188682       0.123976       0.097307
      18.150000       0.189952       0.124606       0.097969
      18.160000       0.191186       0.125201       0.098772
      18.170000       0.192409       0.125717       0.099722
      18.180000       0.193620       0.126124       0.100816
      18.190000       0.194803       0.126411       0.102036
      18.200000       0.195945       0.126589       0.103361
      18.210000       0.197045       0.126678       0.104767
      18.220000       0.198116       0.126702       0.106234
      18.230000       0.199182       0.126679       0.107749
      18.240000       0.200258       0.126615       0.109310
      18.250000       0.201332       0.126508       0.110924
      18.260000       0.202352       0.126351       0.112609
      18.270000       0.203216       0.126140       0.114383
      18.280000       0.203787       0.125874       0.116264
      18.290000       0.203914       0.125561       0.118261
      18.300000       0.203473       0.125215       0.120375
      18.310000       0.202388       0.124853       0.122596
      18.320000       0.200648       0.124493       0.124904
      18.330000       0.198300       0.124145       0.127274
      18.340000       0.195428       0.123808       0.129676
      18.350000       0.192132       0.123470       0.132085
      18.360000       0.188509       0.123112       0.134486
      18.370000       0.184650       0.122715       0.136874
      18.380000       0.180635       0.122262       0.139257
      18.390000       0.176536       0.121748       0.141652
      18.400000       0.172418       0.121172       0.144075
      18.410000       0.168333       0.120535       0.146537
      18.420000       0.164327       0.119840       0.149026
      18.430000       0.160434       0.119086       0.151507
      18.440000       0.156690       0.118266       0.153913
      18.450000       0.153125       0.117368       0.156161
      18.460000       0.149770       0.116380       0.158166
      18.470000       0.146650       0.115288       0.159867
      18.480000       0.143781       0.114086       0.161249
      18.490000       0.141174       0.112775       0.162347
      18.500000       0.138833       0.111369       0.163241
      18.510000       0.136761       0.109893       0.164041
      18.520000       0.134962       0.108383       0.164867
      18.530000       0.133434       0.106884       0.165825
      18.540000       0.132175       0.105441       0.167001
      18.550000       0.131182       0.104097       0.168449
      18.560000       0.130450       0.102885       0.170192
      18.570000       0.129976       0.101828       0.172225
      18.580000       0.129759       0.100930       0.174523
      18.590000       0.129801       0.100184       0.177052
      18.600000       0.130095       0.099571       0.179784
      18.610000       0.130628       0.099061       0.182714
      18.620000       0.131377       0.098626       0.185869
      18.630000       0.132309       0.098235       0.189306
      18.640000       0.133393       0.097865       0.193106
      18.650000       0.134598       0.097505       0.197352
      18.660000       0.135899       0.097152       0.202109
      18.670000       0.137275       0.096815       0.207402
      18.680000       0.138704       0.096514       0.213205
      18.690000       0.140159       0.096269       0.219441
      18.700000       0.141604       0.096103       0.225988
      18.710000       0.142994       0.096036       0.232695
      18.720000       0.144274       0.096080       0.239397
      18.730000       0.145377       0.096243       0.245941
      18.740000       0.146241       0.096526       0.252197
      18.750000       0.146808       0.096928       0.258078
      18.760000       0.147043       0.097446       0.263550
      18.770000       0.146940       0.098076       0.268639
      18.780000       0.146530       0.098812       0.273419
      18.790000       0.145874       0.099648       0.277997
      18.800000       0.145055       0.100567       0.282489
      18.810000       0.144154       0.101547       0.286994
      18.820000       0.143245       0.102554       0.291586
      18.830000       0.142378       0.103550       0.296306
      18.840000       0.141588       0.104502       0.301155
      18.850000       0.140899       0.105386       0.306097
      18.860000       0.140330       0.106198       0.311067
      18.870000       0.139895       0.106950       0.315982
      18.880000       0.139606       0.107672       0.320756
      18.890000       0.139460       0.108401       0.325310
      18.900000       0.139440       0.109175       0.329576
      18.910000       0.139512       0.110022       0.333488
      18.920000       0.139628       0.110958       0.336978
      18.930000       0.139728       0.111984       0.339975
      18.940000       0.139753       0.113088       0.342419
      18.950000       0.139647       0.114242       0.344275
      18.960000       0.139367       0.115412       0.345543
      18.970000       0.138885       0.116557       0.346265
      18.980000       0.138192       0.117633       0.346525
      18.990000       0.137295       0.118594       0.346440
      19.000000       0.136221       0.119396       0.346154
      19.010000       0.135012       0.120003       0.345834
      19.020000       0.133719       0.120386       0.345655
      19.030000       0.132400       0.120529       0.345779
      19.040000       0.131109       0.120431       0.346330
      19.050000       0.129893       0.120105       0.347376
      19.060000       0.128790       0.119580       0.348912
      19.070000       0.127826       0.118897       0.350867
      19.080000       0.127020       0.118097       0.353122
      19.090000       0.126380       0.117220       0.355537
      19.100000       0.125912       0.116299       0.357973
      19.110000       0.125617       0.115361       0.360293
      19.120000       0.125495       0.114427       0.362360
      19.130000       0.125547       0.113516       0.364029
      19.140000       0.125771       0.112648       0.365137
      19.150000       0.126166       0.111844       0.365517
      19.160000       0.126726       0.111128       0.365015
      19.170000       0.127446       0.110522       0.363514
      19.180000       0.128327       0.110038       0.360963
      19.190000       0.129380       0.109675       0.357385
      19.200000       0.130631       0.109414       0.352879
      19.210000       0.132120       0.109221       0.347612
      19.220000       0.133889       0.109052       0.341803
      19.230000       0.135969       0.108855       0.335712
      19.240000       0.138367       0.108584       0.329622
      19.250000       0.141056       0.108197       0.323821
      19.260000       0.143963       0.107668       0.318571
      19.270000       0.146977       0.106983       0.314087
      19.280000       0.149950       0.106141       0.310517
      19.290000       0.152707       0.105158       0.307935
      19.300000       0.155066       0.104062       0.306342
      19.310000       0.156859       0.102895       0.305677
      19.320000       0.157953       0.101708       0.305822
      19.330000       0.158284       0.100560       0.306615
      19.340000       0.157868       0.099506       0.307867
      19.350000       0.156797       0.098598       0.309377
      19.360000       0.155223       0.097872       0.310944
      19.370000       0.153311       0.097352       0.312381
      19.380000       0.151210       0.097047       0.313513
      19.390000       0.149029       0.096953       0.314186
      19.400000       0.146823       0.097055       0.314276
      19.410000       0.144607       0.097328       0.313704
      19.420000       0.142373       0.097746       0.312444
      19.430000       0.140110       0.098277       0.310520
      19.440000       0.137816       0.098892       0.307994
      19.450000       0.135501       0.099560       0.304938
      19.460000       0.133184       0.100244       0.301421
      19.470000       0.130884       0.100906       0.297501
      19.480000       0.128617       0.101505       0.293240
      19.490000       0.126394       0.102003       0.288716
      19.500000       0.124220       0.102369       0.284036
      19.510000       0.122098       0.102582       0.279327
      19.520000       0.120029       0.102631       0.274726
      19.530000       0.118012       0.102510       0.270358
      19.540000       0.116048       0.102218       0.266320
      19.550000       0.114139       0.101758       0.262677
      19.560000       0.112291       0.101137       0.259458
      19.570000       0.110516       0.100372       0.256667
      19.580000       0.108828       0.099485       0.254289
      19.590000       0.107247       0.098506       0.252300
      19.600000       0.105793       0.097469       0.250669
      19.610000       0.104488       0.096407       0.249359
      19.620000       0.103355       0.095354       0.248330
      19.630000       0.102414       0.094342       0.247529
      19.640000       0.101686       0.093401       0.246893
      19.650000       0.101188       0.092560       0.246350
      19.660000       0.100930       0.091840       0.245820
      19.670000       0.100916       0.091254       0.245235
      19.680000       0.101143       0.090804       0.244540
      19.690000       0.101601       0.090481       0.243709
      19.700000       0.102271       0.090270       0.242733
      19.710000       0.103128       0.090145       0.241620
      19.720000       0.104141       0.090080       0.240382
      19.730000       0.105271       0.090047       0.239032
      19.740000       0.106471       0.090025       0.237583
      19.750000       0.107684       0.090001       0.236051
      19.760000       0.108847       0.089969       0.234459
      19.770000       0.109893       0.089933       0.232837
      19.780000       0.110759       0.089895       0.231219
      19.790000       0.111398       0.089854       0.229635
      19.800000       0.111785       0.089798       0.228103
      19.810000       0.111924       0.089710       0.226625
      19.820000       0.111846       0.089568       0.225186
      19.830000       0.111600       0.089357       0.223761
      19.840000       0.111250       0.089068       0.222322
      19.850000       0.110861       0.088702       0.220844
      19.860000       0.110494       0.088266       0.219316
      19.870000       0.110203       0.087775       0.217744
      19.880000       0.110034       0.087247       0.216155
      19.890000       0.110023       0.086701       0.214601
      19.900000       0.110198       0.086163       0.213153
      19.910000       0.110572       0.085654       0.211894
      19.920000       0.111147       0.085198       0.210905
      19.930000       0.111908       0.084810       0.210252
      19.940000       0.112823       0.084503       0.209979
      19.950000       0.113845       0.084280       0.210094
      19.960000       0.114914       0.084140       0.210573
      19.970000       0.115959       0.084079       0.211357
      19.980000       0.116911       0.084090       0.212362
      19.990000       0.117704       0.084168       0.213491
      20.000000       0.118289       0.084312       0.214645
