  # energy grid [eV]     epsr_x  epsr_y  epsr_z
       0.000000            NaN            NaN            NaN
       0.010000  -90598.816450  -99740.198876       3.005573
       0.020000  -22625.318582  -24931.274354       2.889429
       0.030000  -10037.583118  -11077.767921       2.735196
       0.040000   -5631.815637   -6229.038538       2.572474
       0.050000   -3592.508468   -3984.767344       2.422772
       0.060000   -2484.665991   -2765.655024       2.296454
       0.070000   -1816.597748   -2030.566984       2.195846
       0.080000   -1382.918699   -1553.465258       2.118966
       0.090000   -1085.510209   -1226.365215       2.062123
       0.100000    -872.693883    -992.392690       2.021348
       0.110000    -715.150088    -819.280860       1.993033
       0.120000    -595.239533    -687.617997       1.974151
       0.130000    -501.833768    -585.158093       1.962259
       0.140000    -427.630680    -503.866331       1.955430
       0.150000    -367.677965    -438.293949       1.952150
       0.160000    -318.521096    -384.640264       1.951236
       0.170000    -277.691230    -340.188690       1.951753
       0.180000    -243.386510    -302.955432       1.952971
       0.190000    -214.267642    -271.463821       1.954325
       0.200000    -189.323292    -244.595496       1.955406
       0.210000    -167.779414    -221.490097       1.955955
       0.220000    -149.036960    -201.476508       1.955866
       0.230000    -132.628361    -184.025029       1.955161
       0.240000    -118.186698    -168.713545       1.953964
       0.250000    -105.423581    -155.203032       1.952443
       0.260000     -94.113110    -143.219276       1.950755
       0.270000     -84.080077    -132.538887       1.948985
       0.280000     -75.191128    -122.978425       1.947116
       0.290000     -67.347881    -114.385964       1.945001
       0.300000     -60.481075    -106.634590       1.942379
       0.310000     -54.544754     -99.617465       1.938912
       0.320000     -49.509364     -93.244099       1.934240
       0.330000     -45.352819     -87.437500       1.928064
       0.340000     -42.049454     -82.131941       1.920234
       0.350000     -39.558224     -77.271122       1.910815
       0.360000     -37.812804     -72.806651       1.900137
       0.370000     -36.716609     -68.696750       1.888766
       0.380000     -36.144796     -64.905187       1.877420
       0.390000     -35.953750     -61.400385       1.866841
       0.400000     -35.996957     -58.154681       1.857652
       0.410000     -36.144177     -55.143707       1.850265
       0.420000     -36.298592     -52.345863       1.844853
       0.430000     -36.405756     -49.741876       1.841377
       0.440000     -36.450607     -47.314439       1.839648
       0.450000     -36.443714     -45.047950       1.839401
       0.460000     -36.402564     -42.928332       1.840349
       0.470000     -36.335559     -40.942916       1.842219
       0.480000     -36.234861     -39.080337       1.844775
       0.490000     -36.080002     -37.330411       1.847823
       0.500000     -35.849077     -35.683980       1.851206
       0.510000     -35.531031     -34.132763       1.854804
       0.520000     -35.132882     -32.669229       1.858522
       0.530000     -34.679118     -31.286521       1.862287
       0.540000     -34.204287     -29.978421       1.866037
       0.550000     -33.742187     -28.739332       1.869720
       0.560000     -33.315693     -27.564245       1.873292
       0.570000     -32.930804     -26.448683       1.876711
       0.580000     -32.577068     -25.388630       1.879948
       0.590000     -32.234212     -24.380460       1.882986
       0.600000     -31.882031     -23.420867       1.885828
       0.610000     -31.509117     -22.506818       1.888495
       0.620000     -31.116789     -21.635511       1.891029
       0.630000     -30.717116     -20.804350       1.893478
       0.640000     -30.326475     -20.010919       1.895887
       0.650000     -29.957473     -19.252973       1.898288
       0.660000     -29.612335     -18.528414       1.900685
       0.670000     -29.280200     -17.835288       1.903061
       0.680000     -28.939352     -17.171768       1.905373
       0.690000     -28.563392     -16.536143       1.907561
       0.700000     -28.128633     -15.926815       1.909552
       0.710000     -27.619712     -15.342287       1.911265
       0.720000     -27.031750     -14.781161       1.912613
       0.730000     -26.369244     -14.242134       1.913510
       0.740000     -25.643116     -13.723987       1.913875
       0.750000     -24.867427     -13.225587       1.913646
       0.760000     -24.056721     -12.745875       1.912791
       0.770000     -23.224324     -12.283858       1.911328
       0.780000     -22.381505     -11.838609       1.909336
       0.790000     -21.537254     -11.409257       1.906956
       0.800000     -20.698413     -10.994983       1.904368
       0.810000     -19.869984     -10.595019       1.901753
       0.820000     -19.055471     -10.208640       1.899263
       0.830000     -18.257218      -9.835166       1.896995
       0.840000     -17.476699      -9.473958       1.894996
       0.850000     -16.714755      -9.124414       1.893283
       0.860000     -15.971801      -8.785971       1.891860
       0.870000     -15.247989      -8.458103       1.890733
       0.880000     -14.543349      -8.140318       1.889909
       0.890000     -13.857905      -7.832165       1.889392
       0.900000     -13.191792      -7.533228       1.889169
       0.910000     -12.545355      -7.243134       1.889217
       0.920000     -11.919262      -6.961554       1.889509
       0.930000     -11.314634      -6.688209       1.890024
       0.940000     -10.733197      -6.422875       1.890752
       0.950000     -10.177442      -6.165389       1.891692
       0.960000      -9.650780      -5.915658       1.892848
       0.970000      -9.157600      -5.673654       1.894218
       0.980000      -8.703165      -5.439414       1.895787
       0.990000      -8.293223      -5.213011       1.897525
       1.000000      -7.933287      -4.994520       1.899391
       1.010000      -7.627605      -4.783957       1.901335
       1.020000      -7.377997      -4.581205       1.903303
       1.030000      -7.182935      -4.385951       1.905241
       1.040000      -7.037282      -4.197655       1.907092
       1.050000      -6.932940      -4.015569       1.908804
       1.060000      -6.860270      -3.838811       1.910327
       1.070000      -6.809746      -3.666475       1.911619
       1.080000      -6.773274      -3.497734       1.912643
       1.090000      -6.744850      -3.331909       1.913377
       1.100000      -6.720667      -3.168502       1.913817
       1.110000      -6.698948      -3.007206       1.913982
       1.120000      -6.679616      -2.847900       1.913928
       1.130000      -6.663813      -2.690634       1.913740
       1.140000      -6.653316      -2.535611       1.913534
       1.150000      -6.650111      -2.383159       1.913427
       1.160000      -6.656323      -2.233730       1.913521
       1.170000      -6.674423      -2.087884       1.913884
       1.180000      -6.707388      -1.946284       1.914537
       1.190000      -6.758568      -1.809647       1.915463
       1.200000      -6.831403      -1.678656       1.916609
       1.210000      -6.929260      -1.553832       1.917903
       1.220000      -7.055501      -1.435378       1.919257
       1.230000      -7.213579      -1.323046       1.920575
       1.240000      -7.406871      -1.216091       1.921758
       1.250000      -7.638246      -1.113385       1.922705
       1.260000      -7.909462      -1.013681       1.923323
       1.270000      -8.220496      -0.915960       1.923534
       1.280000      -8.568732      -0.819715       1.923286
       1.290000      -8.948044      -0.725058       1.922574
       1.300000      -9.348001      -0.632589       1.921446
       1.310000      -9.753644      -0.543084       1.920004
       1.320000     -10.146253      -0.457092       1.918391
       1.330000     -10.505317      -0.374551       1.916760
       1.340000     -10.811442      -0.294569       1.915250
       1.350000     -11.049420      -0.215475       1.913957
       1.360000     -11.210439      -0.135140       1.912935
       1.370000     -11.292728      -0.051479       1.912201
       1.380000     -11.300640       0.037067       1.911754
       1.390000     -11.242752       0.131241       1.911589
       1.400000     -11.129772       0.230923       1.911707
       1.410000     -10.972826       0.335262       1.912108
       1.420000     -10.782319       0.442903       1.912787
       1.430000     -10.567355       0.552203       1.913727
       1.440000     -10.335535       0.661413       1.914893
       1.450000     -10.092986       0.768834       1.916239
       1.460000      -9.844510       0.872971       1.917710
       1.470000      -9.593777       0.972685       1.919249
       1.480000      -9.343523       1.067354       1.920804
       1.490000      -9.095742       1.156961       1.922327
       1.500000      -8.851843       1.242041       1.923779
       1.510000      -8.612790       1.323445       1.925128
       1.520000      -8.379208       1.401960       1.926349
       1.530000      -8.151470       1.477928       1.927425
       1.540000      -7.929767       1.551034       1.928354
       1.550000      -7.714157       1.620373       1.929149
       1.560000      -7.504605       1.684799       1.929846
       1.570000      -7.301014       1.743459       1.930497
       1.580000      -7.103250       1.796336       1.931160
       1.590000      -6.911157       1.844607       1.931881
       1.600000      -6.724575       1.890635       1.932688
       1.610000      -6.543351       1.937530       1.933578
       1.620000      -6.367348       1.988408       1.934524
       1.630000      -6.196456       2.045577       1.935485
       1.640000      -6.030587       2.109942       1.936413
       1.650000      -5.869680       2.180759       1.937274
       1.660000      -5.713685       2.255722       1.938055
       1.670000      -5.562545       2.331267       1.938766
       1.680000      -5.416161       2.403002       1.939441
       1.690000      -5.274364       2.466181       1.940118
       1.700000      -5.136891       2.516267       1.940831
       1.710000      -5.003393       2.549582       1.941589
       1.720000      -4.873476       2.564017       1.942374
       1.730000      -4.746769       2.559644       1.943139
       1.740000      -4.622996       2.539008       1.943823
       1.750000      -4.502017       2.506875       1.944357
       1.760000      -4.383829       2.469413       1.944681
       1.770000      -4.268538       2.433043       1.944756
       1.780000      -4.156305       2.403312       1.944567
       1.790000      -4.047309       2.384130       1.944126
       1.800000      -3.941704       2.377515       1.943471
       1.810000      -3.839600       2.383785       1.942657
       1.820000      -3.741050       2.402019       1.941746
       1.830000      -3.646064       2.430528       1.940801
       1.840000      -3.554637       2.467081       1.939878
       1.850000      -3.466779       2.508823       1.939030
       1.860000      -3.382533       2.551943       1.938302
       1.870000      -3.301959       2.591308       1.937741
       1.880000      -3.225117       2.620227       1.937382
       1.890000      -3.152070       2.630441       1.937246
       1.900000      -3.082924       2.612403       1.937327
       1.910000      -3.017869       2.555875       1.937593
       1.920000      -2.957177       2.450941       1.937994
       1.930000      -2.901176       2.289467       1.938471
       1.940000      -2.850200       2.066930       1.938971
       1.950000      -2.804575       1.784310       1.939457
       1.960000      -2.764643       1.449506       1.939909
       1.970000      -2.730785       1.077612       1.940324
       1.980000      -2.703430       0.689516       1.940711
       1.990000      -2.683036       0.308814       1.941086
       2.000000      -2.670074      -0.042229       1.941476
       2.010000      -2.665008      -0.346367       1.941917
       2.020000      -2.668257      -0.593550       1.942459
       2.030000      -2.680111      -0.781127       1.943156
       2.040000      -2.700605      -0.912448       1.944062
       2.050000      -2.729382      -0.994734       1.945218
       2.060000      -2.765544      -1.037018       1.946645
       2.070000      -2.807513      -1.048595       1.948341
       2.080000      -2.852955      -1.038060       1.950286
       2.090000      -2.898808      -1.012761       1.952444
       2.100000      -2.941511      -0.978482       1.954774
       2.110000      -2.977411      -0.939262       1.957229
       2.120000      -3.003296      -0.897362       1.959762
       2.130000      -3.016876      -0.853453       1.962322
       2.140000      -3.017066      -0.807038       1.964861
       2.150000      -3.003992      -0.756989       1.967325
       2.160000      -2.978752      -0.702089       1.969658
       2.170000      -2.943059      -0.641419       1.971798
       2.180000      -2.898877      -0.574562       1.973682
       2.190000      -2.848136      -0.501639       1.975243
       2.200000      -2.792561      -0.423250       1.976421
       2.210000      -2.733583      -0.340362       1.977166
       2.220000      -2.672341      -0.254206       1.977453
       2.230000      -2.609713      -0.166170       1.977294
       2.240000      -2.546378      -0.077668       1.976747
       2.250000      -2.482858       0.010024       1.975921
       2.260000      -2.419566       0.095938       1.974969
       2.270000      -2.356828       0.179535       1.974069
       2.280000      -2.294899       0.260685       1.973394
       2.290000      -2.233979       0.339498       1.973088
       2.300000      -2.174219       0.416072       1.973243
       2.310000      -2.115725       0.490297       1.973898
       2.320000      -2.058561       0.561833       1.975037
       2.330000      -2.002747       0.630275       1.976607
       2.340000      -1.948258       0.695436       1.978524
       2.350000      -1.895034       0.757604       1.980694
       2.360000      -1.842991       0.817620       1.983014
       2.370000      -1.792048       0.876722       1.985379
       2.380000      -1.742148       0.936176       1.987688
       2.390000      -1.693271       0.996815       1.989843
       2.400000      -1.645439       1.058628       1.991754
       2.410000      -1.598705       1.120505       1.993342
       2.420000      -1.553133       1.180186       1.994546
       2.430000      -1.508779       1.234370       1.995326
       2.440000      -1.465664       1.278952       1.995674
       2.450000      -1.423755       1.309348       1.995607
       2.460000      -1.382961       1.320881       1.995172
       2.470000      -1.343141       1.309232       1.994437
       2.480000      -1.304136       1.270893       1.993482
       2.490000      -1.265802       1.203578       1.992399
       2.500000      -1.228033       1.106518       1.991285
       2.510000      -1.190777       0.980634       1.990241
       2.520000      -1.154028       0.828604       1.989372
       2.530000      -1.117798       0.654890       1.988778
       2.540000      -1.082097       0.465716       1.988543
       2.550000      -1.046903       0.268912       1.988725
       2.560000      -1.012151       0.073486       1.989343
       2.570000      -0.977735      -0.111199       1.990378
       2.580000      -0.943533      -0.276534       1.991776
       2.590000      -0.909435      -0.415774       1.993463
       2.600000      -0.875365      -0.524770       1.995361
       2.610000      -0.841300      -0.602101       1.997397
       2.620000      -0.807257      -0.648682       1.999511
       2.630000      -0.773291      -0.667099       2.001653
       2.640000      -0.739481      -0.660923       2.003773
       2.650000      -0.705924      -0.634154       2.005815
       2.660000      -0.672729      -0.590818       2.007711
       2.670000      -0.640022      -0.534700       2.009384
       2.680000      -0.607931      -0.469191       2.010754
       2.690000      -0.576581      -0.397212       2.011756
       2.700000      -0.546064      -0.321195       2.012351
       2.710000      -0.516423      -0.243117       2.012535
       2.720000      -0.487632      -0.164546       2.012346
       2.730000      -0.459593      -0.086718       2.011855
       2.740000      -0.432161      -0.010605       2.011157
       2.750000      -0.405192       0.063005       2.010355
       2.760000      -0.378595       0.133472       2.009543
       2.770000      -0.352370       0.200309       2.008798
       2.780000      -0.326621       0.263238       2.008170
       2.790000      -0.301538       0.322280       2.007686
       2.800000      -0.277359       0.377819       2.007348
       2.810000      -0.254325       0.430579       2.007146
       2.820000      -0.232637       0.481505       2.007067
       2.830000      -0.212434       0.531561       2.007105
       2.840000      -0.193787       0.581519       2.007262
       2.850000      -0.176721       0.631815       2.007546
       2.860000      -0.161255       0.682509       2.007958
       2.870000      -0.147435       0.733340       2.008484
       2.880000      -0.135349       0.783862       2.009089
       2.890000      -0.125110       0.833593       2.009729
       2.900000      -0.116813       0.882162       2.010362
       2.910000      -0.110487       0.929384       2.010965
       2.920000      -0.106052       0.975267       2.011544
       2.930000      -0.103286       1.019949       2.012136
       2.940000      -0.101793       1.063628       2.012794
       2.950000      -0.101001       1.106520       2.013572
       2.960000      -0.100187       1.148893       2.014499
       2.970000      -0.098550       1.191134       2.015574
       2.980000      -0.095315       1.233785       2.016758
       2.990000      -0.089855       1.277512       2.017981
       3.000000      -0.081770       1.322982       2.019152
       3.010000      -0.070925       1.370704       2.020166
       3.020000      -0.057431       1.420908       2.020918
       3.030000      -0.041588       1.473486       2.021317
       3.040000      -0.023817       1.528019       2.021292
       3.050000      -0.004586       1.583854       2.020803
       3.060000       0.015646       1.640188       2.019842
       3.070000       0.036471       1.696156       2.018422
       3.080000       0.057561       1.750902       2.016578
       3.090000       0.078684       1.803636       2.014372
       3.100000       0.099693       1.853677       2.011889
       3.110000       0.120522       1.900474       2.009249
       3.120000       0.141164       1.943615       2.006594
       3.130000       0.161647       1.982819       2.004076
       3.140000       0.182028       2.017922       2.001838
       3.150000       0.202372       2.048850       1.999990
       3.160000       0.222738       2.075580       1.998596
       3.170000       0.243167       2.098086       1.997658
       3.180000       0.263666       2.116269       1.997123
       3.190000       0.284210       2.129924       1.996892
       3.200000       0.304741       2.138736       1.996851
       3.210000       0.325192       2.142309       1.996898
       3.220000       0.345497       2.140217       1.996972
       3.230000       0.365613       2.132066       1.997073
       3.240000       0.385522       2.117578       1.997259
       3.250000       0.405235       2.096679       1.997628
       3.260000       0.424780       2.069571       1.998285
       3.270000       0.444192       2.036799       1.999317
       3.280000       0.463505       1.999294       2.000763
       3.290000       0.482749       1.958418       2.002606
       3.300000       0.501948       1.915949       2.004781
       3.310000       0.521115       1.873970       2.007181
       3.320000       0.540256       1.834612       2.009673
       3.330000       0.559359       1.799710       2.012111
       3.340000       0.578398       1.770488       2.014356
       3.350000       0.597341       1.747417       2.016289
       3.360000       0.616158       1.730315       2.017835
       3.370000       0.634832       1.718627       2.018970
       3.380000       0.653368       1.711726       2.019739
       3.390000       0.671792       1.709084       2.020239
       3.400000       0.690150       1.710239       2.020604
       3.410000       0.708499       1.714630       2.020976
       3.420000       0.726891       1.721448       2.021471
       3.430000       0.745370       1.729634       2.022162
       3.440000       0.763957       1.738058       2.023065
       3.450000       0.782659       1.745838       2.024149
       3.460000       0.801469       1.752659       2.025347
       3.470000       0.820374       1.758909       2.026577
       3.480000       0.839356       1.765544       2.027753
       3.490000       0.858396       1.773695       2.028801
       3.500000       0.877462       1.784184       2.029662
       3.510000       0.896515       1.797166       2.030291
       3.520000       0.915501       1.812013       2.030655
       3.530000       0.934359       1.827469       2.030735
       3.540000       0.953028       1.841982       2.030529
       3.550000       0.971460       1.854082       2.030067
       3.560000       0.989631       1.862686       2.029415
       3.570000       1.007550       1.867202       2.028674
       3.580000       1.025262       1.867391       2.027967
       3.590000       1.042834       1.863076       2.027414
       3.600000       1.060350       1.853858       2.027104
       3.610000       1.077890       1.839021       2.027088
       3.620000       1.095529       1.817738       2.027365
       3.630000       1.113326       1.789480       2.027887
       3.640000       1.131322       1.754476       2.028579
       3.650000       1.149533       1.713976       2.029347
       3.660000       1.167934       1.670166       2.030097
       3.670000       1.186459       1.625730       2.030745
       3.680000       1.205002       1.583278       2.031220
       3.690000       1.223433       1.544907       2.031464
       3.700000       1.241616       1.512085       2.031434
       3.710000       1.259427       1.485789       2.031102
       3.720000       1.276763       1.466723       2.030468
       3.730000       1.293535       1.455409       2.029563
       3.740000       1.309655       1.452142       2.028449
       3.750000       1.325010       1.456880       2.027210
       3.760000       1.339443       1.469188       2.025938
       3.770000       1.352732       1.488273       2.024720
       3.780000       1.364569       1.513069       2.023636
       3.790000       1.374564       1.542321       2.022762
       3.800000       1.382261       1.574614       2.022185
       3.810000       1.387209       1.608370       2.022006
       3.820000       1.389064       1.641840       2.022337
       3.830000       1.387726       1.673142       2.023286
       3.840000       1.383469       1.700361       2.024933
       3.850000       1.377007       1.721759       2.027308
       3.860000       1.369460       1.736062       2.030385
       3.870000       1.362194       1.742811       2.034073
       3.880000       1.356577       1.742646       2.038225
       3.890000       1.353737       1.737410       2.042659
       3.900000       1.354398       1.729929       2.047167
       3.910000       1.358841       1.723489       2.051538
       3.920000       1.366962       1.721141       2.055573
       3.930000       1.378392       1.725107       2.059101
       3.940000       1.392616       1.736467       2.061992
       3.950000       1.409073       1.755167       2.064168
       3.960000       1.427234       1.780246       2.065604
       3.970000       1.446635       1.810114       2.066337
       3.980000       1.466901       1.842790       2.066465
       3.990000       1.487746       1.876049       2.066139
       4.000000       1.508964       1.907511       2.065559
       4.010000       1.530412       1.934704       2.064947
       4.020000       1.551990       1.955142       2.064526
       4.030000       1.573610       1.966466       2.064481
       4.040000       1.595167       1.966657       2.064937
       4.050000       1.616514       1.954316       2.065934
       4.060000       1.637447       1.928927       2.067423
       4.070000       1.657720       1.891000       2.069269
       4.080000       1.677077       1.841982       2.071272
       4.090000       1.695297       1.783939       2.073197
       4.100000       1.712229       1.719140       2.074815
       4.110000       1.727827       1.649729       2.075936
       4.120000       1.742150       1.577657       2.076435
       4.130000       1.755364       1.504867       2.076269
       4.140000       1.767735       1.433566       2.075468
       4.150000       1.779611       1.366374       2.074120
       4.160000       1.791399       1.306206       2.072352
       4.170000       1.803520       1.255864       2.070301
       4.180000       1.816328       1.217527       2.068106
       4.190000       1.830032       1.192340       2.065888
       4.200000       1.844620       1.180265       2.063743
       4.210000       1.859815       1.180193       2.061737
       4.220000       1.875071       1.190240       2.059908
       4.230000       1.889604       1.208076       2.058270
       4.240000       1.902466       1.231220       2.056831
       4.250000       1.912638       1.257283       2.055597
       4.260000       1.919168       1.284172       2.054577
       4.270000       1.921352       1.310271       2.053778
       4.280000       1.918935       1.334567       2.053200
       4.290000       1.912286       1.356675       2.052839
       4.300000       1.902459       1.376711       2.052689
       4.310000       1.891071       1.395046       2.052751
       4.320000       1.879974       1.412033       2.053037
       4.330000       1.870823       1.427864       2.053571
       4.340000       1.864684       1.442625       2.054385
       4.350000       1.861831       1.456521       2.055511
       4.360000       1.861750       1.470115       2.056975
       4.370000       1.863323       1.484424       2.058783
       4.380000       1.865110       1.500781       2.060911
       4.390000       1.865660       1.520526       2.063285
       4.400000       1.863834       1.544665       2.065789
       4.410000       1.859099       1.573661       2.068270
       4.420000       1.851735       1.607405       2.070553
       4.430000       1.842879       1.645337       2.072465
       4.440000       1.834350       1.686589       2.073846
       4.450000       1.828261       1.730116       2.074559
       4.460000       1.826557       1.774757       2.074500
       4.470000       1.830638       1.819289       2.073613
       4.480000       1.841182       1.862467       2.071907
       4.490000       1.858180       1.903115       2.069482
       4.500000       1.881104       1.940233       2.066534
       4.510000       1.909119       1.973127       2.063334
       4.520000       1.941264       2.001510       2.060196
       4.530000       1.976569       2.025550       2.057416
       4.540000       2.014124       2.045806       2.055226
       4.550000       2.053092       2.063049       2.053757
       4.560000       2.092690       2.078007       2.053030
       4.570000       2.132163       2.091129       2.052974
       4.580000       2.170744       2.102483       2.053446
       4.590000       2.207636       2.111835       2.054260
       4.600000       2.242009       2.118888       2.055207
       4.610000       2.273037       2.123569       2.056072
       4.620000       2.299960       2.126234       2.056653
       4.630000       2.322165       2.127669       2.056788
       4.640000       2.339285       2.128854       2.056385
       4.650000       2.351286       2.130538       2.055436
       4.660000       2.358536       2.132824       2.054021
       4.670000       2.361817       2.134923       2.052282
       4.680000       2.362238       2.135214       2.050379
       4.690000       2.361034       2.131584       2.048441
       4.700000       2.359270       2.121956       2.046522
       4.710000       2.357514       2.104880       2.044586
       4.720000       2.355603       2.079996       2.042523
       4.730000       2.352550       2.048266       2.040192
       4.740000       2.346638       2.011847       2.037483
       4.750000       2.335665       1.973664       2.034359
       4.760000       2.317261       1.936792       2.030883
       4.770000       2.289257       1.903841       2.027209
       4.780000       2.250044       1.876510       2.023548
       4.790000       2.198920       1.855407       2.020130
       4.800000       2.136364       1.840137       2.017165
       4.810000       2.064170       1.829574       2.014824
       4.820000       1.985332       1.822187       2.013237
       4.830000       1.903662       1.816302       2.012486
       4.840000       1.823169       1.810261       2.012600
       4.850000       1.747363       1.802525       2.013545
       4.860000       1.678716       1.791778       2.015221
       4.870000       1.618420       1.777096       2.017475
       4.880000       1.566487       1.758107       2.020118
       4.890000       1.522073       1.735073       2.022946
       4.900000       1.483850       1.708799       2.025765
       4.910000       1.450313       1.680393       2.028396
       4.920000       1.420017       1.650949       2.030695
       4.930000       1.391781       1.621301       2.032553
       4.940000       1.364899       1.591909       2.033904
       4.950000       1.339276       1.562883       2.034729
       4.960000       1.315407       1.534068       2.035049
       4.970000       1.294175       1.505153       2.034921
       4.980000       1.276535       1.475781       2.034435
       4.990000       1.263261       1.445682       2.033705
       5.000000       1.254850       1.414802       2.032863
       5.010000       1.251577       1.383367       2.032043
       5.020000       1.253619       1.351860       2.031364
       5.030000       1.261141       1.320904       2.030919
       5.040000       1.274308       1.291147       2.030771
       5.050000       1.293224       1.263192       2.030954
       5.060000       1.317846       1.237607       2.031485
       5.070000       1.347911       1.214939       2.032368
       5.080000       1.382892       1.195704       2.033606
       5.090000       1.422006       1.180294       2.035199
       5.100000       1.464255       1.168870       2.037143
       5.110000       1.508490       1.161269       2.039423
       5.120000       1.553493       1.156991       2.042005
       5.130000       1.598063       1.155299       2.044830
       5.140000       1.641106       1.155414       2.047816
       5.150000       1.681719       1.156761       2.050864
       5.160000       1.719212       1.159181       2.053872
       5.170000       1.753061       1.162999       2.056752
       5.180000       1.782771       1.168907       2.059446
       5.190000       1.807687       1.177684       2.061931
       5.200000       1.826843       1.189835       2.064222
       5.210000       1.838911       1.205288       2.066357
       5.220000       1.842307       1.223248       2.068386
       5.230000       1.835432       1.242248       2.070351
       5.240000       1.816981       1.260367       2.072279
       5.250000       1.786252       1.275564       2.074177
       5.260000       1.743395       1.286011       2.076023
       5.270000       1.689545       1.290377       2.077778
       5.280000       1.626817       1.288005       2.079390
       5.290000       1.558137       1.278986       2.080822
       5.300000       1.486917       1.264152       2.082067
       5.310000       1.416637       1.244996       2.083172
       5.320000       1.350407       1.223535       2.084233
       5.330000       1.290643       1.202083       2.085378
       5.340000       1.238901       1.182972       2.086739
       5.350000       1.195896       1.168243       2.088424
       5.360000       1.161628       1.159389       2.090503
       5.370000       1.135541       1.157172       2.092999
       5.380000       1.116651       1.161570       2.095896
       5.390000       1.103643       1.171858       2.099135
       5.400000       1.094963       1.186840       2.102618
       5.410000       1.088984       1.205174       2.106212
       5.420000       1.084233       1.225708       2.109759
       5.430000       1.079655       1.247737       2.113098
       5.440000       1.074824       1.271101       2.116085
       5.450000       1.069999       1.296091       2.118620
       5.460000       1.065993       1.323213       2.120663
       5.470000       1.063918       1.352910       2.122244
       5.480000       1.064904       1.385320       2.123457
       5.490000       1.069913       1.420172       2.124447
       5.500000       1.079660       1.456775       2.125376
       5.510000       1.094598       1.494087       2.126398
       5.520000       1.114911       1.530780       2.127631
       5.530000       1.140486       1.565327       2.129137
       5.540000       1.170900       1.596101       2.130924
       5.550000       1.205443       1.621520       2.132951
       5.560000       1.243200       1.640215       2.135155
       5.570000       1.283167       1.651191       2.137468
       5.580000       1.324363       1.653928       2.139837
       5.590000       1.365931       1.648426       2.142234
       5.600000       1.407184       1.635165       2.144663
       5.610000       1.447592       1.615001       2.147149
       5.620000       1.486730       1.589020       2.149729
       5.630000       1.524201       1.558382       2.152429
       5.640000       1.559576       1.524211       2.155251
       5.650000       1.592384       1.487581       2.158154
       5.660000       1.622138       1.449606       2.161057
       5.670000       1.648406       1.411559       2.163850
       5.680000       1.670851       1.374882       2.166424
       5.690000       1.689219       1.341020       2.168702
       5.700000       1.703256       1.311097       2.170667
       5.710000       1.712582       1.285621       2.172365
       5.720000       1.716609       1.264370       2.173899
       5.730000       1.714555       1.246545       2.175403
       5.740000       1.705598       1.231125       2.177017
       5.750000       1.689133       1.217250       2.178869
       5.760000       1.665057       1.204493       2.181062
       5.770000       1.633962       1.192929       2.183666
       5.780000       1.597140       1.183011       2.186715
       5.790000       1.556381       1.175316       2.190201
       5.800000       1.513610       1.170275       2.194074
       5.810000       1.470493       1.167998       2.198247
       5.820000       1.428176       1.168248       2.202607
       5.830000       1.387215       1.170546       2.207019
       5.840000       1.347729       1.174331       2.211349
       5.850000       1.309686       1.179110       2.215476
       5.860000       1.273186       1.184559       2.219310
       5.870000       1.238633       1.190562       2.222809
       5.880000       1.206736       1.197178       2.225986
       5.890000       1.178367       1.204557       2.228910
       5.900000       1.154390       1.212845       2.231696
       5.910000       1.135542       1.222139       2.234484
       5.920000       1.122417       1.232552       2.237414
       5.930000       1.115506       1.244314       2.240598
       5.940000       1.115212       1.257850       2.244092
       5.950000       1.121788       1.273737       2.247890
       5.960000       1.135219       1.292554       2.251923
       5.970000       1.155107       1.314690       2.256074
       5.980000       1.180625       1.340200       2.260204
       5.990000       1.210560       1.368747       2.264181
       6.000000       1.243421       1.399606       2.267902
       6.010000       1.277575       1.431727       2.271311
       6.020000       1.311376       1.463834       2.274411
       6.030000       1.343298       1.494593       2.277257
       6.040000       1.372065       1.522832       2.279949
       6.050000       1.396766       1.547752       2.282606
       6.060000       1.416931       1.569056       2.285341
       6.070000       1.432521       1.586906       2.288239
       6.080000       1.443815       1.601702       2.291339
       6.090000       1.451232       1.613769       2.294632
       6.100000       1.455170       1.623116       2.298065
       6.110000       1.455925       1.629375       2.301552
       6.120000       1.453693       1.631951       2.304987
       6.130000       1.448633       1.630303       2.308265
       6.140000       1.440918       1.624193       2.311298
       6.150000       1.430762       1.613819       2.314033
       6.160000       1.418437       1.599768       2.316453
       6.170000       1.404292       1.582849       2.318577
       6.180000       1.388772       1.563893       2.320437
       6.190000       1.372453       1.543604       2.322066
       6.200000       1.356031       1.522481       2.323482
       6.210000       1.340280       1.500838       2.324681
       6.220000       1.325964       1.478886       2.325639
       6.230000       1.313744       1.456815       2.326321
       6.240000       1.304093       1.434828       2.326699
       6.250000       1.297257       1.413106       2.326780
       6.260000       1.293260       1.391718       2.326627
       6.270000       1.291964       1.370572       2.326377
       6.280000       1.293182       1.349451       2.326234
       6.290000       1.296807       1.328156       2.326451
       6.300000       1.302916       1.306717       2.327283
       6.310000       1.311806       1.285581       2.328946
       6.320000       1.323942       1.265722       2.331572
       6.330000       1.339829       1.248603       2.335187
       6.340000       1.359843       1.235984       2.339707
       6.350000       1.384099       1.229627       2.344961
       6.360000       1.412379       1.230980       2.350724
       6.370000       1.444152       1.240925       2.356759
       6.380000       1.478657       1.259623       2.362844
       6.390000       1.515016       1.286471       2.368804
       6.400000       1.552337       1.320169       2.374513
       6.410000       1.589791       1.358847       2.379894
       6.420000       1.626648       1.400251       2.384908
       6.430000       1.662263       1.441921       2.389551
       6.440000       1.696051       1.481368       2.393840
       6.450000       1.727451       1.516241       2.397819
       6.460000       1.755908       1.544489       2.401546
       6.470000       1.780892       1.564540       2.405090
       6.480000       1.801924       1.575470       2.408521
       6.490000       1.818627       1.577159       2.411898
       6.500000       1.830783       1.570352       2.415266
       6.510000       1.838388       1.556619       2.418650
       6.520000       1.841730       1.538187       2.422056
       6.530000       1.841431       1.517669       2.425464
       6.540000       1.838438       1.497710       2.428828
       6.550000       1.833916       1.480606       2.432078
       6.560000       1.829050       1.467961       2.435119
       6.570000       1.824828       1.460475       2.437834
       6.580000       1.821905       1.457938       2.440091
       6.590000       1.820574       1.459445       2.441760
       6.600000       1.820851       1.463743       2.442738
       6.610000       1.822606       1.469615       2.442983
       6.620000       1.825649       1.476151       2.442547
       6.630000       1.829748       1.482828       2.441592
       6.640000       1.834574       1.489387       2.440374
       6.650000       1.839655       1.495598       2.439207
       6.660000       1.844393       1.501069       2.438406
       6.670000       1.848184       1.505221       2.438234
       6.680000       1.850595       1.507443       2.438860
       6.690000       1.851521       1.507381       2.440330
       6.700000       1.851239       1.505206       2.442580
       6.710000       1.850320       1.501712       2.445450
       6.720000       1.849456       1.498175       2.448723
       6.730000       1.849253       1.495981       2.452172
       6.740000       1.850085       1.496211       2.455595
       6.750000       1.852041       1.499331       2.458852
       6.760000       1.854966       1.505141       2.461885
       6.770000       1.858531       1.512919       2.464716
       6.780000       1.862286       1.521682       2.467438
       6.790000       1.865671       1.530413       2.470191
       6.800000       1.868012       1.538214       2.473134
       6.810000       1.868568       1.544371       2.476424
       6.820000       1.866679       1.548400       2.480195
       6.830000       1.861983       1.550130       2.484540
       6.840000       1.854648       1.549815       2.489504
       6.850000       1.845462       1.548207       2.495076
       6.860000       1.835726       1.546472       2.501202
       6.870000       1.826933       1.545921       2.507790
       6.880000       1.820386       1.547646       2.514729
       6.890000       1.816893       1.552220       2.521907
       6.900000       1.816626       1.559592       2.529232
       6.910000       1.819127       1.569188       2.536655
       6.920000       1.823372       1.580105       2.544173
       6.930000       1.827851       1.591291       2.551832
       6.940000       1.830663       1.601614       2.559711
       6.950000       1.829646       1.609836       2.567899
       6.960000       1.822568       1.614527       2.576473
       6.970000       1.807386       1.614040       2.585483
       6.980000       1.782525       1.606625       2.594932
       6.990000       1.747141       1.590741       2.604780
       7.000000       1.701274       1.565493       2.614937
       7.010000       1.645846       1.531042       2.625274
       7.020000       1.582450       1.488796       2.635623
       7.030000       1.512998       1.441252       2.645786
       7.040000       1.439303       1.391496       2.655554
       7.050000       1.362781       1.342539       2.664724
       7.060000       1.284364       1.296780       2.673128
       7.070000       1.204689       1.255780       2.680668
       7.080000       1.124467       1.220379       2.687338
       7.090000       1.044869       1.190957       2.693235
       7.100000       0.967727       1.167623       2.698546
       7.110000       0.895404       1.150203       2.703527
       7.120000       0.830377       1.138094       2.708467
       7.130000       0.774679       1.130136       2.713663
       7.140000       0.729442       1.124634       2.719393
       7.150000       0.694687       1.119564       2.725901
       7.160000       0.669405       1.112859       2.733383
       7.170000       0.651820       1.102683       2.741975
       7.180000       0.639706       1.087556       2.751747
       7.190000       0.630645       1.066341       2.762695
       7.200000       0.622217       1.038143       2.774749
       7.210000       0.612162       1.002271       2.787780
       7.220000       0.598571       0.958336       2.801614
       7.230000       0.580066       0.906463       2.816052
       7.240000       0.555923       0.847484       2.830897
       7.250000       0.526053       0.782955       2.845971
       7.260000       0.490854       0.714963       2.861146
       7.270000       0.451010       0.645806       2.876353
       7.280000       0.407337       0.577697       2.891591
       7.290000       0.360743       0.512613       2.906912
       7.300000       0.312280       0.452286       2.922408
       7.310000       0.263173       0.398237       2.938189
       7.320000       0.214761       0.351734       2.954366
       7.330000       0.168310       0.313665       2.971030
       7.340000       0.124761       0.284374       2.988234
       7.350000       0.084524       0.263577       3.005971
       7.360000       0.047376       0.250386       3.024162
       7.370000       0.012554       0.243441       3.042651
       7.380000      -0.021004       0.241101       3.061217
       7.390000      -0.054296       0.241670       3.079593
       7.400000      -0.087918       0.243625       3.097483
       7.410000      -0.121863       0.245797       3.114581
       7.420000      -0.155558       0.247471       3.130565
       7.430000      -0.188118       0.248368       3.145093
       7.440000      -0.218679       0.248552       3.157794
       7.450000      -0.246648       0.248315       3.168267
       7.460000      -0.271757       0.248088       3.176091
       7.470000      -0.293911       0.248407       3.180860
       7.480000      -0.312975       0.249886       3.182225
       7.490000      -0.328629       0.253157       3.179949
       7.500000      -0.340375       0.258744       3.173957
       7.510000      -0.347686       0.266933       3.164377
       7.520000      -0.350212       0.277678       3.151552
       7.530000      -0.347933       0.290611       3.136015
       7.540000      -0.341211       0.305142       3.118439
       7.550000      -0.330724       0.320634       3.099545
       7.560000      -0.317320       0.336571       3.080020
       7.570000      -0.301846       0.352662       3.060458
       7.580000      -0.285010       0.368822       3.041339
       7.590000      -0.267320       0.385025       3.023048
       7.600000      -0.249101       0.401106       3.005903
       7.610000      -0.230562       0.416606       2.990163
       7.620000      -0.211878       0.430750       2.976021
       7.630000      -0.193243       0.442559       2.963577
       7.640000      -0.174909       0.451045       2.952819
       7.650000      -0.157215       0.455417       2.943626
       7.660000      -0.140597       0.455235       2.935792
       7.670000      -0.125580       0.450504       2.929087
       7.680000      -0.112721       0.441690       2.923313
       7.690000      -0.102505       0.429683       2.918350
       7.700000      -0.095208       0.415722       2.914164
       7.710000      -0.090770       0.401292       2.910780
       7.720000      -0.088737       0.388015       2.908232
       7.730000      -0.088304       0.377526       2.906525
       7.740000      -0.088466       0.371319       2.905606
       7.750000      -0.088243       0.370565       2.905346
       7.760000      -0.086898       0.375940       2.905516
       7.770000      -0.084069       0.387500       2.905792
       7.780000      -0.079773       0.404672       2.905775
       7.790000      -0.074283       0.426349       2.905040
       7.800000      -0.067938       0.451079       2.903205
       7.810000      -0.060969       0.477270       2.899983
       7.820000      -0.053423       0.503376       2.895219
       7.830000      -0.045207       0.528032       2.888899
       7.840000      -0.036214       0.550147       2.881140
       7.850000      -0.026448       0.568960       2.872181
       7.860000      -0.016086       0.584041       2.862350
       7.870000      -0.005456       0.595250       2.852022
       7.880000       0.005056       0.602628       2.841568
       7.890000       0.015118       0.606278       2.831310
       7.900000       0.024543       0.606234       2.821520
       7.910000       0.033327       0.602389       2.812443
       7.920000       0.041614       0.594505       2.804342
       7.930000       0.049623       0.582335       2.797527
       7.940000       0.057561       0.565824       2.792355
       7.950000       0.065567       0.545307       2.789194
       7.960000       0.073700       0.521594       2.788392
       7.970000       0.081958       0.495877       2.790255
       7.980000       0.090300       0.469499       2.795029
       7.990000       0.098670       0.443703       2.802875
       8.000000       0.107016       0.419456       2.813832
       8.010000       0.115285       0.397358       2.827781
       8.020000       0.123384       0.377595       2.844447
       8.030000       0.131112       0.359896       2.863429
       8.040000       0.138090       0.343488       2.884264
       8.050000       0.143742       0.327136       2.906486
       8.060000       0.147382       0.309306       2.929665
       8.070000       0.148382       0.288458       2.953416
       8.080000       0.146379       0.263396       2.977394
       8.090000       0.141436       0.233563       3.001297
       8.100000       0.134087       0.199176       3.024871
       8.110000       0.125232       0.161173       3.047917
       8.120000       0.115932       0.120983       3.070292
       8.130000       0.107182       0.080209       3.091891
       8.140000       0.099768       0.040330       3.112612
       8.150000       0.094216       0.002520       3.132322
       8.160000       0.090838      -0.032368       3.150835
       8.170000       0.089811      -0.063725       3.167905
       8.180000       0.091241      -0.091097       3.183249
       8.190000       0.095186      -0.114176       3.196573
       8.200000       0.101639      -0.132855       3.207598
       8.210000       0.110499      -0.147250       3.216097
       8.220000       0.121561      -0.157629       3.221912
       8.230000       0.134540      -0.164274       3.224986
       8.240000       0.149127      -0.167358       3.225367
       8.250000       0.165020      -0.166943       3.223205
       8.260000       0.181929      -0.163080       3.218727
       8.270000       0.199559      -0.155956       3.212198
       8.280000       0.217574      -0.146002       3.203885
       8.290000       0.235597      -0.133912       3.194037
       8.300000       0.253231      -0.120598       3.182891
       8.310000       0.270103      -0.107115       3.170705
       8.320000       0.285907      -0.094575       3.157780
       8.330000       0.300435      -0.084075       3.144455
       8.340000       0.313587      -0.076613       3.131047
       8.350000       0.325357      -0.072992       3.117760
       8.360000       0.335800      -0.073691       3.104615
       8.370000       0.344992      -0.078757       3.091433
       8.380000       0.353012      -0.087742       3.077910
       8.390000       0.359947      -0.099747       3.063741
       8.400000       0.365918      -0.113569       3.048759
       8.410000       0.371102      -0.127918       3.033041
       8.420000       0.375704      -0.141635       3.016916
       8.430000       0.379891      -0.153864       3.000905
       8.440000       0.383715      -0.164135       2.985603
       8.450000       0.387066      -0.172375       2.971574
       8.460000       0.389702      -0.178841       2.959282
       8.470000       0.391329      -0.184005       2.949068
       8.480000       0.391710      -0.188412       2.941144
       8.490000       0.390763      -0.192539       2.935593
       8.500000       0.388611      -0.196694       2.932369
       8.510000       0.385588      -0.200942       2.931309
       8.520000       0.382188      -0.205073       2.932195
       8.530000       0.378996      -0.208582       2.934845
       8.540000       0.376587      -0.210717       2.939218
       8.550000       0.375439      -0.210577       2.945478
       8.560000       0.375871      -0.207281       2.953979
       8.570000       0.378006      -0.200147       2.965149
       8.580000       0.381774      -0.188814       2.979327
       8.590000       0.386955      -0.173279       2.996603
       8.600000       0.393232      -0.153844       3.016743
       8.610000       0.400242      -0.131015       3.039213
       8.620000       0.407609      -0.105402       3.063296
       8.630000       0.414950      -0.077647       3.088241
       8.640000       0.421879      -0.048391       3.113422
       8.650000       0.428019      -0.018271       3.138441
       8.660000       0.433026       0.012067       3.163177
       8.670000       0.436641       0.041948       3.187764
       8.680000       0.438754       0.070683       3.212503
       8.690000       0.439474       0.097603       3.237741
       8.700000       0.439155       0.122128       3.263765
       8.710000       0.438361       0.143836       3.290753
       8.720000       0.437768       0.162522       3.318798
       8.730000       0.438009       0.178216       3.347980
       8.740000       0.439540       0.191184       3.378439
       8.750000       0.442564       0.201894       3.410390
       8.760000       0.447031       0.210966       3.444048
       8.770000       0.452713       0.219117       3.479495
       8.780000       0.459305       0.227095       3.516532
       8.790000       0.466522       0.235627       3.554570
       8.800000       0.474171       0.245371       3.592595
       8.810000       0.482162       0.256860       3.629179
       8.820000       0.490487       0.270459       3.662536
       8.830000       0.499169       0.286319       3.690589
       8.840000       0.508218       0.304369       3.711048
       8.850000       0.517606       0.324331       3.721507
       8.860000       0.527258       0.345799       3.719607
       8.870000       0.537054       0.368327       3.703273
       8.880000       0.546838       0.391532       3.671005
       8.890000       0.556427       0.415168       3.622150
       8.900000       0.565642       0.439152       3.557019
       8.910000       0.574341       0.463532       3.476765
       8.920000       0.582456       0.488423       3.383029
       8.930000       0.590001       0.513910       3.277494
       8.940000       0.597059       0.539967       3.161561
       8.950000       0.603736       0.566401       3.036306
       8.960000       0.610127       0.592841       2.902709
       8.970000       0.616303       0.618767       2.762013
       8.980000       0.622325       0.643579       2.615996
       8.990000       0.628280       0.666674       2.467016
       9.000000       0.634290       0.687508       2.317833
       9.010000       0.640504       0.705632       2.171321
       9.020000       0.647056       0.720706       2.030194
       9.030000       0.654017       0.732486       1.896805
       9.040000       0.661356       0.740781       1.773016
       9.050000       0.668929       0.745400       1.660112
       9.060000       0.676507       0.746111       1.558767
       9.070000       0.683818       0.742635       1.469095
       9.080000       0.690610       0.734712       1.390828
       9.090000       0.696706       0.722224       1.323555
       9.100000       0.702040       0.705334       1.266908
       9.110000       0.706684       0.684590       1.220569
       9.120000       0.710842       0.660907       1.184080
       9.130000       0.714810       0.635416       1.156573
       9.140000       0.718922       0.609231       1.136604
       9.150000       0.723467       0.583225       1.122215
       9.160000       0.728635       0.557922       1.111245
       9.170000       0.734476       0.533555       1.101769
       9.180000       0.740905       0.510223       1.092490
       9.190000       0.747726       0.488063       1.082922
       9.200000       0.754682       0.467349       1.073292
       9.210000       0.761518       0.448483       1.064243
       9.220000       0.768040       0.431917       1.056457
       9.230000       0.774155       0.418051       1.050371
       9.240000       0.779877       0.407135       1.046032
       9.250000       0.785304       0.399205       1.043122
       9.260000       0.790566       0.394045       1.041070
       9.270000       0.795768       0.391192       1.039221
       9.280000       0.800946       0.390005       1.037021
       9.290000       0.806057       0.389749       1.034179
       9.300000       0.810978       0.389676       1.030776
       9.310000       0.815534       0.389058       1.027262
       9.320000       0.819530       0.387188       1.024357
       9.330000       0.822783       0.383389       1.022876
       9.340000       0.825149       0.377068       1.023533
       9.350000       0.826548       0.367818       1.026778
       9.360000       0.826990       0.355514       1.032669
       9.370000       0.826586       0.340354       1.040809
       9.380000       0.825544       0.322818       1.050340
       9.390000       0.824144       0.303577       1.060047
       9.400000       0.822696       0.283417       1.068555
       9.410000       0.821502       0.263190       1.074613
       9.420000       0.820832       0.243804       1.077390
       9.430000       0.820923       0.226193       1.076678
       9.440000       0.821982       0.211256       1.072935
       9.450000       0.824187       0.199755       1.067124
       9.460000       0.827663       0.192224       1.060434
       9.470000       0.832449       0.188910       1.054001
       9.480000       0.838470       0.189779       1.048738
       9.490000       0.845546       0.194573       1.045330
       9.500000       0.853427       0.202867       1.044350
       9.510000       0.861852       0.214099       1.046407
       9.520000       0.870614       0.227562       1.052227
       9.530000       0.879592       0.242390       1.062616
       9.540000       0.888759       0.257573       1.078308
       9.550000       0.898160       0.272015       1.099742
       9.560000       0.907855       0.284640       1.126879
       9.570000       0.917865       0.294514       1.159113
       9.580000       0.928114       0.301004       1.195307
       9.590000       0.938408       0.303917       1.233932
       9.600000       0.948442       0.303610       1.273262
       9.610000       0.957848       0.300985       1.311585
       9.620000       0.966258       0.297366       1.347395
       9.630000       0.973380       0.294248       1.379544
       9.640000       0.979051       0.293011       1.407333
       9.650000       0.983257       0.294655       1.430541
       9.660000       0.986128       0.299626       1.449377
       9.670000       0.987888       0.307763       1.464387
       9.680000       0.988814       0.318348       1.476343
       9.690000       0.989191       0.330219       1.486113
       9.700000       0.989288       0.341932       1.494533
       9.710000       0.989340       0.351927       1.502286
       9.720000       0.989538       0.358725       1.509810
       9.730000       0.990027       0.361126       1.517253
       9.740000       0.990905       0.358400       1.524492
       9.750000       0.992252       0.350427       1.531198
       9.760000       0.994153       0.337734       1.536913
       9.770000       0.996718       0.321401       1.541122
       9.780000       1.000069       0.302881       1.543288
       9.790000       1.004316       0.283779       1.542881
       9.800000       1.009518       0.265658       1.539381
       9.810000       1.015659       0.249879       1.532293
       9.820000       1.022655       0.237481       1.521173
       9.830000       1.030367       0.229071       1.505668
       9.840000       1.038629       0.224786       1.485574
       9.850000       1.047255       0.224320       1.460868
       9.860000       1.056053       0.227074       1.431691
       9.870000       1.064827       0.232363       1.398285
       9.880000       1.073404       0.239651       1.360932
       9.890000       1.081664       0.248716       1.319949
       9.900000       1.089582       0.259674       1.275737
       9.910000       1.097244       0.272883       1.228854
       9.920000       1.104827       0.288741       1.180037
       9.930000       1.112544       0.307491       1.130152
       9.940000       1.120565       0.329098       1.080071
       9.950000       1.128955       0.353231       1.030543
       9.960000       1.137640       0.379345       0.982095
       9.970000       1.146410       0.406803       0.935028
       9.980000       1.154958       0.435016       0.889484
       9.990000       1.162928       0.463525       0.845571
      10.000000       1.169974       0.492033       0.803482
      10.010000       1.175809       0.520357       0.763565
      10.020000       1.180228       0.548350       0.726303
      10.030000       1.183115       0.575827       0.692205
      10.040000       1.184411       0.602534       0.661643
      10.050000       1.184096       0.628138       0.634708
      10.060000       1.182176       0.652235       0.611146
      10.070000       1.178718       0.674338       0.590416
      10.080000       1.173887       0.693837       0.571847
      10.090000       1.167972       0.709947       0.554818
      10.100000       1.161357       0.721688       0.538882
      10.110000       1.154447       0.727916       0.523789
      10.120000       1.147582       0.727439       0.509415
      10.130000       1.140960       0.719202       0.495664
      10.140000       1.134620       0.702505       0.482391
      10.150000       1.128456       0.677191       0.469409
      10.160000       1.122282       0.643736       0.456566
      10.170000       1.115896       0.603213       0.443869
      10.180000       1.109151       0.557140       0.431566
      10.190000       1.102014       0.507289       0.420156
      10.200000       1.094596       0.455494       0.410301
      10.210000       1.087158       0.403514       0.402667
      10.220000       1.080064       0.352910       0.397756
      10.230000       1.073710       0.304942       0.395778
      10.240000       1.068429       0.260480       0.396586
      10.250000       1.064422       0.219961       0.399702
      10.260000       1.061736       0.183391       0.404383
      10.270000       1.060296       0.150385       0.409720
      10.280000       1.059969       0.120223       0.414734
      10.290000       1.060625       0.091935       0.418439
      10.300000       1.062160       0.064421       0.419923
      10.310000       1.064480       0.036611       0.418440
      10.320000       1.067473       0.007651       0.413528
      10.330000       1.070990      -0.022937       0.405131
      10.340000       1.074867      -0.055152       0.393652
      10.350000       1.078947      -0.088507       0.379936
      10.360000       1.083104      -0.122104       0.365154
      10.370000       1.087253      -0.154786       0.350631
      10.380000       1.091347      -0.185335       0.337669
      10.390000       1.095367      -0.212681       0.327403
      10.400000       1.099316      -0.236060       0.320702
      10.410000       1.103204      -0.255084       0.318105
      10.420000       1.107022      -0.269723       0.319794
      10.430000       1.110730      -0.280209       0.325602
      10.440000       1.114236      -0.286942       0.335068
      10.450000       1.117402      -0.290412       0.347547
      10.460000       1.120050      -0.291159       0.362327
      10.470000       1.121985      -0.289758       0.378737
      10.480000       1.123027      -0.286819       0.396216
      10.490000       1.123041      -0.282987       0.414355
      10.500000       1.121958      -0.278927       0.432913
      10.510000       1.119797      -0.275283       0.451816
      10.520000       1.116664      -0.272592       0.471126
      10.530000       1.112738      -0.271179       0.490968
      10.540000       1.108242      -0.271071       0.511437
      10.550000       1.103408      -0.271965       0.532523
      10.560000       1.098433      -0.273283       0.554076
      10.570000       1.093449      -0.274281       0.575832
      10.580000       1.088502      -0.274195       0.597459
      10.590000       1.083542      -0.272389       0.618621
      10.600000       1.078428      -0.268448       0.639028
      10.610000       1.072968      -0.262227       0.658491
      10.620000       1.066977      -0.253833       0.676953
      10.630000       1.060367      -0.243560       0.694511
      10.640000       1.053209      -0.231798       0.711412
      10.650000       1.045763      -0.218948       0.728004
      10.660000       1.038427      -0.205366       0.744686
      10.670000       1.031635      -0.191350       0.761840
      10.680000       1.025721      -0.177153       0.779782
      10.690000       1.020833      -0.163028       0.798736
      10.700000       1.016923      -0.149254       0.818827
      10.710000       1.013808      -0.136162       0.840079
      10.720000       1.011264      -0.124127       0.862413
      10.730000       1.009112      -0.113533       0.885630
      10.740000       1.007262      -0.104716       0.909377
      10.750000       1.005722      -0.097911       0.933109
      10.760000       1.004593      -0.093235       0.956075
      10.770000       1.004047      -0.090717       0.977341
      10.780000       1.004296      -0.090361       0.995850
      10.790000       1.005555      -0.092220       1.010533
      10.800000       1.007990      -0.096443       1.020422
      10.810000       1.011680      -0.103262       1.024752
      10.820000       1.016595      -0.112921       1.022981
      10.830000       1.022606      -0.125570       1.014738
      10.840000       1.029512      -0.141156       0.999693
      10.850000       1.037077      -0.159341       0.977409
      10.860000       1.045059      -0.179496       0.947248
      10.870000       1.053229      -0.200733       0.908363
      10.880000       1.061381      -0.222008       0.859798
      10.890000       1.069345      -0.242236       0.800677
      10.900000       1.077009      -0.260412       0.730455
      10.910000       1.084331      -0.275714       0.649161
      10.920000       1.091351      -0.287588       0.557582
      10.930000       1.098185      -0.295797       0.457299
      10.940000       1.105006      -0.300430       0.350584
      10.950000       1.112026      -0.301873       0.240151
      10.960000       1.119463      -0.300722       0.128858
      10.970000       1.127499      -0.297682       0.019398
      10.980000       1.136236      -0.293458      -0.085949
      10.990000       1.145664      -0.288658      -0.185457
      11.000000       1.155656      -0.283738      -0.277971
      11.010000       1.165980      -0.278970      -0.362812
      11.020000       1.176327      -0.274454      -0.439620
      11.030000       1.186333      -0.270132      -0.508197
      11.040000       1.195599      -0.265825      -0.568419
      11.050000       1.203713      -0.261267      -0.620224
      11.060000       1.210278      -0.256164      -0.663654
      11.070000       1.214962      -0.250258      -0.698910
      11.080000       1.217560      -0.243383      -0.726374
      11.090000       1.218072      -0.235500      -0.746598
      11.100000       1.216758      -0.226714      -0.760266
      11.110000       1.214172      -0.217247      -0.768154
      11.120000       1.211126      -0.207413      -0.771100
      11.130000       1.208580      -0.197566      -0.769958
      11.140000       1.207466      -0.188051      -0.765541
      11.150000       1.208508      -0.179149      -0.758540
      11.160000       1.212086      -0.171027      -0.749443
      11.170000       1.218206      -0.163701      -0.738506
      11.180000       1.226571      -0.157033      -0.725789
      11.190000       1.236702      -0.150769      -0.711256
      11.200000       1.248076      -0.144617      -0.694909
      11.210000       1.260224      -0.138325      -0.676877
      11.220000       1.272788      -0.131753      -0.657451
      11.230000       1.285523      -0.124888      -0.637048
      11.240000       1.298269      -0.117825      -0.616139
      11.250000       1.310887      -0.110705      -0.595189
      11.260000       1.323204      -0.103671      -0.574609
      11.270000       1.334957      -0.096830      -0.554739
      11.280000       1.345795      -0.090264      -0.535843
      11.290000       1.355323      -0.084042      -0.518105
      11.300000       1.363190      -0.078249      -0.501640
      11.310000       1.369185      -0.072986      -0.486520
      11.320000       1.373291      -0.068358      -0.472805
      11.330000       1.375692      -0.064432      -0.460583
      11.340000       1.376726      -0.061198      -0.449986
      11.350000       1.376813      -0.058542      -0.441192
      11.360000       1.376357      -0.056249      -0.434395
      11.370000       1.375643      -0.054047      -0.429747
      11.380000       1.374741      -0.051668      -0.427292
      11.390000       1.373440      -0.048906      -0.426899
      11.400000       1.371230      -0.045661      -0.428222
      11.410000       1.367340      -0.041948      -0.430706
      11.420000       1.360814      -0.037884      -0.433645
      11.430000       1.350631      -0.033649      -0.436282
      11.440000       1.335862      -0.029448      -0.437931
      11.450000       1.315846      -0.025474      -0.438087
      11.460000       1.290350      -0.021868      -0.436517
      11.470000       1.259650      -0.018683      -0.433298
      11.480000       1.224509      -0.015853      -0.428800
      11.490000       1.186046      -0.013189      -0.423628
      11.500000       1.145545      -0.010405      -0.418528
      11.510000       1.104273      -0.007188      -0.414290
      11.520000       1.063341      -0.003273      -0.411658
      11.530000       1.023597       0.001505      -0.411265
      11.540000       0.985564       0.007196      -0.413569
      11.550000       0.949409       0.013757      -0.418781
      11.560000       0.914981       0.021094      -0.426791
      11.570000       0.881911       0.029093      -0.437104
      11.580000       0.849781       0.037644      -0.448851
      11.590000       0.818309       0.046656      -0.460899
      11.600000       0.787507       0.056050      -0.472055
      11.610000       0.757765       0.065748      -0.481303
      11.620000       0.729834       0.075661      -0.487977
      11.630000       0.704702       0.085683      -0.491837
      11.640000       0.683387       0.095694      -0.493030
      11.650000       0.666715       0.105579      -0.491992
      11.660000       0.655150       0.115244      -0.489324
      11.670000       0.648755       0.124625      -0.485663
      11.680000       0.647243       0.133687      -0.481578
      11.690000       0.650077       0.142408      -0.477483
      11.700000       0.656544       0.150765      -0.473605
      11.710000       0.665784       0.158717      -0.469987
      11.720000       0.676801       0.166205      -0.466541
      11.730000       0.688502       0.173157      -0.463103
      11.740000       0.699779       0.179498      -0.459478
      11.750000       0.709631       0.185163      -0.455471
      11.760000       0.717284       0.190113      -0.450900
      11.770000       0.722283       0.194341      -0.445603
      11.780000       0.724522       0.197879      -0.439446
      11.790000       0.724188       0.200798      -0.432325
      11.800000       0.721633       0.203204      -0.424179
      11.810000       0.717187       0.205238      -0.415006
      11.820000       0.711004       0.207070      -0.404873
      11.830000       0.702983       0.208882      -0.393909
      11.840000       0.692816       0.210850      -0.382285
      11.850000       0.680115       0.213119      -0.370195
      11.860000       0.664568       0.215783      -0.357842
      11.870000       0.646036       0.218879      -0.345443
      11.880000       0.624588       0.222400      -0.333220
      11.890000       0.600479       0.226323      -0.321386
      11.900000       0.574127       0.230647      -0.310119
      11.910000       0.546092       0.235423      -0.299535
      11.920000       0.517102       0.240750      -0.289675
      11.930000       0.488078       0.246760      -0.280497
      11.940000       0.460165       0.253568      -0.271900
      11.950000       0.434693       0.261232      -0.263731
      11.960000       0.413064       0.269733      -0.255814
      11.970000       0.396550       0.278968      -0.247965
      11.980000       0.386071       0.288765      -0.240004
      11.990000       0.382032       0.298904      -0.231757
      12.000000       0.384273       0.309139      -0.223064
      12.010000       0.392125       0.319212      -0.213787
      12.020000       0.404543       0.328866      -0.203831
      12.030000       0.420270       0.337867      -0.193172
      12.040000       0.437992       0.346019      -0.181882
      12.050000       0.456477       0.353196      -0.170140
      12.060000       0.474671       0.359371      -0.158218
      12.070000       0.491753       0.364639      -0.146445
      12.080000       0.507136       0.369215      -0.135156
      12.090000       0.520448       0.373404      -0.124640
      12.100000       0.531501       0.377542      -0.115104
      12.110000       0.540271       0.381930      -0.106660
      12.120000       0.546885       0.386782      -0.099328
      12.130000       0.551597       0.392190      -0.093050
      12.140000       0.554772       0.398122      -0.087699
      12.150000       0.556859       0.404431      -0.083092
      12.160000       0.558366       0.410893      -0.079004
      12.170000       0.559822       0.417241      -0.075199
      12.180000       0.561724       0.423202      -0.071457
      12.190000       0.564483       0.428520      -0.067594
      12.200000       0.568362       0.432961      -0.063471
      12.210000       0.573448       0.436313      -0.058972
      12.220000       0.579633       0.438373      -0.053990
      12.230000       0.586631       0.438945      -0.048418
      12.240000       0.594025       0.437855      -0.042155
      12.250000       0.601330       0.434981      -0.035131
      12.260000       0.608057       0.430296      -0.027332
      12.270000       0.613745       0.423907      -0.018809
      12.280000       0.617941       0.416073      -0.009678
      12.290000       0.620154       0.407186      -0.000101
      12.300000       0.619805       0.397719       0.009735
      12.310000       0.616222       0.388162       0.019637
      12.320000       0.608702       0.378941       0.029409
      12.330000       0.596635       0.370367       0.038860
      12.340000       0.579635       0.362601       0.047807
      12.350000       0.557630       0.355654       0.056086
      12.360000       0.530861       0.349437       0.063566
      12.370000       0.499794       0.343834       0.070159
      12.380000       0.464994       0.338783       0.075821
      12.390000       0.427028       0.334335       0.080551
      12.400000       0.386455       0.330654       0.084374
      12.410000       0.343886       0.327976       0.087348
      12.420000       0.300079       0.326545       0.089556
      12.430000       0.256003       0.326545       0.091109
      12.440000       0.212855       0.328066       0.092139
      12.450000       0.171980       0.331102       0.092785
      12.460000       0.134729       0.335559       0.093176
      12.470000       0.102258       0.341277       0.093425
      12.480000       0.075360       0.348039       0.093640
      12.490000       0.054391       0.355586       0.093937
      12.500000       0.039298       0.363626       0.094462
      12.510000       0.029730       0.371857       0.095391
      12.520000       0.025152       0.379984       0.096907
      12.530000       0.024934       0.387745       0.099155
      12.540000       0.028408       0.394926       0.102203
      12.550000       0.034908       0.401383       0.106010
      12.560000       0.043822       0.407044       0.110432
      12.570000       0.054646       0.411923       0.115243
      12.580000       0.067035       0.416112       0.120175
      12.590000       0.080824       0.419784       0.124949
      12.600000       0.096005       0.423181       0.129302
      12.610000       0.112663       0.426593       0.133001
      12.620000       0.130899       0.430325       0.135842
      12.630000       0.150750       0.434654       0.137655
      12.640000       0.172150       0.439795       0.138312
      12.650000       0.194910       0.445872       0.137740
      12.660000       0.218738       0.452903       0.135956
      12.670000       0.243262       0.460799       0.133089
      12.680000       0.268069       0.469369       0.129393
      12.690000       0.292734       0.478333       0.125245
      12.700000       0.316861       0.487351       0.121115
      12.710000       0.340098       0.496055       0.117513
      12.720000       0.362145       0.504082       0.114924
      12.730000       0.382753       0.511110       0.113742
      12.740000       0.401707       0.516888       0.114224
      12.750000       0.418807       0.521258       0.116474
      12.760000       0.433879       0.524156       0.120445
      12.770000       0.446793       0.525616       0.125967
      12.780000       0.457509       0.525753       0.132767
      12.790000       0.466104       0.524744       0.140492
      12.800000       0.472772       0.522804       0.148725
      12.810000       0.477776       0.520155       0.157000
      12.820000       0.481378       0.517001       0.164824
      12.830000       0.483771       0.513504       0.171707
      12.840000       0.485043       0.509789       0.177210
      12.850000       0.485184       0.505966       0.181001
      12.860000       0.484112       0.502155       0.182918
      12.870000       0.481723       0.498516       0.183009
      12.880000       0.477942       0.495249       0.181546
      12.890000       0.472771       0.492573       0.178988
      12.900000       0.466328       0.490705       0.175901
      12.910000       0.458872       0.489821       0.172860
      12.920000       0.450791       0.490045       0.170344
      12.930000       0.442542       0.491438       0.168675
      12.940000       0.434564       0.494000       0.168002
      12.950000       0.427179       0.497678       0.168331
      12.960000       0.420507       0.502368       0.169587
      12.970000       0.414422       0.507925       0.171672
      12.980000       0.408548       0.514169       0.174508
      12.990000       0.402295       0.520905       0.178054
      13.000000       0.394934       0.527946       0.182288
      13.010000       0.385688       0.535131       0.187188
      13.020000       0.373843       0.542337       0.192702
      13.030000       0.358849       0.549471       0.198739
      13.040000       0.340420       0.556452       0.205174
      13.050000       0.318619       0.563181       0.211863
      13.060000       0.293927       0.569521       0.218661
      13.070000       0.267275       0.575288       0.225435
      13.080000       0.239986       0.580266       0.232077
      13.090000       0.213607       0.584243       0.238505
      13.100000       0.189646       0.587056       0.244664
      13.110000       0.169270       0.588625       0.250518
      13.120000       0.153089       0.588980       0.256040
      13.130000       0.141084       0.588252       0.261196
      13.140000       0.132693       0.586645       0.265944
      13.150000       0.127013       0.584391       0.270239
      13.160000       0.123016       0.581710       0.274054
      13.170000       0.119759       0.578777       0.277394
      13.180000       0.116516       0.575714       0.280302
      13.190000       0.112844       0.572595       0.282848
      13.200000       0.108591       0.569462       0.285114
      13.210000       0.103864       0.566350       0.287171
      13.220000       0.098991       0.563292       0.289078
      13.230000       0.094480       0.560321       0.290885
      13.240000       0.090969       0.557465       0.292654
      13.250000       0.089153       0.554742       0.294464
      13.260000       0.089681       0.552163       0.296416
      13.270000       0.093053       0.549738       0.298622
      13.280000       0.099537       0.547473       0.301186
      13.290000       0.109140       0.545361       0.304188
      13.300000       0.121628       0.543371       0.307672
      13.310000       0.136585       0.541439       0.311637
      13.320000       0.153483       0.539469       0.316042
      13.330000       0.171747       0.537348       0.320816
      13.340000       0.190813       0.534957       0.325859
      13.350000       0.210158       0.532185       0.331058
      13.360000       0.229326       0.528942       0.336292
      13.370000       0.247943       0.525178       0.341448
      13.380000       0.265719       0.520905       0.346435
      13.390000       0.282452       0.516214       0.351193
      13.400000       0.298022       0.511286       0.355699
      13.410000       0.312376       0.506375       0.359954
      13.420000       0.325524       0.501771       0.363964
      13.430000       0.337522       0.497762       0.367729
      13.440000       0.348459       0.494576       0.371232
      13.450000       0.358436       0.492341       0.374447
      13.460000       0.367562       0.491049       0.377360
      13.470000       0.375948       0.490548       0.379992
      13.480000       0.383722       0.490563       0.382414
      13.490000       0.391025       0.490736       0.384751
      13.500000       0.398015       0.490684       0.387168
      13.510000       0.404843       0.490065       0.389837
      13.520000       0.411643       0.488616       0.392907
      13.530000       0.418502       0.486185       0.396478
      13.540000       0.425436       0.482739       0.400586
      13.550000       0.432355       0.478363       0.405207
      13.560000       0.439047       0.473243       0.410265
      13.570000       0.445176       0.467647       0.415651
      13.580000       0.450324       0.461897       0.421243
      13.590000       0.454068       0.456344       0.426920
      13.600000       0.456067       0.451332       0.432575
      13.610000       0.456132       0.447161       0.438118
      13.620000       0.454240       0.444047       0.443487
      13.630000       0.450490       0.442100       0.448647
      13.640000       0.445008       0.441322       0.453589
      13.650000       0.437843       0.441638       0.458333
      13.660000       0.428922       0.442943       0.462910
      13.670000       0.418081       0.445137       0.467356
      13.680000       0.405163       0.448141       0.471702
      13.690000       0.390144       0.451873       0.475971
      13.700000       0.373214       0.456200       0.480185
      13.710000       0.354792       0.460903       0.484375
      13.720000       0.335453       0.465659       0.488587
      13.730000       0.315804       0.470063       0.492879
      13.740000       0.296353       0.473675       0.497311
      13.750000       0.277431       0.476090       0.501928
      13.760000       0.259197       0.476996       0.506755
      13.770000       0.241721       0.476215       0.511798
      13.780000       0.225098       0.473713       0.517044
      13.790000       0.209542       0.469590       0.522475
      13.800000       0.195400       0.464068       0.528065
      13.810000       0.183096       0.457471       0.533782
      13.820000       0.173024       0.450210       0.539582
      13.830000       0.165443       0.442750       0.545418
      13.840000       0.160422       0.435558       0.551245
      13.850000       0.157838       0.429043       0.557033
      13.860000       0.157430       0.423501       0.562781
      13.870000       0.158859       0.419090       0.568516
      13.880000       0.161759       0.415847       0.574295
      13.890000       0.165772       0.413714       0.580186
      13.900000       0.170568       0.412594       0.586263
      13.910000       0.175864       0.412385       0.592582
      13.920000       0.181447       0.413012       0.599173
      13.930000       0.187183       0.414442       0.606035
      13.940000       0.193024       0.416673       0.613131
      13.950000       0.198992       0.419706       0.620392
      13.960000       0.205149       0.423498       0.627727
      13.970000       0.211570       0.427929       0.635024
      13.980000       0.218302       0.432782       0.642161
      13.990000       0.225350       0.437765       0.649012
      14.000000       0.232665       0.442549       0.655452
      14.010000       0.240150       0.446814       0.661366
      14.020000       0.247674       0.450287       0.666654
      14.030000       0.255091       0.452745       0.671219
      14.040000       0.262251       0.454008       0.674976
      14.050000       0.269008       0.453917       0.677841
      14.060000       0.275240       0.452319       0.679748
      14.070000       0.280880       0.449080       0.680656
      14.080000       0.285955       0.444126       0.680560
      14.090000       0.290612       0.437478       0.679483
      14.100000       0.295105       0.429291       0.677471
      14.110000       0.299735       0.419861       0.674571
      14.120000       0.304764       0.409613       0.670825
      14.130000       0.310334       0.399066       0.666249
      14.140000       0.316427       0.388785       0.660841
      14.150000       0.322882       0.379340       0.654575
      14.160000       0.329449       0.371246       0.647412
      14.170000       0.335858       0.364921       0.639322
      14.180000       0.341871       0.360647       0.630301
      14.190000       0.347314       0.358551       0.620385
      14.200000       0.352069       0.358600       0.609657
      14.210000       0.356055       0.360628       0.598230
      14.220000       0.359206       0.364361       0.586234
      14.230000       0.361461       0.369461       0.573801
      14.240000       0.362781       0.375563       0.561070
      14.250000       0.363178       0.382308       0.548186
      14.260000       0.362751       0.389360       0.535306
      14.270000       0.361705       0.396412       0.522593
      14.280000       0.360332       0.403182       0.510196
      14.290000       0.358971       0.409409       0.498234
      14.300000       0.357936       0.414850       0.486786
      14.310000       0.357464       0.419289       0.475885
      14.320000       0.357670       0.422545       0.465519
      14.330000       0.358537       0.424464       0.455642
      14.340000       0.359935       0.424908       0.446193
      14.350000       0.361664       0.423743       0.437120
      14.360000       0.363515       0.420829       0.428402
      14.370000       0.365330       0.416044       0.420063
      14.380000       0.367037       0.409314       0.412170
      14.390000       0.368646       0.400680       0.404826
      14.400000       0.370230       0.390339       0.398150
      14.410000       0.371875       0.378677       0.392268
      14.420000       0.373660       0.366245       0.387293
      14.430000       0.375628       0.353694       0.383321
      14.440000       0.377780       0.341685       0.380422
      14.450000       0.380057       0.330789       0.378634
      14.460000       0.382324       0.321426       0.377971
      14.470000       0.384360       0.313821       0.378424
      14.480000       0.385850       0.308015       0.379966
      14.490000       0.386406       0.303883       0.382547
      14.500000       0.385619       0.301186       0.386093
      14.510000       0.383121       0.299630       0.390505
      14.520000       0.378670       0.298917       0.395652
      14.530000       0.372206       0.298784       0.401380
      14.540000       0.363875       0.299015       0.407519
      14.550000       0.354010       0.299434       0.413888
      14.560000       0.343095       0.299894       0.420310
      14.570000       0.331712       0.300261       0.426627
      14.580000       0.320499       0.300420       0.432710
      14.590000       0.310083       0.300272       0.438473
      14.600000       0.301021       0.299739       0.443876
      14.610000       0.293735       0.298770       0.448932
      14.620000       0.288472       0.297334       0.453699
      14.630000       0.285306       0.295424       0.458279
      14.640000       0.284162       0.293044       0.462808
      14.650000       0.284864       0.290199       0.467432
      14.660000       0.287176       0.286894       0.472296
      14.670000       0.290833       0.283151       0.477515
      14.680000       0.295564       0.279025       0.483160
      14.690000       0.301096       0.274633       0.489248
      14.700000       0.307168       0.270161       0.495755
      14.710000       0.313543       0.265864       0.502623
      14.720000       0.320032       0.262047       0.509786
      14.730000       0.326504       0.259029       0.517179
      14.740000       0.332895       0.257093       0.524745
      14.750000       0.339195       0.256431       0.532441
      14.760000       0.345429       0.257107       0.540228
      14.770000       0.351633       0.259040       0.548071
      14.780000       0.357827       0.262030       0.555930
      14.790000       0.364008       0.265789       0.563762
      14.800000       0.370150       0.269997       0.571524
      14.810000       0.376219       0.274339       0.579174
      14.820000       0.382197       0.278536       0.586685
      14.830000       0.388085       0.282357       0.594048
      14.840000       0.393906       0.285621       0.601270
      14.850000       0.399698       0.288187       0.608366
      14.860000       0.405509       0.289940       0.615345
      14.870000       0.411394       0.290787       0.622200
      14.880000       0.417416       0.290655       0.628892
      14.890000       0.423627       0.289508       0.635358
      14.900000       0.430061       0.287360       0.641517
      14.910000       0.436712       0.284292       0.647288
      14.920000       0.443537       0.280447       0.652605
      14.930000       0.450463       0.276011       0.657426
      14.940000       0.457397       0.271179       0.661742
      14.950000       0.464226       0.266119       0.665571
      14.960000       0.470821       0.260958       0.668961
      14.970000       0.477031       0.255793       0.671985
      14.980000       0.482691       0.250708       0.674735
      14.990000       0.487645       0.245811       0.677322
      15.000000       0.491781       0.241236       0.679859
      15.010000       0.495063       0.237140       0.682457
      15.020000       0.497547       0.233672       0.685215
      15.030000       0.499375       0.230933       0.688219
      15.040000       0.500738       0.228958       0.691540
      15.050000       0.501823       0.227711       0.695234
      15.060000       0.502783       0.227094       0.699343
      15.070000       0.503713       0.226977       0.703896
      15.080000       0.504661       0.227220       0.708908
      15.090000       0.505636       0.227702       0.714381
      15.100000       0.506616       0.228341       0.720313
      15.110000       0.507557       0.229106       0.726694
      15.120000       0.508390       0.230015       0.733514
      15.130000       0.509035       0.231120       0.740751
      15.140000       0.509400       0.232479       0.748378
      15.150000       0.509396       0.234130       0.756350
      15.160000       0.508930       0.236071       0.764611
      15.170000       0.507903       0.238262       0.773089
      15.180000       0.506215       0.240629       0.781699
      15.190000       0.503773       0.243097       0.790340
      15.200000       0.500526       0.245603       0.798891
      15.210000       0.496488       0.248124       0.807217
      15.220000       0.491757       0.250668       0.815172
      15.230000       0.486508       0.253271       0.822613
      15.240000       0.480964       0.255981       0.829414
      15.250000       0.475356       0.258837       0.835467
      15.260000       0.469883       0.261868       0.840687
      15.270000       0.464689       0.265091       0.845000
      15.280000       0.459847       0.268519       0.848327
      15.290000       0.455349       0.272157       0.850572
      15.300000       0.451110       0.276008       0.851615
      15.310000       0.446971       0.280062       0.851316
      15.320000       0.442734       0.284293       0.849524
      15.330000       0.438197       0.288647       0.846100
      15.340000       0.433203       0.293048       0.840934
      15.350000       0.427692       0.297401       0.833964
      15.360000       0.421723       0.301608       0.825195
      15.370000       0.415480       0.305581       0.814712
      15.380000       0.409244       0.309249       0.802674
      15.390000       0.403357       0.312574       0.789296
      15.400000       0.398165       0.315549       0.774813
      15.410000       0.393975       0.318206       0.759443
      15.420000       0.391003       0.320613       0.743368
      15.430000       0.389355       0.322856       0.726723
      15.440000       0.389016       0.325028       0.709607
      15.450000       0.389881       0.327209       0.692100
      15.460000       0.391793       0.329450       0.674282
      15.470000       0.394584       0.331768       0.656249
      15.480000       0.398096       0.334148       0.638123
      15.490000       0.402180       0.336556       0.620050
      15.500000       0.406675       0.338943       0.602182
      15.510000       0.411393       0.341265       0.584667
      15.520000       0.416116       0.343485       0.567625
      15.530000       0.420619       0.345582       0.551140
      15.540000       0.424701       0.347544       0.535250
      15.550000       0.428218       0.349370       0.519943
      15.560000       0.431107       0.351070       0.505168
      15.570000       0.433388       0.352662       0.490843
      15.580000       0.435155       0.354180       0.476883
      15.590000       0.436545       0.355677       0.463224
      15.600000       0.437705       0.357213       0.449860
      15.610000       0.438758       0.358842       0.436862
      15.620000       0.439781       0.360594       0.424381
      15.630000       0.440789       0.362464       0.412634
      15.640000       0.441751       0.364409       0.401856
      15.650000       0.442615       0.366364       0.392252
      15.660000       0.443341       0.368254       0.383959
      15.670000       0.443924       0.370016       0.377020
      15.680000       0.444404       0.371606       0.371391
      15.690000       0.444854       0.373004       0.366959
      15.700000       0.445350       0.374213       0.363567
      15.710000       0.445941       0.375253       0.361033
      15.720000       0.446624       0.376162       0.359177
      15.730000       0.447324       0.376992       0.357831
      15.740000       0.447909       0.377806       0.356851
      15.750000       0.448222       0.378665       0.356119
      15.760000       0.448124       0.379626       0.355542
      15.770000       0.447548       0.380728       0.355051
      15.780000       0.446530       0.381987       0.354591
      15.790000       0.445214       0.383386       0.354119
      15.800000       0.443835       0.384881       0.353591
      15.810000       0.442683       0.386397       0.352955
      15.820000       0.442055       0.387850       0.352148
      15.830000       0.442210       0.389156       0.351096
      15.840000       0.443337       0.390255       0.349721
      15.850000       0.445528       0.391120       0.347957
      15.860000       0.448776       0.391762       0.345767
      15.870000       0.452981       0.392221       0.343159
      15.880000       0.457962       0.392550       0.340194
      15.890000       0.463480       0.392804       0.336976
      15.900000       0.469257       0.393022       0.333644
      15.910000       0.474991       0.393233       0.330352
      15.920000       0.480379       0.393459       0.327257
      15.930000       0.485143       0.393717       0.324510
      15.940000       0.489053       0.394027       0.322259
      15.950000       0.491958       0.394409       0.320647
      15.960000       0.493809       0.394876       0.319801
      15.970000       0.494672       0.395432       0.319823
      15.980000       0.494721       0.396064       0.320773
      15.990000       0.494204       0.396739       0.322660
      16.000000       0.493397       0.397403       0.325447
      16.010000       0.492538       0.397991       0.329056
      16.020000       0.491786       0.398435       0.333379
      16.030000       0.491189       0.398685       0.338287
      16.040000       0.490703       0.398719       0.343649
      16.050000       0.490226       0.398557       0.349339
      16.060000       0.489645       0.398255       0.355248
      16.070000       0.488877       0.397905       0.361285
      16.080000       0.487884       0.397611       0.367375
      16.090000       0.486660       0.397476       0.373452
      16.100000       0.485218       0.397584       0.379452
      16.110000       0.483563       0.397988       0.385311
      16.120000       0.481691       0.398714       0.390970
      16.130000       0.479586       0.399759       0.396383
      16.140000       0.477218       0.401102       0.401527
      16.150000       0.474539       0.402707       0.406410
      16.160000       0.471471       0.404527       0.411065
      16.170000       0.467902       0.406505       0.415542
      16.180000       0.463692       0.408575       0.419896
      16.190000       0.458712       0.410667       0.424173
      16.200000       0.452891       0.412722       0.428402
      16.210000       0.446263       0.414695       0.432592
      16.220000       0.439002       0.416565       0.436736
      16.230000       0.431416       0.418331       0.440816
      16.240000       0.423903       0.420009       0.444804
      16.250000       0.416882       0.421620       0.448674
      16.260000       0.410721       0.423190       0.452403
      16.270000       0.405676       0.424742       0.455982
      16.280000       0.401865       0.426294       0.459416
      16.290000       0.399262       0.427856       0.462725
      16.300000       0.397736       0.429428       0.465945
      16.310000       0.397098       0.431000       0.469118
      16.320000       0.397151       0.432558       0.472291
      16.330000       0.397736       0.434085       0.475508
      16.340000       0.398753       0.435566       0.478814
      16.350000       0.400164       0.436995       0.482240
      16.360000       0.401967       0.438374       0.485804
      16.370000       0.404170       0.439710       0.489506
      16.380000       0.406760       0.441018       0.493326
      16.390000       0.409685       0.442306       0.497235
      16.400000       0.412854       0.443575       0.501202
      16.410000       0.416155       0.444815       0.505203
      16.420000       0.419473       0.446008       0.509224
      16.430000       0.422717       0.447131       0.513263
      16.440000       0.425838       0.448172       0.517319
      16.450000       0.428830       0.449129       0.521394
      16.460000       0.431719       0.450025       0.525484
      16.470000       0.434544       0.450895       0.529579
      16.480000       0.437336       0.451784       0.533658
      16.490000       0.440113       0.452732       0.537692
      16.500000       0.442881       0.453765       0.541643
      16.510000       0.445652       0.454894       0.545466
      16.520000       0.448458       0.456119       0.549117
      16.530000       0.451357       0.457434       0.552553
      16.540000       0.454425       0.458838       0.555735
      16.550000       0.457740       0.460336       0.558634
      16.560000       0.461358       0.461935       0.561228
      16.570000       0.465303       0.463647       0.563504
      16.580000       0.469566       0.465480       0.565464
      16.590000       0.474105       0.467444       0.567122
      16.600000       0.478849       0.469544       0.568509
      16.610000       0.483700       0.471779       0.569666
      16.620000       0.488535       0.474135       0.570639
      16.630000       0.493222       0.476587       0.571468
      16.640000       0.497627       0.479088       0.572191
      16.650000       0.501642       0.481582       0.572841
      16.660000       0.505190       0.484001       0.573451
      16.670000       0.508242       0.486284       0.574054
      16.680000       0.510799       0.488376       0.574682
      16.690000       0.512879       0.490238       0.575360
      16.700000       0.514486       0.491848       0.576103
      16.710000       0.515590       0.493204       0.576916
      16.720000       0.516116       0.494324       0.577793
      16.730000       0.515947       0.495249       0.578729
      16.740000       0.514941       0.496032       0.579717
      16.750000       0.512947       0.496734       0.580758
      16.760000       0.509833       0.497405       0.581854
      16.770000       0.505515       0.498080       0.583008
      16.780000       0.499990       0.498767       0.584219
      16.790000       0.493368       0.499450       0.585485
      16.800000       0.485878       0.500097       0.586799
      16.810000       0.477846       0.500665       0.588157
      16.820000       0.469654       0.501111       0.589551
      16.830000       0.461674       0.501398       0.590976
      16.840000       0.454215       0.501496       0.592431
      16.850000       0.447489       0.501385       0.593917
      16.860000       0.441599       0.501050       0.595441
      16.870000       0.436550       0.500478       0.597008
      16.880000       0.432281       0.499666       0.598621
      16.890000       0.428693       0.498622       0.600274
      16.900000       0.425682       0.497377       0.601953
      16.910000       0.423159       0.495991       0.603638
      16.920000       0.421071       0.494558       0.605306
      16.930000       0.419412       0.493198       0.606942
      16.940000       0.418223       0.492043       0.608542
      16.950000       0.417578       0.491218       0.610118
      16.960000       0.417563       0.490816       0.611689
      16.970000       0.418243       0.490882       0.613286
      16.980000       0.419642       0.491412       0.614936
      16.990000       0.421735       0.492356       0.616666
      17.000000       0.424450       0.493630       0.618490
      17.010000       0.427687       0.495135       0.620419
      17.020000       0.431335       0.496775       0.622452
      17.030000       0.435282       0.498471       0.624581
      17.040000       0.439425       0.500170       0.626794
      17.050000       0.443667       0.501844       0.629069
      17.060000       0.447921       0.503481       0.631383
      17.070000       0.452096       0.505077       0.633711
      17.080000       0.456099       0.506626       0.636030
      17.090000       0.459829       0.508111       0.638319
      17.100000       0.463183       0.509511       0.640558
      17.110000       0.466054       0.510800       0.642727
      17.120000       0.468341       0.511953       0.644803
      17.130000       0.469952       0.512953       0.646767
      17.140000       0.470809       0.513790       0.648602
      17.150000       0.470851       0.514459       0.650299
      17.160000       0.470046       0.514962       0.651865
      17.170000       0.468402       0.515304       0.653314
      17.180000       0.465982       0.515499       0.654671
      17.190000       0.462907       0.515565       0.655967
      17.200000       0.459349       0.515527       0.657230
      17.210000       0.455505       0.515415       0.658489
      17.220000       0.451577       0.515262       0.659763
      17.230000       0.447745       0.515104       0.661064
      17.240000       0.444170       0.514987       0.662392
      17.250000       0.440995       0.514962       0.663739
      17.260000       0.438360       0.515084       0.665083
      17.270000       0.436392       0.515400       0.666392
      17.280000       0.435195       0.515948       0.667630
      17.290000       0.434831       0.516745       0.668764
      17.300000       0.435311       0.517789       0.669775
      17.310000       0.436590       0.519063       0.670667
      17.320000       0.438574       0.520531       0.671474
      17.330000       0.441136       0.522145       0.672252
      17.340000       0.444132       0.523846       0.673072
      17.350000       0.447418       0.525570       0.674003
      17.360000       0.450861       0.527250       0.675095
      17.370000       0.454346       0.528830       0.676375
      17.380000       0.457784       0.530261       0.677840
      17.390000       0.461110       0.531511       0.679465
      17.400000       0.464286       0.532565       0.681205
      17.410000       0.467303       0.533421       0.683005
      17.420000       0.470175       0.534090       0.684815
      17.430000       0.472930       0.534596       0.686590
      17.440000       0.475597       0.534963       0.688302
      17.450000       0.478190       0.535220       0.689943
      17.460000       0.480706       0.535396       0.691518
      17.470000       0.483112       0.535519       0.693042
      17.480000       0.485348       0.535615       0.694533
      17.490000       0.487329       0.535706       0.696000
      17.500000       0.488946       0.535801       0.697444
      17.510000       0.490088       0.535903       0.698855
      17.520000       0.490658       0.536007       0.700212
      17.530000       0.490599       0.536103       0.701491
      17.540000       0.489920       0.536186       0.702672
      17.550000       0.488699       0.536259       0.703744
      17.560000       0.487076       0.536335       0.704711
      17.570000       0.485227       0.536431       0.705596
      17.580000       0.483326       0.536571       0.706442
      17.590000       0.481510       0.536769       0.707298
      17.600000       0.479865       0.537033       0.708218
      17.610000       0.478415       0.537357       0.709244
      17.620000       0.477136       0.537723       0.710399
      17.630000       0.475980       0.538105       0.711690
      17.640000       0.474897       0.538476       0.713103
      17.650000       0.473859       0.538812       0.714615
      17.660000       0.472873       0.539097       0.716196
      17.670000       0.471980       0.539322       0.717816
      17.680000       0.471246       0.539485       0.719445
      17.690000       0.470749       0.539591       0.721063
      17.700000       0.470565       0.539645       0.722655
      17.710000       0.470761       0.539657       0.724220
      17.720000       0.471395       0.539637       0.725769
      17.730000       0.472510       0.539600       0.727321
      17.740000       0.474135       0.539566       0.728903
      17.750000       0.476279       0.539556       0.730543
      17.760000       0.478927       0.539594       0.732260
      17.770000       0.482038       0.539699       0.734065
      17.780000       0.485552       0.539881       0.735952
      17.790000       0.489389       0.540140       0.737904
      17.800000       0.493458       0.540463       0.739890
      17.810000       0.497666       0.540830       0.741882
      17.820000       0.501919       0.541217       0.743851
      17.830000       0.506128       0.541601       0.745783
      17.840000       0.510214       0.541966       0.747678
      17.850000       0.514105       0.542302       0.749549
      17.860000       0.517740       0.542609       0.751417
      17.870000       0.521068       0.542901       0.753307
      17.880000       0.524057       0.543204       0.755244
      17.890000       0.526695       0.543555       0.757244
      17.900000       0.529003       0.543995       0.759322
      17.910000       0.531040       0.544566       0.761486
      17.920000       0.532898       0.545296       0.763739
      17.930000       0.534695       0.546204       0.766076
      17.940000       0.536558       0.547290       0.768486
      17.950000       0.538595       0.548542       0.770954
      17.960000       0.540878       0.549935       0.773457
      17.970000       0.543428       0.551435       0.775973
      17.980000       0.546217       0.553001       0.778484
      17.990000       0.549174       0.554590       0.780979
      18.000000       0.552202       0.556163       0.783454
      18.010000       0.555188       0.557693       0.785910
      18.020000       0.558018       0.559162       0.788354
      18.030000       0.560589       0.560570       0.790792
      18.040000       0.562808       0.561926       0.793231
      18.050000       0.564609       0.563245       0.795675
      18.060000       0.565948       0.564540       0.798128
      18.070000       0.566814       0.565819       0.800595
      18.080000       0.567229       0.567081       0.803083
      18.090000       0.567248       0.568317       0.805605
      18.100000       0.566959       0.569511       0.808175
      18.110000       0.566463       0.570640       0.810812
      18.120000       0.565861       0.571675       0.813528
      18.130000       0.565231       0.572584       0.816332
      18.140000       0.564613       0.573339       0.819220
      18.150000       0.564011       0.573923       0.822174
      18.160000       0.563399       0.574337       0.825169
      18.170000       0.562739       0.574604       0.828172
      18.180000       0.561994       0.574760       0.831153
      18.190000       0.561146       0.574852       0.834087
      18.200000       0.560189       0.574916       0.836959
      18.210000       0.559129       0.574977       0.839766
      18.220000       0.557963       0.575045       0.842514
      18.230000       0.556670       0.575115       0.845218
      18.240000       0.555203       0.575181       0.847893
      18.250000       0.553488       0.575235       0.850555
      18.260000       0.551447       0.575281       0.853210
      18.270000       0.549020       0.575324       0.855857
      18.280000       0.546189       0.575378       0.858481
      18.290000       0.543001       0.575456       0.861059
      18.300000       0.539566       0.575565       0.863567
      18.310000       0.536038       0.575707       0.865979
      18.320000       0.532583       0.575873       0.868274
      18.330000       0.529352       0.576045       0.870440
      18.340000       0.526459       0.576202       0.872476
      18.350000       0.523979       0.576327       0.874393
      18.360000       0.521951       0.576412       0.876207
      18.370000       0.520396       0.576458       0.877942
      18.380000       0.519316       0.576475       0.879612
      18.390000       0.518702       0.576478       0.881224
      18.400000       0.518538       0.576477       0.882766
      18.410000       0.518799       0.576482       0.884211
      18.420000       0.519457       0.576493       0.885521
      18.430000       0.520487       0.576511       0.886655
      18.440000       0.521863       0.576536       0.887592
      18.450000       0.523559       0.576572       0.888339
      18.460000       0.525544       0.576628       0.888952
      18.470000       0.527782       0.576724       0.889523
      18.480000       0.530235       0.576886       0.890174
      18.490000       0.532869       0.577144       0.891025
      18.500000       0.535651       0.577534       0.892175
      18.510000       0.538552       0.578084       0.893682
      18.520000       0.541544       0.578818       0.895561
      18.530000       0.544600       0.579745       0.897786
      18.540000       0.547694       0.580862       0.900298
      18.550000       0.550801       0.582148       0.903025
      18.560000       0.553902       0.583571       0.905891
      18.570000       0.556975       0.585092       0.908827
      18.580000       0.559998       0.586667       0.911786
      18.590000       0.562946       0.588257       0.914745
      18.600000       0.565785       0.589830       0.917711
      18.610000       0.568480       0.591362       0.920709
      18.620000       0.570999       0.592847       0.923770
      18.630000       0.573317       0.594287       0.926910
      18.640000       0.575419       0.595697       0.930114
      18.650000       0.577296       0.597097       0.933320
      18.660000       0.578944       0.598512       0.936429
      18.670000       0.580355       0.599963       0.939305
      18.680000       0.581519       0.601464       0.941805
      18.690000       0.582424       0.603019       0.943794
      18.700000       0.583053       0.604625       0.945165
      18.710000       0.583398       0.606269       0.945861
      18.720000       0.583457       0.607934       0.945875
      18.730000       0.583248       0.609602       0.945252
      18.740000       0.582807       0.611252       0.944086
      18.750000       0.582199       0.612868       0.942506
      18.760000       0.581507       0.614435       0.940661
      18.770000       0.580828       0.615938       0.938692
      18.780000       0.580255       0.617360       0.936714
      18.790000       0.579864       0.618683       0.934793
      18.800000       0.579700       0.619886       0.932941
      18.810000       0.579771       0.620949       0.931128
      18.820000       0.580063       0.621865       0.929286
      18.830000       0.580543       0.622636       0.927329
      18.840000       0.581175       0.623282       0.925162
      18.850000       0.581925       0.623838       0.922696
      18.860000       0.582761       0.624341       0.919864
      18.870000       0.583647       0.624831       0.916629
      18.880000       0.584543       0.625333       0.912982
      18.890000       0.585400       0.625855       0.908935
      18.900000       0.586170       0.626389       0.904515
      18.910000       0.586810       0.626908       0.899752
      18.920000       0.587290       0.627377       0.894690
      18.930000       0.587597       0.627757       0.889391
      18.940000       0.587738       0.628008       0.883948
      18.950000       0.587743       0.628099       0.878477
      18.960000       0.587654       0.628005       0.873112
      18.970000       0.587526       0.627714       0.867987
      18.980000       0.587422       0.627222       0.863221
      18.990000       0.587402       0.626540       0.858912
      19.000000       0.587522       0.625688       0.855122
      19.010000       0.587829       0.624700       0.851870
      19.020000       0.588352       0.623619       0.849121
      19.030000       0.589106       0.622495       0.846782
      19.040000       0.590085       0.621383       0.844703
      19.050000       0.591274       0.620334       0.842695
      19.060000       0.592646       0.619394       0.840562
      19.070000       0.594171       0.618593       0.838123
      19.080000       0.595819       0.617949       0.835244
      19.090000       0.597561       0.617466       0.831838
      19.100000       0.599370       0.617137       0.827857
      19.110000       0.601225       0.616955       0.823281
      19.120000       0.603108       0.616910       0.818104
      19.130000       0.605000       0.616993       0.812341
      19.140000       0.606885       0.617195       0.806035
      19.150000       0.608747       0.617505       0.799277
      19.160000       0.610573       0.617905       0.792216
      19.170000       0.612355       0.618365       0.785059
      19.180000       0.614094       0.618848       0.778052
      19.190000       0.615791       0.619310       0.771455
      19.200000       0.617441       0.619709       0.765518
      19.210000       0.619026       0.620008       0.760457
      19.220000       0.620499       0.620187       0.756437
      19.230000       0.621787       0.620244       0.753565
      19.240000       0.622791       0.620193       0.751872
      19.250000       0.623401       0.620064       0.751312
      19.260000       0.623507       0.619898       0.751760
      19.270000       0.623014       0.619742       0.753021
      19.280000       0.621865       0.619646       0.754855
      19.290000       0.620045       0.619657       0.756999
      19.300000       0.617598       0.619820       0.759190
      19.310000       0.614631       0.620169       0.761185
      19.320000       0.611311       0.620726       0.762771
      19.330000       0.607845       0.621496       0.763781
      19.340000       0.604450       0.622464       0.764096
      19.350000       0.601316       0.623603       0.763655
      19.360000       0.598570       0.624869       0.762441
      19.370000       0.596266       0.626213       0.760484
      19.380000       0.594389       0.627584       0.757850
      19.390000       0.592880       0.628934       0.754642
      19.400000       0.591666       0.630217       0.750997
      19.410000       0.590683       0.631397       0.747082
      19.420000       0.589893       0.632448       0.743071
      19.430000       0.589283       0.633347       0.739124
      19.440000       0.588855       0.634078       0.735369
      19.450000       0.588616       0.634630       0.731897
      19.460000       0.588565       0.634993       0.728776
      19.470000       0.588696       0.635166       0.726064
      19.480000       0.588998       0.635156       0.723826
      19.490000       0.589456       0.634984       0.722127
      19.500000       0.590057       0.634677       0.721024
      19.510000       0.590791       0.634269       0.720543
      19.520000       0.591651       0.633794       0.720670
      19.530000       0.592632       0.633286       0.721350
      19.540000       0.593735       0.632774       0.722497
      19.550000       0.594961       0.632291       0.724006
      19.560000       0.596316       0.631869       0.725773
      19.570000       0.597805       0.631540       0.727702
      19.580000       0.599432       0.631331       0.729707
      19.590000       0.601196       0.631265       0.731719
      19.600000       0.603094       0.631355       0.733676
      19.610000       0.605118       0.631605       0.735525
      19.620000       0.607253       0.632014       0.737215
      19.630000       0.609482       0.632575       0.738705
      19.640000       0.611781       0.633274       0.739958
      19.650000       0.614120       0.634089       0.740958
      19.660000       0.616465       0.634991       0.741710
      19.670000       0.618778       0.635946       0.742244
      19.680000       0.621019       0.636918       0.742612
      19.690000       0.623151       0.637873       0.742871
      19.700000       0.625134       0.638784       0.743075
      19.710000       0.626934       0.639628       0.743269
      19.720000       0.628520       0.640396       0.743486
      19.730000       0.629862       0.641086       0.743752
      19.740000       0.630938       0.641706       0.744090
      19.750000       0.631735       0.642269       0.744525
      19.760000       0.632254       0.642789       0.745075
      19.770000       0.632515       0.643273       0.745756
      19.780000       0.632561       0.643720       0.746567
      19.790000       0.632453       0.644123       0.747496
      19.800000       0.632272       0.644474       0.748518
      19.810000       0.632096       0.644773       0.749604
      19.820000       0.632001       0.645027       0.750731
      19.830000       0.632042       0.645253       0.751892
      19.840000       0.632254       0.645477       0.753095
      19.850000       0.632650       0.645722       0.754363
      19.860000       0.633225       0.646012       0.755737
      19.870000       0.633958       0.646364       0.757264
      19.880000       0.634818       0.646794       0.758994
      19.890000       0.635767       0.647312       0.760969
      19.900000       0.636757       0.647921       0.763212
      19.910000       0.637734       0.648619       0.765717
      19.920000       0.638640       0.649395       0.768448
      19.930000       0.639416       0.650235       0.771339
      19.940000       0.640009       0.651119       0.774302
      19.950000       0.640373       0.652029       0.777235
      19.960000       0.640478       0.652948       0.780040
      19.970000       0.640312       0.653862       0.782632
      19.980000       0.639886       0.654762       0.784950
      19.990000       0.639232       0.655645       0.786968
      20.000000       0.638405       0.656508       0.788694
