  # energy grid [eV]     epsi_x  epsi_y  epsi_z
       0.000000            NaN            NaN            NaN
       0.010000       0.164784       0.013490       0.072322
       0.020000       0.330516       0.027118       0.052218
       0.030000       0.498155       0.041003       0.047374
       0.040000       0.668687       0.055228       0.047988
       0.050000       0.843129       0.069818       0.050881
       0.060000       1.022547       0.084703       0.054772
       0.070000       1.208059       0.099690       0.059009
       0.080000       1.400848       0.114428       0.063209
       0.090000       1.602158       0.128397       0.067158
       0.100000       1.813299       0.140929       0.070783
       0.110000       2.035628       0.151283       0.074132
       0.120000       2.270530       0.158779       0.077346
       0.130000       2.519391       0.162954       0.080616
       0.140000       2.783559       0.163684       0.084136
       0.150000       3.064331       0.161227       0.088062
       0.160000       3.362968       0.156155       0.092484
       0.170000       3.680800       0.149212       0.097410
       0.180000       4.019431       0.141165       0.102761
       0.190000       4.381046       0.132690       0.108372
       0.200000       4.768755       0.124310       0.114013
       0.210000       5.186866       0.116395       0.119426
       0.220000       5.640998       0.109179       0.124368
       0.230000       6.138002       0.102790       0.128667
       0.240000       6.685779       0.097284       0.132251
       0.250000       7.293072       0.092666       0.135153
       0.260000       7.969311       0.088906       0.137468
       0.270000       8.724511       0.085953       0.139295
       0.280000       9.569138       0.083740       0.140674
       0.290000      10.513858       0.082181       0.141547
       0.300000      11.569033       0.081174       0.141765
       0.310000      12.743852       0.080598       0.141131
       0.320000      14.044970       0.080311       0.139465
       0.330000      15.474549       0.080153       0.136670
       0.340000      17.027718       0.079964       0.132766
       0.350000      18.689604       0.079602       0.127899
       0.360000      20.432406       0.078969       0.122309
       0.370000      22.213359       0.078024       0.116288
       0.380000      23.974665       0.076794       0.110131
       0.390000      25.646415       0.075353       0.104101
       0.400000      27.152894       0.073803       0.098408
       0.410000      28.421707       0.072248       0.093202
       0.420000      29.394167       0.070777       0.088574
       0.430000      30.034738       0.069459       0.084565
       0.440000      30.336984       0.068335       0.081171
       0.450000      30.323816       0.067428       0.078350
       0.460000      30.041031       0.066746       0.076035
       0.470000      29.545439       0.066285       0.074137
       0.480000      28.891166       0.066038       0.072570
       0.490000      28.118841       0.065991       0.071259
       0.500000      27.251351       0.066132       0.070162
       0.510000      26.297128       0.066448       0.069270
       0.520000      25.258758       0.066926       0.068608
       0.530000      24.142598       0.067557       0.068221
       0.540000      22.965028       0.068331       0.068157
       0.550000      21.753043       0.069240       0.068453
       0.560000      20.539673       0.070277       0.069126
       0.570000      19.356894       0.071439       0.070162
       0.580000      18.229068       0.072721       0.071523
       0.590000      17.169013       0.074121       0.073136
       0.600000      16.177425       0.075638       0.074904
       0.610000      15.245365       0.077271       0.076702
       0.620000      14.358862       0.079022       0.078389
       0.630000      13.504238       0.080893       0.079823
       0.640000      12.672499       0.082886       0.080890
       0.650000      11.861449       0.085005       0.081521
       0.660000      11.075147       0.087255       0.081708
       0.670000      10.321486       0.089643       0.081491
       0.680000       9.609267       0.092176       0.080934
       0.690000       8.945910       0.094861       0.080091
       0.700000       8.336271       0.097709       0.078992
       0.710000       7.782458       0.100732       0.077635
       0.720000       7.284248       0.103941       0.076006
       0.730000       6.839745       0.107352       0.074101
       0.740000       6.446029       0.110982       0.071950
       0.750000       6.099693       0.114849       0.069622
       0.760000       5.797224       0.118976       0.067219
       0.770000       5.535262       0.123387       0.064862
       0.780000       5.310748       0.128111       0.062666
       0.790000       5.121012       0.133180       0.060726
       0.800000       4.963801       0.138632       0.059112
       0.810000       4.837290       0.144508       0.057863
       0.820000       4.740073       0.150857       0.056986
       0.830000       4.671138       0.157733       0.056466
       0.840000       4.629856       0.165199       0.056264
       0.850000       4.615960       0.173324       0.056321
       0.860000       4.629531       0.182187       0.056563
       0.870000       4.670997       0.191874       0.056905
       0.880000       4.741103       0.202478       0.057254
       0.890000       4.840864       0.214096       0.057518
       0.900000       4.971443       0.226826       0.057620
       0.910000       5.133924       0.240755       0.057515
       0.920000       5.328977       0.255949       0.057198
       0.930000       5.556381       0.272437       0.056716
       0.940000       5.814459       0.290182       0.056149
       0.950000       6.099497       0.309063       0.055603
       0.960000       6.405298       0.328844       0.055181
       0.970000       6.723113       0.349167       0.054973
       0.980000       7.042151       0.369562       0.055044
       0.990000       7.350791       0.389489       0.055427
       1.000000       7.638281       0.408412       0.056123
       1.010000       7.896464       0.425887       0.057100
       1.020000       8.120910       0.441643       0.058293
       1.030000       8.311089       0.455624       0.059609
       1.040000       8.469607       0.467988       0.060934
       1.050000       8.600963       0.479056       0.062145
       1.060000       8.710417       0.489261       0.063128
       1.070000       8.803320       0.499093       0.063793
       1.080000       8.884852       0.509068       0.064096
       1.090000       8.959830       0.519707       0.064042
       1.100000       9.032378       0.531513       0.063681
       1.110000       9.105592       0.544955       0.063099
       1.120000       9.181504       0.560445       0.062389
       1.130000       9.261427       0.578336       0.061633
       1.140000       9.346405       0.598913       0.060889
       1.150000       9.437366       0.622371       0.060185
       1.160000       9.534876       0.648772       0.059529
       1.170000       9.638780       0.677983       0.058916
       1.180000       9.748073       0.709616       0.058340
       1.190000       9.861070       0.742988       0.057792
       1.200000       9.975585       0.777137       0.057261
       1.210000      10.088836       0.810920       0.056727
       1.220000      10.197076       0.843206       0.056161
       1.230000      10.295193       0.873143       0.055526
       1.240000      10.376484       0.900387       0.054793
       1.250000      10.432616       0.925206       0.053945
       1.260000      10.453704       0.948361       0.052993
       1.270000      10.428600       0.970809       0.051979
       1.280000      10.345623       0.993322       0.050966
       1.290000      10.193889       1.016170       0.050027
       1.300000       9.965193       1.038956       0.049232
       1.310000       9.656091       1.060682       0.048638
       1.320000       9.269546       1.080029       0.048279
       1.330000       8.815475       1.095802       0.048165
       1.340000       8.309772       1.107391       0.048282
       1.350000       7.771966       1.115082       0.048590
       1.360000       7.222257       1.120067       0.049029
       1.370000       6.678831       1.124169       0.049525
       1.380000       6.156114       1.129403       0.050001
       1.390000       5.664138       1.137531       0.050387
       1.400000       5.208791       1.149739       0.050632
       1.410000       4.792577       1.166472       0.050708
       1.420000       4.415526       1.187424       0.050614
       1.430000       4.076050       1.211677       0.050373
       1.440000       3.771619       1.237975       0.050025
       1.450000       3.499261       1.265088       0.049628
       1.460000       3.255887       1.292184       0.049249
       1.470000       3.038498       1.319051       0.048960
       1.480000       2.844299       1.346071       0.048827
       1.490000       2.670755       1.373930       0.048905
       1.500000       2.515607       1.403170       0.049230
       1.510000       2.376870       1.433777       0.049819
       1.520000       2.252815       1.464940       0.050662
       1.530000       2.141948       1.495108       0.051728
       1.540000       2.042985       1.522326       0.052962
       1.550000       1.954831       1.544773       0.054294
       1.560000       1.876549       1.561298       0.055645
       1.570000       1.807344       1.571758       0.056939
       1.580000       1.746530       1.577029       0.058114
       1.590000       1.693510       1.578773       0.059123
       1.600000       1.647750       1.579101       0.059933
       1.610000       1.608746       1.580271       0.060513
       1.620000       1.576011       1.584457       0.060828
       1.630000       1.549058       1.593530       0.060836
       1.640000       1.527407       1.608827       0.060505
       1.650000       1.510599       1.630905       0.059824
       1.660000       1.498230       1.659351       0.058818
       1.670000       1.489970       1.692714       0.057554
       1.680000       1.485566       1.728619       0.056126
       1.690000       1.484819       1.764107       0.054647
       1.700000       1.487539       1.796175       0.053228
       1.710000       1.493514       1.822384       0.051964
       1.720000       1.502491       1.841339       0.050932
       1.730000       1.514197       1.852866       0.050185
       1.740000       1.528371       1.857831       0.049756
       1.750000       1.544797       1.857705       0.049665
       1.760000       1.563327       1.854087       0.049916
       1.770000       1.583866       1.848322       0.050499
       1.780000       1.606344       1.841352       0.051393
       1.790000       1.630696       1.833790       0.052561
       1.800000       1.656867       1.826155       0.053947
       1.810000       1.684815       1.819123       0.055478
       1.820000       1.714498       1.813622       0.057066
       1.830000       1.745821       1.810715       0.058614
       1.840000       1.778611       1.811335       0.060032
       1.850000       1.812631       1.816023       0.061242
       1.860000       1.847636       1.824787       0.062193
       1.870000       1.883417       1.837119       0.062862
       1.880000       1.919782       1.852113       0.063251
       1.890000       1.956475       1.868587       0.063384
       1.900000       1.993101       1.885177       0.063305
       1.910000       2.029072       1.900423       0.063079
       1.920000       2.063592       1.912939       0.062783
       1.930000       2.095648       1.921674       0.062509
       1.940000       2.123985       1.926194       0.062350
       1.950000       2.147085       1.926826       0.062392
       1.960000       2.163151       1.924557       0.062708
       1.970000       2.170127       1.920750       0.063347
       1.980000       2.165782       1.916784       0.064335
       1.990000       2.147916       1.913775       0.065667
       2.000000       2.114703       1.912425       0.067311
       2.010000       2.065134       1.912944       0.069205
       2.020000       1.999412       1.914997       0.071263
       2.030000       1.919164       1.917678       0.073381
       2.040000       1.827320       1.919544       0.075449
       2.050000       1.727683       1.918826       0.077362
       2.060000       1.624316       1.913785       0.079025
       2.070000       1.520963       1.903148       0.080366
       2.080000       1.420642       1.886417       0.081335
       2.090000       1.325490       1.863940       0.081918
       2.100000       1.236792       1.836724       0.082138
       2.110000       1.155134       1.806119       0.082059
       2.120000       1.080595       1.773526       0.081782
       2.130000       1.012931       1.740277       0.081428
       2.140000       0.951725       1.707639       0.081119
       2.150000       0.896490       1.676871       0.080956
       2.160000       0.846735       1.649183       0.081007
       2.170000       0.801988       1.625596       0.081303
       2.180000       0.761806       1.606741       0.081838
       2.190000       0.725770       1.592730       0.082575
       2.200000       0.693488       1.583167       0.083453
       2.210000       0.664584       1.577327       0.084394
       2.220000       0.638703       1.574415       0.085302
       2.230000       0.615506       1.573804       0.086081
       2.240000       0.594666       1.575123       0.086639
       2.250000       0.575872       1.578185       0.086914
       2.260000       0.558829       1.582798       0.086883
       2.270000       0.543278       1.588630       0.086577
       2.280000       0.529007       1.595188       0.086071
       2.290000       0.515871       1.601961       0.085476
       2.300000       0.503800       1.608652       0.084917
       2.310000       0.492784       1.615414       0.084513
       2.320000       0.482858       1.622998       0.084362
       2.330000       0.474067       1.632739       0.084533
       2.340000       0.466444       1.646389       0.085063
       2.350000       0.459988       1.665837       0.085959
       2.360000       0.454652       1.692823       0.087205
       2.370000       0.450337       1.728730       0.088768
       2.380000       0.446896       1.774494       0.090603
       2.390000       0.444142       1.830621       0.092648
       2.400000       0.441871       1.897254       0.094824
       2.410000       0.439883       1.974232       0.097032
       2.420000       0.438005       2.061092       0.099156
       2.430000       0.436105       2.156977       0.101078
       2.440000       0.434086       2.260480       0.102701
       2.450000       0.431886       2.369452       0.103972
       2.460000       0.429473       2.480846       0.104891
       2.470000       0.426855       2.590640       0.105514
       2.480000       0.424101       2.693860       0.105936
       2.490000       0.421351       2.784745       0.106273
       2.500000       0.418808       2.857122       0.106642
       2.510000       0.416708       2.905014       0.107142
       2.520000       0.415285       2.923487       0.107838
       2.530000       0.414727       2.909577       0.108755
       2.540000       0.415159       2.863040       0.109874
       2.550000       0.416633       2.786600       0.111132
       2.560000       0.419135       2.685549       0.112443
       2.570000       0.422590       2.566774       0.113709
       2.580000       0.426881       2.437531       0.114841
       2.590000       0.431861       2.304347       0.115774
       2.600000       0.437383       2.172332       0.116481
       2.610000       0.443337       2.044983       0.116972
       2.620000       0.449693       1.924400       0.117293
       2.630000       0.456524       1.811718       0.117518
       2.640000       0.463996       1.707544       0.117735
       2.650000       0.472328       1.612264       0.118038
       2.660000       0.481716       1.526154       0.118512
       2.670000       0.492271       1.449358       0.119230
       2.680000       0.503983       1.381808       0.120232
       2.690000       0.516717       1.323147       0.121513
       2.700000       0.530244       1.272708       0.123021
       2.710000       0.544276       1.229532       0.124653
       2.720000       0.558492       1.192440       0.126277
       2.730000       0.572533       1.160146       0.127759
       2.740000       0.585973       1.131415       0.128990
       2.750000       0.598298       1.105234       0.129904
       2.760000       0.608908       1.080956       0.130490
       2.770000       0.617147       1.058351       0.130776
       2.780000       0.622355       1.037555       0.130825
       2.790000       0.623927       1.018914       0.130705
       2.800000       0.621383       1.002803       0.130484
       2.810000       0.614453       0.989461       0.130207
       2.820000       0.603152       0.978906       0.129896
       2.830000       0.587835       0.970928       0.129544
       2.840000       0.569185       0.965160       0.129123
       2.850000       0.548127       0.961187       0.128599
       2.860000       0.525704       0.958660       0.127950
       2.870000       0.502932       0.957374       0.127175
       2.880000       0.480681       0.957263       0.126306
       2.890000       0.459602       0.958322       0.125402
       2.900000       0.440109       0.960489       0.124533
       2.910000       0.422385       0.963537       0.123772
       2.920000       0.406431       0.967051       0.123175
       2.930000       0.392117       0.970487       0.122778
       2.940000       0.379238       0.973300       0.122596
       2.950000       0.367570       0.975072       0.122622
       2.960000       0.356910       0.975603       0.122842
       2.970000       0.347100       0.974934       0.123231
       2.980000       0.338038       0.973332       0.123769
       2.990000       0.329670       0.971253       0.124440
       3.000000       0.321972       0.969295       0.125230
       3.010000       0.314932       0.968138       0.126127
       3.020000       0.308531       0.968476       0.127107
       3.030000       0.302729       0.970966       0.128139
       3.040000       0.297470       0.976211       0.129173
       3.050000       0.292690       0.984770       0.130154
       3.060000       0.288331       0.997179       0.131025
       3.070000       0.284347       1.013949       0.131745
       3.080000       0.280708       1.035533       0.132303
       3.090000       0.277396       1.062268       0.132721
       3.100000       0.274400       1.094324       0.133059
       3.110000       0.271714       1.131663       0.133403
       3.120000       0.269340       1.174026       0.133852
       3.130000       0.267292       1.220950       0.134496
       3.140000       0.265597       1.271802       0.135397
       3.150000       0.264297       1.325832       0.136577
       3.160000       0.263438       1.382232       0.138013
       3.170000       0.263061       1.440195       0.139646
       3.180000       0.263197       1.498940       0.141396
       3.190000       0.263862       1.557715       0.143177
       3.200000       0.265059       1.615773       0.144915
       3.210000       0.266779       1.672319       0.146556
       3.220000       0.269007       1.726466       0.148072
       3.230000       0.271719       1.777164       0.149447
       3.240000       0.274884       1.823173       0.150669
       3.250000       0.278464       1.863096       0.151712
       3.260000       0.282418       1.895534       0.152532
       3.270000       0.286703       1.919354       0.153065
       3.280000       0.291278       1.934003       0.153238
       3.290000       0.296113       1.939745       0.152988
       3.300000       0.301186       1.937695       0.152273
       3.310000       0.306487       1.929606       0.151088
       3.320000       0.312011       1.917482       0.149466
       3.330000       0.317746       1.903160       0.147484
       3.340000       0.323670       1.888017       0.145246
       3.350000       0.329743       1.872885       0.142868
       3.360000       0.335928       1.858164       0.140457
       3.370000       0.342212       1.844060       0.138099
       3.380000       0.348637       1.830829       0.135851
       3.390000       0.355315       1.818888       0.133746
       3.400000       0.362430       1.808769       0.131805
       3.410000       0.370215       1.800925       0.130049
       3.420000       0.378913       1.795532       0.128504
       3.430000       0.388740       1.792408       0.127199
       3.440000       0.399851       1.791110       0.126169
       3.450000       0.412322       1.791171       0.125449
       3.460000       0.426145       1.792326       0.125073
       3.470000       0.441245       1.794609       0.125071
       3.480000       0.457507       1.798267       0.125460
       3.490000       0.474819       1.803564       0.126236
       3.500000       0.493117       1.810607       0.127365
       3.510000       0.512428       1.819296       0.128784
       3.520000       0.532897       1.829414       0.130399
       3.530000       0.554789       1.840762       0.132104
       3.540000       0.578451       1.853237       0.133789
       3.550000       0.604258       1.866751       0.135361
       3.560000       0.632531       1.881016       0.136750
       3.570000       0.663468       1.895315       0.137923
       3.580000       0.697070       1.908398       0.138881
       3.590000       0.733073       1.918641       0.139648
       3.600000       0.770874       1.924447       0.140262
       3.610000       0.809470       1.924744       0.140752
       3.620000       0.847448       1.919347       0.141131
       3.630000       0.883067       1.908975       0.141384
       3.640000       0.914477       1.894932       0.141492
       3.650000       0.940035       1.878621       0.141446
       3.660000       0.958659       1.861140       0.141280
       3.670000       0.970056       1.843123       0.141073
       3.680000       0.974747       1.824843       0.140940
       3.690000       0.973860       1.806476       0.141004
       3.700000       0.968828       1.788347       0.141361
       3.710000       0.961093       1.771023       0.142058
       3.720000       0.951923       1.755225       0.143075
       3.730000       0.942311       1.741629       0.144337
       3.740000       0.932931       1.730664       0.145722
       3.750000       0.924132       1.722422       0.147085
       3.760000       0.915980       1.716707       0.148287
       3.770000       0.908374       1.713185       0.149212
       3.780000       0.901203       1.711572       0.149786
       3.790000       0.894497       1.711752       0.149984
       3.800000       0.888495       1.713773       0.149838
       3.810000       0.883610       1.717712       0.149439
       3.820000       0.880299       1.723505       0.148920
       3.830000       0.878920       1.730838       0.148444
       3.840000       0.879621       1.739169       0.148172
       3.850000       0.882285       1.747920       0.148247
       3.860000       0.886553       1.756727       0.148785
       3.870000       0.891882       1.765648       0.149866
       3.880000       0.897656       1.775217       0.151538
       3.890000       0.903329       1.786323       0.153816
       3.900000       0.908588       1.799989       0.156673
       3.910000       0.913499       1.817150       0.160039
       3.920000       0.918564       1.838497       0.163793
       3.930000       0.924640       1.864398       0.167762
       3.940000       0.932753       1.894903       0.171733
       3.950000       0.943850       1.929795       0.175468
       3.960000       0.958553       1.968647       0.178739
       3.970000       0.976973       2.010822       0.181361
       3.980000       0.998581       2.055375       0.183220
       3.990000       1.022153       2.100888       0.184292
       4.000000       1.045807       2.145347       0.184632
       4.010000       1.067188       2.186190       0.184352
       4.020000       1.083809       2.220599       0.183589
       4.030000       1.093547       2.245998       0.182477
       4.040000       1.095138       2.260616       0.181134
       4.050000       1.088513       2.263886       0.179670
       4.060000       1.074804       2.256552       0.178200
       4.070000       1.056032       2.240448       0.176850
       4.080000       1.034619       2.218078       0.175747
       4.090000       1.012914       2.192132       0.175000
       4.100000       0.992875       2.165061       0.174682
       4.110000       0.975924       2.138737       0.174815
       4.120000       0.962964       2.114216       0.175373
       4.130000       0.954468       2.091629       0.176301
       4.140000       0.950608       2.070253       0.177536
       4.150000       0.951380       2.048804       0.179028
       4.160000       0.956708       2.025903       0.180758
       4.170000       0.966515       2.000569       0.182731
       4.180000       0.980768       1.972548       0.184967
       4.190000       0.999486       1.942343       0.187483
       4.200000       1.022739       1.910949       0.190271
       4.210000       1.050650       1.879442       0.193290
       4.220000       1.083384       1.848623       0.196470
       4.230000       1.121137       1.818872       0.199723
       4.240000       1.164075       1.790231       0.202964
       4.250000       1.212251       1.762685       0.206131
       4.260000       1.265480       1.736461       0.209188
       4.270000       1.323229       1.712208       0.212125
       4.280000       1.384553       1.690982       0.214940
       4.290000       1.448134       1.674031       0.217631
       4.300000       1.512440       1.662512       0.220190
       4.310000       1.575979       1.657246       0.222606
       4.320000       1.637586       1.658595       0.224879
       4.330000       1.696610       1.666484       0.227024
       4.340000       1.752938       1.680531       0.229076
       4.350000       1.806822       1.700220       0.231089
       4.360000       1.858637       1.725042       0.233129
       4.370000       1.908654       1.754566       0.235263
       4.380000       1.956966       1.788434       0.237546
       4.390000       2.003522       1.826354       0.240011
       4.400000       2.048215       1.868117       0.242652
       4.410000       2.090919       1.913622       0.245426
       4.420000       2.131425       1.962859       0.248237
       4.430000       2.169265       2.015793       0.250948
       4.440000       2.203517       2.072140       0.253379
       4.450000       2.232707       2.131134       0.255335
       4.460000       2.254904       2.191353       0.256639
       4.470000       2.268040       2.250708       0.257167
       4.480000       2.270351       2.306614       0.256877
       4.490000       2.260773       2.356319       0.255815
       4.500000       2.239147       2.397313       0.254094
       4.510000       2.206165       2.427722       0.251874
       4.520000       2.163156       2.446595       0.249326
       4.530000       2.111834       2.454012       0.246622
       4.540000       2.054147       2.451038       0.243912
       4.550000       1.992228       2.439543       0.241318
       4.560000       1.928371       2.421954       0.238927
       4.570000       1.864938       2.400931       0.236792
       4.580000       1.804157       2.379016       0.234939
       4.590000       1.747879       2.358312       0.233378
       4.600000       1.697402       2.340247       0.232118
       4.610000       1.653423       2.325510       0.231180
       4.620000       1.616145       2.314129       0.230589
       4.630000       1.585456       2.305665       0.230364
       4.640000       1.561135       2.299463       0.230497
       4.650000       1.542989       2.294918       0.230935
       4.660000       1.530905       2.291696       0.231576
       4.670000       1.524835       2.289851       0.232273
       4.680000       1.524756       2.289790       0.232857
       4.690000       1.530622       2.292080       0.233171
       4.700000       1.542342       2.297179       0.233090
       4.710000       1.559770       2.305178       0.232551
       4.720000       1.582714       2.315672       0.231552
       4.730000       1.610955       2.327808       0.230151
       4.740000       1.644280       2.340495       0.228452
       4.750000       1.682496       2.352711       0.226593
       4.760000       1.725428       2.363773       0.224725
       4.770000       1.772861       2.373507       0.223005
       4.780000       1.824441       2.382264       0.221577
       4.790000       1.879513       2.390803       0.220562
       4.800000       1.936935       2.400037       0.220050
       4.810000       1.994897       2.410727       0.220086
       4.820000       2.050872       2.423166       0.220678
       4.830000       2.101732       2.436973       0.221796
       4.840000       2.144084       2.451043       0.223375
       4.850000       2.174745       2.463686       0.225319
       4.860000       2.191260       2.472951       0.227510
       4.870000       2.192334       2.477045       0.229806
       4.880000       2.178032       2.474759       0.232049
       4.890000       2.149706       2.465741       0.234068
       4.900000       2.109672       2.450566       0.235690
       4.910000       2.060766       2.430617       0.236746
       4.920000       2.005928       2.407834       0.237085
       4.930000       1.947886       2.384409       0.236593
       4.940000       1.888987       2.362474       0.235208
       4.950000       1.831138       2.343808       0.232934
       4.960000       1.775776       2.329598       0.229837
       4.970000       1.723831       2.320277       0.226036
       4.980000       1.675691       2.315449       0.221681
       4.990000       1.631221       2.313944       0.216933
       5.000000       1.589903       2.314005       0.211945
       5.010000       1.551095       2.313598       0.206848
       5.020000       1.514332       2.310798       0.201745
       5.030000       1.479548       2.304129       0.196713
       5.040000       1.447156       2.292787       0.191807
       5.050000       1.417961       2.276700       0.187078
       5.060000       1.392967       2.256463       0.182584
       5.070000       1.373160       2.233193       0.178391
       5.080000       1.359336       2.208343       0.174581
       5.090000       1.352009       2.183500       0.171237
       5.100000       1.351402       2.160157       0.168435
       5.110000       1.357479       2.139509       0.166238
       5.120000       1.370007       2.122314       0.164683
       5.130000       1.388578       2.108848       0.163782
       5.140000       1.412596       2.098933       0.163523
       5.150000       1.441243       2.092013       0.163863
       5.160000       1.473481       2.087230       0.164740
       5.170000       1.508097       2.083499       0.166075
       5.180000       1.543811       2.079571       0.167781
       5.190000       1.579382       2.074117       0.169777
       5.200000       1.613684       2.065831       0.171998
       5.210000       1.645724       2.053564       0.174400
       5.220000       1.674647       2.036501       0.176953
       5.230000       1.699766       2.014370       0.179636
       5.240000       1.720626       1.987618       0.182413
       5.250000       1.737043       1.957450       0.185223
       5.260000       1.749064       1.925630       0.187977
       5.270000       1.756837       1.894104       0.190567
       5.280000       1.760423       1.864565       0.192886
       5.290000       1.759658       1.838135       0.194835
       5.300000       1.754121       1.815260       0.196346
       5.310000       1.743277       1.795827       0.197377
       5.320000       1.726760       1.779420       0.197924
       5.330000       1.704710       1.765579       0.198015
       5.340000       1.678017       1.753975       0.197715
       5.350000       1.648336       1.744443       0.197118
       5.360000       1.617854       1.736922       0.196341
       5.370000       1.588898       1.731378       0.195511
       5.380000       1.563515       1.727784       0.194742
       5.390000       1.543162       1.726168       0.194121
       5.400000       1.528558       1.726687       0.193683
       5.410000       1.519699       1.729686       0.193413
       5.420000       1.516000       1.735663       0.193246
       5.430000       1.516500       1.745156       0.193088
       5.440000       1.520063       1.758557       0.192839
       5.450000       1.525524       1.775906       0.192409
       5.460000       1.531741       1.796755       0.191731
       5.470000       1.537615       1.820133       0.190776
       5.480000       1.542116       1.844674       0.189556
       5.490000       1.544363       1.868861       0.188118
       5.500000       1.543730       1.891314       0.186546
       5.510000       1.539937       1.911015       0.184942
       5.520000       1.533088       1.927410       0.183414
       5.530000       1.523674       1.940368       0.182060
       5.540000       1.512539       1.950037       0.180958
       5.550000       1.500819       1.956676       0.180166
       5.560000       1.489832       1.960527       0.179719
       5.570000       1.480926       1.961805       0.179637
       5.580000       1.475316       1.960790       0.179933
       5.590000       1.473927       1.957957       0.180619
       5.600000       1.477277       1.954050       0.181705
       5.610000       1.485385       1.950014       0.183201
       5.620000       1.497726       1.946791       0.185103
       5.630000       1.513250       1.945027       0.187382
       5.640000       1.530466       1.944816       0.189975
       5.650000       1.547611       1.945556       0.192792
       5.660000       1.562870       1.946035       0.195720
       5.670000       1.574607       1.944696       0.198648
       5.680000       1.581565       1.940051       0.201477
       5.690000       1.583031       1.931079       0.204125
       5.700000       1.578908       1.917503       0.206523
       5.710000       1.569708       1.899861       0.208602
       5.720000       1.556407       1.879352       0.210292
       5.730000       1.540212       1.857540       0.211523
       5.740000       1.522302       1.836003       0.212231
       5.750000       1.503600       1.816050       0.212376
       5.760000       1.484666       1.798572       0.211954
       5.770000       1.465741       1.784061       0.211006
       5.780000       1.446899       1.772718       0.209623
       5.790000       1.428256       1.764575       0.207930
       5.800000       1.410127       1.759557       0.206072
       5.810000       1.393071       1.757479       0.204189
       5.820000       1.377811       1.758039       0.202395
       5.830000       1.365099       1.760843       0.200777
       5.840000       1.355560       1.765489       0.199396
       5.850000       1.349588       1.771651       0.198298
       5.860000       1.347285       1.779135       0.197524
       5.870000       1.348452       1.787873       0.197112
       5.880000       1.352636       1.797883       0.197092
       5.890000       1.359218       1.809223       0.197484
       5.900000       1.367524       1.821922       0.198283
       5.910000       1.376929       1.835893       0.199458
       5.920000       1.386894       1.850824       0.200953
       5.930000       1.396946       1.866101       0.202696
       5.940000       1.406626       1.880836       0.204615
       5.950000       1.415470       1.893993       0.206651
       5.960000       1.423069       1.904620       0.208770
       5.970000       1.429159       1.912087       0.210965
       5.980000       1.433718       1.916256       0.213248
       5.990000       1.436972       1.917508       0.215642
       6.000000       1.439347       1.916613       0.218174
       6.010000       1.441387       1.914545       0.220864
       6.020000       1.443728       1.912313       0.223735
       6.030000       1.447104       1.910887       0.226807
       6.040000       1.452366       1.911180       0.230113
       6.050000       1.460425       1.914024       0.233689
       6.060000       1.472125       1.920093       0.237568
       6.070000       1.488054       1.929766       0.241761
       6.080000       1.508369       1.942987       0.246233
       6.090000       1.532704       1.959169       0.250883
       6.100000       1.560167       1.977205       0.255545
       6.110000       1.589441       1.995554       0.259997
       6.120000       1.618933       2.012436       0.264000
       6.130000       1.646952       2.026068       0.267342
       6.140000       1.671897       2.034924       0.269887
       6.150000       1.692454       2.037945       0.271601
       6.160000       1.707753       2.034645       0.272558
       6.170000       1.717472       2.025104       0.272923
       6.180000       1.721838       2.009848       0.272912
       6.190000       1.721552       1.989705       0.272737
       6.200000       1.717668       1.965707       0.272570
       6.210000       1.711473       1.939070       0.272509
       6.220000       1.704386       1.911233       0.272579
       6.230000       1.697867       1.883879       0.272745
       6.240000       1.693345       1.858889       0.272942
       6.250000       1.692148       1.838188       0.273101
       6.260000       1.695433       1.823544       0.273172
       6.270000       1.704134       1.816356       0.273127
       6.280000       1.718915       1.817479       0.272968
       6.290000       1.740130       1.827123       0.272717
       6.300000       1.767793       1.844826       0.272412
       6.310000       1.801548       1.869515       0.272102
       6.320000       1.840645       1.899650       0.271851
       6.330000       1.883957       1.933429       0.271742
       6.340000       1.930005       1.968991       0.271867
       6.350000       1.977019       2.004566       0.272328
       6.360000       2.022998       2.038541       0.273213
       6.370000       2.065838       2.069478       0.274580
       6.380000       2.103536       2.096159       0.276446
       6.390000       2.134493       2.117713       0.278781
       6.400000       2.157821       2.133788       0.281516
       6.410000       2.173557       2.144660       0.284552
       6.420000       2.182673       2.151198       0.287780
       6.430000       2.186855       2.154642       0.291095
       6.440000       2.188123       2.156273       0.294406
       6.450000       2.188416       2.157092       0.297642
       6.460000       2.189244       2.157608       0.300752
       6.470000       2.191490       2.157816       0.303705
       6.480000       2.195375       2.157331       0.306487
       6.490000       2.200571       2.155656       0.309101
       6.500000       2.206436       2.152463       0.311573
       6.510000       2.212308       2.147823       0.313941
       6.520000       2.217791       2.142320       0.316249
       6.530000       2.222946       2.137039       0.318529
       6.540000       2.228327       2.133440       0.320776
       6.550000       2.234874       2.133136       0.322935
       6.560000       2.243719       2.137635       0.324893
       6.570000       2.255983       2.148110       0.326498
       6.580000       2.272605       2.165253       0.327589
       6.590000       2.294203       2.189223       0.328035
       6.600000       2.320951       2.219675       0.327763
       6.610000       2.352473       2.255819       0.326781
       6.620000       2.387806       2.296481       0.325173
       6.630000       2.425474       2.340154       0.323086
       6.640000       2.463693       2.385056       0.320707
       6.650000       2.500724       2.429255       0.318240
       6.660000       2.535275       2.470887       0.315881
       6.670000       2.566849       2.508461       0.313799
       6.680000       2.595904       2.541162       0.312118
       6.690000       2.623720       2.569027       0.310906
       6.700000       2.652033       2.592915       0.310177
       6.710000       2.682537       2.614277       0.309897
       6.720000       2.716445       2.634800       0.310000
       6.730000       2.754238       2.656002       0.310403
       6.740000       2.795621       2.678880       0.311019
       6.750000       2.839656       2.703672       0.311764
       6.760000       2.884972       2.729787       0.312562
       6.770000       2.930002       2.755951       0.313345
       6.780000       2.973240       2.780525       0.314057
       6.790000       3.013493       2.801957       0.314665
       6.800000       3.050088       2.819187       0.315161
       6.810000       3.082946       2.831895       0.315573
       6.820000       3.112462       2.840460       0.315952
       6.830000       3.139256       2.845723       0.316366
       6.840000       3.163922       2.848686       0.316884
       6.850000       3.186920       2.850326       0.317568
       6.860000       3.208651       2.851586       0.318469
       6.870000       3.229603       2.853460       0.319630
       6.880000       3.250400       2.857027       0.321090
       6.890000       3.271647       2.863341       0.322890
       6.900000       3.293623       2.873184       0.325070
       6.910000       3.315958       2.886770       0.327663
       6.920000       3.337441       2.903516       0.330690
       6.930000       3.356037       2.921969       0.334155
       6.940000       3.369091       2.939943       0.338041
       6.950000       3.373715       2.954848       0.342306
       6.960000       3.367304       2.964186       0.346885
       6.970000       3.348108       2.966081       0.351685
       6.980000       3.315675       2.959675       0.356596
       6.990000       3.271012       2.945251       0.361489
       7.000000       3.216337       2.924011       0.366234
       7.010000       3.154530       2.897623       0.370703
       7.020000       3.088438       2.867711       0.374789
       7.030000       3.020309       2.835479       0.378419
       7.040000       2.951514       2.801586       0.381564
       7.050000       2.882634       2.766296       0.384242
       7.060000       2.813821       2.729793       0.386513
       7.070000       2.745233       2.692523       0.388475
       7.080000       2.677358       2.655376       0.390248
       7.090000       2.611085       2.619632       0.391971
       7.100000       2.547521       2.586678       0.393797
       7.110000       2.487678       2.557627       0.395885
       7.120000       2.432178       2.532989       0.398393
       7.130000       2.381132       2.512546       0.401477
       7.140000       2.334202       2.495426       0.405287
       7.150000       2.290830       2.480337       0.409974
       7.160000       2.250478       2.465842       0.415692
       7.170000       2.212803       2.450633       0.422594
       7.180000       2.177716       2.433763       0.430821
       7.190000       2.145360       2.414844       0.440493
       7.200000       2.116036       2.394158       0.451693
       7.210000       2.090104       2.372617       0.464463
       7.220000       2.067847       2.351545       0.478805
       7.230000       2.049307       2.332314       0.494689
       7.240000       2.034126       2.315920       0.512051
       7.250000       2.021470       2.302634       0.530799
       7.260000       2.010066       2.291817       0.550802
       7.270000       1.998370       2.281947       0.571878
       7.280000       1.984813       2.270885       0.593786
       7.290000       1.968045       2.256306       0.616231
       7.300000       1.947122       2.236190       0.638882
       7.310000       1.921612       2.209205       0.661411
       7.320000       1.891605       2.174872       0.683544
       7.330000       1.857660       2.133507       0.705103
       7.340000       1.820723       2.086066       0.726022
       7.350000       1.782045       2.033991       0.746341
       7.360000       1.743085       1.979119       0.766169
       7.370000       1.705402       1.923563       0.785635
       7.380000       1.670490       1.869546       0.804855
       7.390000       1.639585       1.819149       0.823911
       7.400000       1.613471       1.774076       0.842840
       7.410000       1.592345       1.735480       0.861632
       7.420000       1.575777       1.703890       0.880226
       7.430000       1.562794       1.679254       0.898516
       7.440000       1.552096       1.661049       0.916370
       7.450000       1.542345       1.648442       0.933670
       7.460000       1.532459       1.640442       0.950351
       7.470000       1.521796       1.636011       0.966416
       7.480000       1.510167       1.634127       0.981919
       7.490000       1.497698       1.633787       0.996927
       7.500000       1.484623       1.634013       1.011484
       7.510000       1.471093       1.633878       1.025594
       7.520000       1.457084       1.632598       1.039237
       7.530000       1.442419       1.629661       1.052398
       7.540000       1.426885       1.624948       1.065093
       7.550000       1.410379       1.618777       1.077379
       7.560000       1.393004       1.611820       1.089333
       7.570000       1.375076       1.604896       1.101026
       7.580000       1.357036       1.598727       1.112491
       7.590000       1.339335       1.593746       1.123703
       7.600000       1.322342       1.590041       1.134574
       7.610000       1.306317       1.587450       1.144970
       7.620000       1.291467       1.585756       1.154730
       7.630000       1.278005       1.584888       1.163697
       7.640000       1.266183       1.585024       1.171736
       7.650000       1.256231       1.586552       1.178746
       7.660000       1.248231       1.589907       1.184668
       7.670000       1.241978       1.595398       1.189478
       7.680000       1.236895       1.603078       1.193176
       7.690000       1.232057       1.612749       1.195752
       7.700000       1.226337       1.624055       1.197151
       7.710000       1.218636       1.636651       1.197246
       7.720000       1.208142       1.650367       1.195836
       7.730000       1.194522       1.665309       1.192696
       7.740000       1.177971       1.681852       1.187641
       7.750000       1.159124       1.700566       1.180578
       7.760000       1.138879       1.722112       1.171529
       7.770000       1.118211       1.747134       1.160620
       7.780000       1.098040       1.776185       1.148068
       7.790000       1.079159       1.809635       1.134159
       7.800000       1.062217       1.847582       1.119243
       7.810000       1.047721       1.889758       1.103698
       7.820000       1.036030       1.935458       1.087892
       7.830000       1.027330       1.983495       1.072138
       7.840000       1.021601       2.032220       1.056688
       7.850000       1.018592       2.079643       1.041766
       7.860000       1.017844       2.123688       1.027622
       7.870000       1.018747       2.162542       1.014587
       7.880000       1.020637       2.195016       1.003076
       7.890000       1.022889       2.220724       0.993555
       7.900000       1.024994       2.240016       0.986472
       7.910000       1.026574       2.253692       0.982205
       7.920000       1.027354       2.262648       0.981037
       7.930000       1.027102       2.267628       0.983153
       7.940000       1.025582       2.269144       0.988656
       7.950000       1.022535       2.267537       0.997562
       7.960000       1.017714       2.263074       1.009804
       7.970000       1.010934       2.256011       1.025234
       7.980000       1.002102       2.246594       1.043636
       7.990000       0.991223       2.235029       1.064755
       8.000000       0.978374       2.221457       1.088324
       8.010000       0.963691       2.205942       1.114070
       8.020000       0.947364       2.188466       1.141702
       8.030000       0.929664       2.168942       1.170881
       8.040000       0.910957       2.147250       1.201183
       8.050000       0.891695       2.123311       1.232088
       8.060000       0.872369       2.097175       1.263000
       8.070000       0.853422       2.069062       1.293293
       8.080000       0.835192       2.039353       1.322388
       8.090000       0.817885       2.008553       1.349819
       8.100000       0.801607       1.977260       1.375279
       8.110000       0.786422       1.946154       1.398649
       8.120000       0.772408       1.915955       1.419990
       8.130000       0.759670       1.887327       1.439527
       8.140000       0.748315       1.860747       1.457607
       8.150000       0.738415       1.836414       1.474643
       8.160000       0.729971       1.814258       1.491055
       8.170000       0.722900       1.794053       1.507227
       8.180000       0.717064       1.775549       1.523474
       8.190000       0.712302       1.758577       1.540024
       8.200000       0.708478       1.743074       1.556993
       8.210000       0.705499       1.729047       1.574351
       8.220000       0.703307       1.716519       1.591904
       8.230000       0.701870       1.705491       1.609285
       8.240000       0.701161       1.695926       1.625976
       8.250000       0.701162       1.687774       1.641339
       8.260000       0.701876       1.681001       1.654695
       8.270000       0.703348       1.675604       1.665430
       8.280000       0.705678       1.671568       1.673115
       8.290000       0.709018       1.668792       1.677619
       8.300000       0.713553       1.666999       1.679149
       8.310000       0.719474       1.665700       1.678207
       8.320000       0.726948       1.664235       1.675473
       8.330000       0.736091       1.661885       1.671665
       8.340000       0.746963       1.658016       1.667401
       8.350000       0.759551       1.652182       1.663106
       8.360000       0.773754       1.644154       1.658981
       8.370000       0.789330       1.633867       1.655052
       8.380000       0.805836       1.621332       1.651290
       8.390000       0.822554       1.606564       1.647743
       8.400000       0.838470       1.589547       1.644654
       8.410000       0.852342       1.570243       1.642497
       8.420000       0.862859       1.548631       1.641929
       8.430000       0.868868       1.524764       1.643680
       8.440000       0.869594       1.498820       1.648438
       8.450000       0.864776       1.471110       1.656759
       8.460000       0.854686       1.442045       1.669026
       8.470000       0.840037       1.412080       1.685449
       8.480000       0.821818       1.381674       1.706079
       8.490000       0.801122       1.351279       1.730851
       8.500000       0.778996       1.321335       1.759640
       8.510000       0.756353       1.292264       1.792340
       8.520000       0.733940       1.264429       1.828961
       8.530000       0.712346       1.238105       1.869695
       8.540000       0.692018       1.213462       1.914939
       8.550000       0.673277       1.190599       1.965251
       8.560000       0.656316       1.169607       2.021243
       8.570000       0.641198       1.150642       2.083480
       8.580000       0.627871       1.133978       2.152387
       8.590000       0.616198       1.120000       2.228223
       8.600000       0.606009       1.109158       2.311097
       8.610000       0.597145       1.101879       2.401015
       8.620000       0.589493       1.098506       2.497897
       8.630000       0.582981       1.099255       2.601548
       8.640000       0.577557       1.104199       2.711527
       8.650000       0.573165       1.113278       2.826972
       8.660000       0.569719       1.126303       2.946424
       8.670000       0.567104       1.142959       3.067746
       8.680000       0.565181       1.162790       3.188227
       8.690000       0.563818       1.185192       3.304908
       8.700000       0.562918       1.209431       3.415098
       8.710000       0.562457       1.234698       3.516913
       8.720000       0.562505       1.260194       3.609635
       8.730000       0.563229       1.285215       3.693700
       8.740000       0.564848       1.309199       3.770292
       8.750000       0.567570       1.331752       3.840714
       8.760000       0.571521       1.352643       3.905773
       8.770000       0.576690       1.371819       3.965408
       8.780000       0.582915       1.389415       4.018663
       8.790000       0.589909       1.405746       4.063940
       8.800000       0.597316       1.421238       4.099410
       8.810000       0.604793       1.436301       4.123424
       8.820000       0.612082       1.451158       4.134802
       8.830000       0.619048       1.465695       4.132975
       8.840000       0.625677       1.479382       4.117971
       8.850000       0.632028       1.491339       4.090325
       8.860000       0.638170       1.500545       4.050992
       8.870000       0.644134       1.506150       4.001295
       8.880000       0.649880       1.507756       3.942917
       8.890000       0.655304       1.505560       3.877838
       8.900000       0.660263       1.500277       3.808177
       8.910000       0.664620       1.492890       3.735943
       8.920000       0.668286       1.484342       3.662800
       8.930000       0.671250       1.475329       3.589946
       8.940000       0.673589       1.466268       3.518137
       8.950000       0.675455       1.457430       3.447826
       8.960000       0.677064       1.449133       3.379332
       8.970000       0.678672       1.441873       3.312965
       8.980000       0.680557       1.436357       3.249074
       8.990000       0.683008       1.433406       3.188035
       9.000000       0.686297       1.433797       3.130203
       9.010000       0.690662       1.438097       3.075864
       9.020000       0.696268       1.446537       3.025219
       9.030000       0.703177       1.458987       2.978373
       9.040000       0.711323       1.475027       2.935319
       9.050000       0.720493       1.494090       2.895939
       9.060000       0.730330       1.515608       2.860009
       9.070000       0.740348       1.539076       2.827234
       9.080000       0.749954       1.563998       2.797275
       9.090000       0.758491       1.589750       2.769764
       9.100000       0.765298       1.615427       2.744287
       9.110000       0.769802       1.639786       2.720366
       9.120000       0.771622       1.661328       2.697461
       9.130000       0.770653       1.678496       2.675011
       9.140000       0.767099       1.689917       2.652488
       9.150000       0.761439       1.694600       2.629458
       9.160000       0.754323       1.692014       2.605626
       9.170000       0.746448       1.682100       2.580845
       9.180000       0.738438       1.665237       2.555095
       9.190000       0.730774       1.642224       2.528435
       9.200000       0.723781       1.614242       2.500950
       9.210000       0.717669       1.582752       2.472706
       9.220000       0.712596       1.549321       2.443723
       9.230000       0.708717       1.515411       2.413939
       9.240000       0.706222       1.482228       2.383200
       9.250000       0.705323       1.450669       2.351281
       9.260000       0.706231       1.421374       2.317951
       9.270000       0.709115       1.394818       2.283083
       9.280000       0.714068       1.371385       2.246750
       9.290000       0.721076       1.351357       2.209271
       9.300000       0.730015       1.334831       2.171170
       9.310000       0.740656       1.321599       2.133080
       9.320000       0.752685       1.311071       2.095626
       9.330000       0.765732       1.302276       2.059336
       9.340000       0.779399       1.293973       2.024612
       9.350000       0.793284       1.284857       1.991750
       9.360000       0.806996       1.273827       1.961011
       9.370000       0.820185       1.260249       1.932713
       9.380000       0.832573       1.244144       1.907312
       9.390000       0.844001       1.226211       1.885448
       9.400000       0.854449       1.207690       1.867921
       9.410000       0.864038       1.190111       1.855602
       9.420000       0.872996       1.175033       1.849297
       9.430000       0.881616       1.163838       1.849617
       9.440000       0.890205       1.157613       1.856887
       9.450000       0.899025       1.157098       1.871092
       9.460000       0.908244       1.162668       1.891872
       9.470000       0.917889       1.174323       1.918558
       9.480000       0.927822       1.191672       1.950234
       9.490000       0.937743       1.213909       1.985843
       9.500000       0.947221       1.239808       2.024317
       9.510000       0.955771       1.267759       2.064731
       9.520000       0.962960       1.295891       2.106420
       9.530000       0.968540       1.322297       2.149046
       9.540000       0.972529       1.345305       2.192564
       9.550000       0.975236       1.363723       2.237103
       9.560000       0.977177       1.376940       2.282808
       9.570000       0.978950       1.384858       2.329689
       9.580000       0.981104       1.387692       2.377522
       9.590000       0.984038       1.385750       2.425856
       9.600000       0.987949       1.379304       2.474095
       9.610000       0.992824       1.368592       2.521631
       9.620000       0.998468       1.353929       2.567975
       9.630000       1.004567       1.335846       2.612821
       9.640000       1.010752       1.315165       2.656038
       9.650000       1.016666       1.292986       2.697616
       9.660000       1.022000       1.270578       2.737599
       9.670000       1.026515       1.249227       2.776027
       9.680000       1.030073       1.230077       2.812896
       9.690000       1.032670       1.214012       2.848115
       9.700000       1.034472       1.201584       2.881497
       9.710000       1.035817       1.193015       2.912781
       9.720000       1.037157       1.188250       2.941684
       9.730000       1.038969       1.187065       2.967956
       9.740000       1.041644       1.189177       2.991388
       9.750000       1.045376       1.194373       3.011779
       9.760000       1.050099       1.202595       3.028872
       9.770000       1.055463       1.213976       3.042336
       9.780000       1.060868       1.228809       3.051783
       9.790000       1.065550       1.247471       3.056833
       9.800000       1.068716       1.270329       3.057189
       9.810000       1.069690       1.297656       3.052717
       9.820000       1.068064       1.329563       3.043514
       9.830000       1.063779       1.365935       3.029955
       9.840000       1.057142       1.406371       3.012708
       9.850000       1.048749       1.450141       2.992682
       9.860000       1.039352       1.496168       2.970922
       9.870000       1.029704       1.543057       2.948436
       9.880000       1.020411       1.589185       2.926022
       9.890000       1.011851       1.632858       2.904108
       9.900000       1.004167       1.672502       2.882668
       9.910000       0.997327       1.706850       2.861230
       9.920000       0.991219       1.735059       2.839001
       9.930000       0.985717       1.756767       2.815091
       9.940000       0.980706       1.772112       2.788780
       9.950000       0.976069       1.781719       2.759739
       9.960000       0.971678       1.786664       2.728131
       9.970000       0.967434       1.788359       2.694579
       9.980000       0.963319       1.788364       2.660047
       9.990000       0.959427       1.788147       2.625675
      10.000000       0.955933       1.788850       2.592603
      10.010000       0.952988       1.791129       2.561786
      10.020000       0.950601       1.795084       2.533810
      10.030000       0.948571       1.800293       2.508753
      10.040000       0.946509       1.805954       2.486158
      10.050000       0.943957       1.811089       2.465132
      10.060000       0.940539       1.814777       2.444568
      10.070000       0.936089       1.816339       2.423425
      10.080000       0.930708       1.815416       2.400978
      10.090000       0.924738       1.811929       2.376943
      10.100000       0.918686       1.805934       2.351473
      10.110000       0.913146       1.797451       2.325018
      10.120000       0.908712       1.786345       2.298149
      10.130000       0.905919       1.772304       2.271407
      10.140000       0.905186       1.754909       2.245218
      10.150000       0.906781       1.733761       2.219867
      10.160000       0.910825       1.708616       2.195515
      10.170000       0.917306       1.679492       2.172223
      10.180000       0.926109       1.646712       2.149979
      10.190000       0.937038       1.610890       2.128731
      10.200000       0.949839       1.572877       2.108421
      10.210000       0.964214       1.533692       2.089006
      10.220000       0.979852       1.494427       2.070471
      10.230000       0.996454       1.456149       2.052826
      10.240000       1.013757       1.419810       2.036091
      10.250000       1.031527       1.386174       2.020286
      10.260000       1.049537       1.355775       2.005437
      10.270000       1.067521       1.328917       1.991596
      10.280000       1.085142       1.305693       1.978860
      10.290000       1.101992       1.286021       1.967366
      10.300000       1.117644       1.269671       1.957266
      10.310000       1.131731       1.256294       1.948682
      10.320000       1.144045       1.245434       1.941646
      10.330000       1.154587       1.236546       1.936048
      10.340000       1.163558       1.229013       1.931615
      10.350000       1.171271       1.222175       1.927930
      10.360000       1.178021       1.215376       1.924520
      10.370000       1.183965       1.208026       1.920973
      10.380000       1.189057       1.199675       1.917073
      10.390000       1.193088       1.190070       1.912887
      10.400000       1.195813       1.179186       1.908797
      10.410000       1.197105       1.167224       1.905455
      10.420000       1.197068       1.154554       1.903683
      10.430000       1.196058       1.141643       1.904329
      10.440000       1.194635       1.128981       1.908127
      10.450000       1.193481       1.117031       1.915575
      10.460000       1.193329       1.106218       1.926868
      10.470000       1.194925       1.096924       1.941898
      10.480000       1.198987       1.089467       1.960320
      10.490000       1.206183       1.084058       1.981651
      10.500000       1.217101       1.080746       2.005372
      10.510000       1.232237       1.079395       2.031007
      10.520000       1.252007       1.079708       2.058179
      10.530000       1.276742       1.081301       2.086647
      10.540000       1.306667       1.083793       2.116344
      10.550000       1.341837       1.086872       2.147410
      10.560000       1.382020       1.090341       2.180186
      10.570000       1.426582       1.094125       2.215176
      10.580000       1.474395       1.098263       2.252960
      10.590000       1.523824       1.102883       2.294094
      10.600000       1.572832       1.108146       2.339022
      10.610000       1.619220       1.114179       2.388016
      10.620000       1.660962       1.120999       2.441148
      10.630000       1.696598       1.128449       2.498291
      10.640000       1.725554       1.136151       2.559124
      10.650000       1.748289       1.143491       2.623133
      10.660000       1.766204       1.149634       2.689610
      10.670000       1.781306       1.153585       2.757645
      10.680000       1.795744       1.154310       2.826140
      10.690000       1.811308       1.150904       2.893827
      10.700000       1.829002       1.142735       2.959281
      10.710000       1.848736       1.129545       3.020928
      10.720000       1.869213       1.111460       3.077061
      10.730000       1.888054       1.088926       3.125885
      10.740000       1.902215       1.062621       3.165625
      10.750000       1.908641       1.033357       3.194658
      10.760000       1.904994       1.002013       3.211663
      10.770000       1.890226       0.969491       3.215727
      10.780000       1.864777       0.936675       3.206423
      10.790000       1.830379       0.904401       3.183863
      10.800000       1.789570       0.873412       3.148719
      10.810000       1.745125       0.844319       3.102202
      10.820000       1.699589       0.817589       3.045958
      10.830000       1.655003       0.793532       2.981883
      10.840000       1.612808       0.772308       2.911917
      10.850000       1.573883       0.753951       2.837859
      10.860000       1.538651       0.738387       2.761258
      10.870000       1.507215       0.725465       2.683393
      10.880000       1.479504       0.714992       2.605305
      10.890000       1.455399       0.706756       2.527875
      10.900000       1.434811       0.700545       2.451910
      10.910000       1.417728       0.696151       2.378212
      10.920000       1.404194       0.693374       2.307592
      10.930000       1.394272       0.692010       2.240824
      10.940000       1.387991       0.691838       2.178534
      10.950000       1.385294       0.692616       2.121079
      10.960000       1.386003       0.694084       2.068474
      10.970000       1.389787       0.695988       2.020399
      10.980000       1.396134       0.698111       1.976299
      10.990000       1.404349       0.700303       1.935534
      11.000000       1.413577       0.702497       1.897553
      11.010000       1.422867       0.704700       1.862016
      11.020000       1.431276       0.706965       1.828856
      11.030000       1.437991       0.709354       1.798237
      11.040000       1.442431       0.711886       1.770445
      11.050000       1.444308       0.714507       1.745730
      11.060000       1.443619       0.717075       1.724172
      11.070000       1.440605       0.719389       1.705594
      11.080000       1.435674       0.721226       1.689567
      11.090000       1.429326       0.722387       1.675473
      11.100000       1.422084       0.722727       1.662595
      11.110000       1.414425       0.722184       1.650203
      11.120000       1.406731       0.720791       1.637616
      11.130000       1.399249       0.718686       1.624251
      11.140000       1.392080       0.716108       1.609680
      11.150000       1.385179       0.713365       1.593684
      11.160000       1.378376       0.710775       1.576301
      11.170000       1.371398       0.708597       1.557823
      11.180000       1.363891       0.706972       1.538737
      11.190000       1.355462       0.705893       1.519616
      11.200000       1.345759       0.705213       1.501005
      11.210000       1.334575       0.704685       1.483337
      11.220000       1.321944       0.704024       1.466908
      11.230000       1.308184       0.702965       1.451904
      11.240000       1.293844       0.701328       1.438443
      11.250000       1.279593       0.699065       1.426605
      11.260000       1.266094       0.696294       1.416403
      11.270000       1.253907       0.693302       1.407726
      11.280000       1.243441       0.690505       1.400280
      11.290000       1.234941       0.688362       1.393594
      11.300000       1.228482       0.687273       1.387108
      11.310000       1.223976       0.687481       1.380315
      11.320000       1.221166       0.689010       1.372889
      11.330000       1.219639       0.691664       1.364729
      11.340000       1.218858       0.695079       1.355896
      11.350000       1.218219       0.698820       1.346494
      11.360000       1.217131       0.702484       1.336566
      11.370000       1.215091       0.705789       1.326053
      11.380000       1.211730       0.708605       1.314837
      11.390000       1.206843       0.710936       1.302805
      11.400000       1.200396       0.712854       1.289918
      11.410000       1.192524       0.714430       1.276228
      11.420000       1.183514       0.715683       1.261866
      11.430000       1.173779       0.716550       1.246978
      11.440000       1.163827       0.716883       1.231650
      11.450000       1.154237       0.716477       1.215846
      11.460000       1.145648       0.715103       1.199378
      11.470000       1.138749       0.712564       1.181957
      11.480000       1.134259       0.708736       1.163293
      11.490000       1.132880       0.703593       1.143229
      11.500000       1.135234       0.697215       1.121838
      11.510000       1.141787       0.689781       1.099439
      11.520000       1.152792       0.681572       1.076544
      11.530000       1.168260       0.672959       1.053739
      11.540000       1.187956       0.664363       1.031567
      11.550000       1.211435       0.656200       1.010433
      11.560000       1.238074       0.648802       0.990543
      11.570000       1.267100       0.642354       0.971899
      11.580000       1.297585       0.636879       0.954321
      11.590000       1.328430       0.632261       0.937501
      11.600000       1.358311       0.628318       0.921084
      11.610000       1.385649       0.624867       0.904740
      11.620000       1.408614       0.621785       0.888227
      11.630000       1.425245       0.619019       0.871417
      11.640000       1.433707       0.616552       0.854290
      11.650000       1.432632       0.614347       0.836899
      11.660000       1.421452       0.612292       0.819351
      11.670000       1.400555       0.610177       0.801800
      11.680000       1.371217       0.607720       0.784453
      11.690000       1.335333       0.604621       0.767585
      11.700000       1.295072       0.600633       0.751518
      11.710000       1.252568       0.595625       0.736585
      11.720000       1.209725       0.589616       0.723075
      11.730000       1.168128       0.582776       0.711185
      11.740000       1.129031       0.575406       0.700992
      11.750000       1.093388       0.567896       0.692458
      11.760000       1.061886       0.560675       0.685447
      11.770000       1.034968       0.554162       0.679753
      11.780000       1.012847       0.548718       0.675120
      11.790000       0.995495       0.544594       0.671245
      11.800000       0.982637       0.541909       0.667788
      11.810000       0.973742       0.540639       0.664392
      11.820000       0.968047       0.540639       0.660717
      11.830000       0.964617       0.541683       0.656492
      11.840000       0.962455       0.543512       0.651570
      11.850000       0.960641       0.545882       0.645969
      11.860000       0.958477       0.548594       0.639877
      11.870000       0.955576       0.551508       0.633625
      11.880000       0.951874       0.554532       0.627615
      11.890000       0.947541       0.557609       0.622235
      11.900000       0.942848       0.560703       0.617779
      11.910000       0.938026       0.563800       0.614397
      11.920000       0.933182       0.566918       0.612091
      11.930000       0.928287       0.570110       0.610744
      11.940000       0.923233       0.573460       0.610183
      11.950000       0.917929       0.577047       0.610224
      11.960000       0.912379       0.580892       0.610702
      11.970000       0.906716       0.584909       0.611466
      11.980000       0.901191       0.588878       0.612360
      11.990000       0.896115       0.592460       0.613201
      12.000000       0.891804       0.595264       0.613775
      12.010000       0.888546       0.596935       0.613834
      12.020000       0.886587       0.597244       0.613117
      12.030000       0.886140       0.596133       0.611372
      12.040000       0.887387       0.593705       0.608391
      12.050000       0.890474       0.590180       0.604059
      12.060000       0.895503       0.585837       0.598400
      12.070000       0.902532       0.580971       0.591609
      12.080000       0.911594       0.575872       0.584054
      12.090000       0.922732       0.570820       0.576237
      12.100000       0.936030       0.566086       0.568735
      12.110000       0.951619       0.561924       0.562122
      12.120000       0.969638       0.558557       0.556901
      12.130000       0.990175       0.556150       0.553453
      12.140000       1.013168       0.554806       0.552009
      12.150000       1.038329       0.554551       0.552626
      12.160000       1.065072       0.555338       0.555183
      12.170000       1.092485       0.557040       0.559389
      12.180000       1.119343       0.559427       0.564812
      12.190000       1.144164       0.562163       0.570927
      12.200000       1.165317       0.564812       0.577190
      12.210000       1.181184       0.566883       0.583107
      12.220000       1.190377       0.567899       0.588285
      12.230000       1.191984       0.567468       0.592460
      12.240000       1.185789       0.565332       0.595487
      12.250000       1.172372       0.561384       0.597312
      12.260000       1.153008       0.555656       0.597939
      12.270000       1.129397       0.548280       0.597409
      12.280000       1.103302       0.539454       0.595780
      12.290000       1.076227       0.529404       0.593126
      12.300000       1.049234       0.518379       0.589532
      12.310000       1.022916       0.506652       0.585097
      12.320000       0.997508       0.494545       0.579947
      12.330000       0.973061       0.482430       0.574248
      12.340000       0.949600       0.470723       0.568224
      12.350000       0.927209       0.459844       0.562154
      12.360000       0.906015       0.450173       0.556358
      12.370000       0.886118       0.442004       0.551147
      12.380000       0.867509       0.435529       0.546780
      12.390000       0.850039       0.430832       0.543407
      12.400000       0.833458       0.427900       0.541057
      12.410000       0.817489       0.426639       0.539638
      12.420000       0.801919       0.426884       0.538964
      12.430000       0.786641       0.428412       0.538787
      12.440000       0.771656       0.430954       0.538825
      12.450000       0.757031       0.434214       0.538790
      12.460000       0.742850       0.437898       0.538400
      12.470000       0.729184       0.441750       0.537405
      12.480000       0.716077       0.445583       0.535605
      12.490000       0.703558       0.449299       0.532870
      12.500000       0.691657       0.452888       0.529159
      12.510000       0.680405       0.456405       0.524522
      12.520000       0.669842       0.459936       0.519097
      12.530000       0.660023       0.463563       0.513093
      12.540000       0.651017       0.467333       0.506777
      12.550000       0.642923       0.471241       0.500456
      12.560000       0.635856       0.475225       0.494451
      12.570000       0.629931       0.479174       0.489070
      12.580000       0.625227       0.482955       0.484570
      12.590000       0.621759       0.486429       0.481111
      12.600000       0.619472       0.489480       0.478721
      12.610000       0.618263       0.492031       0.477261
      12.620000       0.618026       0.494054       0.476435
      12.630000       0.618697       0.495574       0.475815
      12.640000       0.620275       0.496682       0.474909
      12.650000       0.622819       0.497532       0.473248
      12.660000       0.626416       0.498337       0.470479
      12.670000       0.631140       0.499341       0.466426
      12.680000       0.637009       0.500782       0.461104
      12.690000       0.643959       0.502850       0.454697
      12.700000       0.651833       0.505663       0.447489
      12.710000       0.660391       0.509246       0.439805
      12.720000       0.669338       0.513541       0.431949
      12.730000       0.678365       0.518413       0.424168
      12.740000       0.687201       0.523668       0.416626
      12.750000       0.695678       0.529056       0.409400
      12.760000       0.703773       0.534281       0.402490
      12.770000       0.711631       0.539004       0.395855
      12.780000       0.719535       0.542877       0.389454
      12.790000       0.727841       0.545585       0.383286
      12.800000       0.736882       0.546909       0.377415
      12.810000       0.746886       0.546787       0.371966
      12.820000       0.757909       0.545335       0.367102
      12.830000       0.769801       0.542835       0.362988
      12.840000       0.782203       0.539689       0.359751
      12.850000       0.794560       0.536351       0.357458
      12.860000       0.806147       0.533253       0.356097
      12.870000       0.816113       0.530742       0.355584
      12.880000       0.823537       0.529026       0.355784
      12.890000       0.827526       0.528148       0.356532
      12.900000       0.827341       0.527998       0.357659
      12.910000       0.822551       0.528345       0.359012
      12.920000       0.813138       0.528899       0.360459
      12.930000       0.799535       0.529366       0.361886
      12.940000       0.782542       0.529500       0.363182
      12.950000       0.763164       0.529134       0.364226
      12.960000       0.742447       0.528198       0.364877
      12.970000       0.721343       0.526724       0.364983
      12.980000       0.700655       0.524829       0.364398
      12.990000       0.681027       0.522698       0.363017
      13.000000       0.662948       0.520545       0.360808
      13.010000       0.646769       0.518586       0.357829
      13.020000       0.632700       0.517002       0.354225
      13.030000       0.620829       0.515902       0.350208
      13.040000       0.611143       0.515300       0.346016
      13.050000       0.603561       0.515111       0.341868
      13.060000       0.597973       0.515159       0.337930
      13.070000       0.594266       0.515213       0.334294
      13.080000       0.592324       0.515041       0.330976
      13.090000       0.592013       0.514457       0.327926
      13.100000       0.593142       0.513372       0.325061
      13.110000       0.595432       0.511822       0.322281
      13.120000       0.598497       0.509970       0.319496
      13.130000       0.601851       0.508076       0.316630
      13.140000       0.604944       0.506449       0.313626
      13.150000       0.607214       0.505368       0.310445
      13.160000       0.608148       0.505030       0.307056
      13.170000       0.607357       0.505509       0.303443
      13.180000       0.604643       0.506766       0.299603
      13.190000       0.600039       0.508682       0.295544
      13.200000       0.593816       0.511109       0.291285
      13.210000       0.586427       0.513925       0.286862
      13.220000       0.578402       0.517054       0.282323
      13.230000       0.570238       0.520477       0.277735
      13.240000       0.562308       0.524210       0.273169
      13.250000       0.554819       0.528269       0.268705
      13.260000       0.547823       0.532638       0.264419
      13.270000       0.541260       0.537248       0.260386
      13.280000       0.535020       0.541974       0.256675
      13.290000       0.528999       0.546655       0.253349
      13.300000       0.523123       0.551115       0.250464
      13.310000       0.517361       0.555196       0.248070
      13.320000       0.511708       0.558768       0.246204
      13.330000       0.506190       0.561727       0.244892
      13.340000       0.500865       0.563987       0.244143
      13.350000       0.495854       0.565461       0.243957
      13.360000       0.491349       0.566053       0.244322
      13.370000       0.487612       0.565660       0.245221
      13.380000       0.484941       0.564193       0.246629
      13.390000       0.483633       0.561606       0.248508
      13.400000       0.483930       0.557933       0.250809
      13.410000       0.485994       0.553303       0.253462
      13.420000       0.489869       0.547939       0.256384
      13.430000       0.495473       0.542131       0.259482
      13.440000       0.502592       0.536200       0.262650
      13.450000       0.510900       0.530463       0.265773
      13.460000       0.519996       0.525213       0.268722
      13.470000       0.529473       0.520710       0.271356
      13.480000       0.538977       0.517174       0.273532
      13.490000       0.548255       0.514780       0.275117
      13.500000       0.557171       0.513646       0.276004
      13.510000       0.565668       0.513825       0.276126
      13.520000       0.573710       0.515286       0.275474
      13.530000       0.581230       0.517909       0.274096
      13.540000       0.588097       0.521483       0.272100
      13.550000       0.594125       0.525719       0.269642
      13.560000       0.599092       0.530288       0.266912
      13.570000       0.602756       0.534865       0.264110
      13.580000       0.604868       0.539178       0.261431
      13.590000       0.605182       0.543022       0.259046
      13.600000       0.603469       0.546274       0.257095
      13.610000       0.599543       0.548865       0.255670
      13.620000       0.593311       0.550770       0.254826
      13.630000       0.584820       0.551987       0.254572
      13.640000       0.574302       0.552531       0.254892
      13.650000       0.562172       0.552429       0.255746
      13.660000       0.548993       0.551725       0.257087
      13.670000       0.535390       0.550484       0.258865
      13.680000       0.521945       0.548807       0.261037
      13.690000       0.509112       0.546841       0.263567
      13.700000       0.497159       0.544770       0.266429
      13.710000       0.486178       0.542802       0.269605
      13.720000       0.476115       0.541141       0.273090
      13.730000       0.466848       0.539964       0.276890
      13.740000       0.458255       0.539398       0.281026
      13.750000       0.450270       0.539510       0.285536
      13.760000       0.442901       0.540308       0.290478
      13.770000       0.436214       0.541748       0.295927
      13.780000       0.430298       0.543743       0.301963
      13.790000       0.425232       0.546175       0.308667
      13.800000       0.421063       0.548905       0.316107
      13.810000       0.417798       0.551779       0.324338
      13.820000       0.415421       0.554645       0.333388
      13.830000       0.413899       0.557360       0.343245
      13.840000       0.413195       0.559808       0.353849
      13.850000       0.413255       0.561905       0.365070
      13.860000       0.414000       0.563605       0.376699
      13.870000       0.415308       0.564896       0.388453
      13.880000       0.417017       0.565790       0.399988
      13.890000       0.418936       0.566309       0.410928
      13.900000       0.420879       0.566475       0.420896
      13.910000       0.422698       0.566295       0.429548
      13.920000       0.424316       0.565762       0.436599
      13.930000       0.425738       0.564857       0.441855
      13.940000       0.427043       0.563554       0.445243
      13.950000       0.428364       0.561831       0.446836
      13.960000       0.429864       0.559676       0.446841
      13.970000       0.431717       0.557098       0.445567
      13.980000       0.434095       0.554133       0.443365
      13.990000       0.437162       0.550855       0.440580
      14.000000       0.441059       0.547375       0.437509
      14.010000       0.445891       0.543852       0.434393
      14.020000       0.451694       0.540485       0.431422
      14.030000       0.458402       0.537506       0.428746
      14.040000       0.465814       0.535154       0.426478
      14.050000       0.473577       0.533648       0.424701
      14.060000       0.481210       0.533159       0.423457
      14.070000       0.488155       0.533798       0.422745
      14.080000       0.493869       0.535612       0.422522
      14.090000       0.497929       0.538596       0.422711
      14.100000       0.500124       0.542709       0.423213
      14.110000       0.500490       0.547882       0.423925
      14.120000       0.499292       0.554024       0.424753
      14.130000       0.496933       0.561008       0.425623
      14.140000       0.493850       0.568650       0.426483
      14.150000       0.490414       0.576675       0.427296
      14.160000       0.486875       0.584683       0.428029
      14.170000       0.483363       0.592140       0.428626
      14.180000       0.479920       0.598399       0.428991
      14.190000       0.476553       0.602768       0.428964
      14.200000       0.473280       0.604612       0.428326
      14.210000       0.470149       0.603469       0.426807
      14.220000       0.467242       0.599138       0.424125
      14.230000       0.464653       0.591735       0.420026
      14.240000       0.462461       0.581671       0.414330
      14.250000       0.460713       0.569580       0.406977
      14.260000       0.459412       0.556209       0.398053
      14.270000       0.458518       0.542302       0.387795
      14.280000       0.457957       0.528520       0.376569
      14.290000       0.457625       0.515389       0.364811
      14.300000       0.457390       0.503286       0.352966
      14.310000       0.457088       0.492438       0.341430
      14.320000       0.456505       0.482946       0.330509
      14.330000       0.455377       0.474806       0.320401
      14.340000       0.453409       0.467937       0.311206
      14.350000       0.450320       0.462213       0.302939
      14.360000       0.445894       0.457493       0.295557
      14.370000       0.440031       0.453635       0.288979
      14.380000       0.432761       0.450514       0.283108
      14.390000       0.424243       0.448025       0.277839
      14.400000       0.414744       0.446081       0.273073
      14.410000       0.404609       0.444619       0.268714
      14.420000       0.394236       0.443597       0.264673
      14.430000       0.384031       0.443001       0.260866
      14.440000       0.374376       0.442843       0.257223
      14.450000       0.365585       0.443153       0.253697
      14.460000       0.357888       0.443962       0.250265
      14.470000       0.351419       0.445277       0.246937
      14.480000       0.346222       0.447054       0.243751
      14.490000       0.342271       0.449187       0.240761
      14.500000       0.339484       0.451493       0.238023
      14.510000       0.337752       0.453725       0.235591
      14.520000       0.336949       0.455589       0.233498
      14.530000       0.336956       0.456780       0.231766
      14.540000       0.337667       0.457029       0.230397
      14.550000       0.339003       0.456156       0.229385
      14.560000       0.340910       0.454110       0.228715
      14.570000       0.343357       0.450973       0.228368
      14.580000       0.346328       0.446940       0.228321
      14.590000       0.349801       0.442272       0.228544
      14.600000       0.353720       0.437245       0.229013
      14.610000       0.357975       0.432109       0.229709
      14.620000       0.362378       0.427069       0.230630
      14.630000       0.366671       0.422280       0.231799
      14.640000       0.370547       0.417854       0.233260
      14.650000       0.373696       0.413868       0.235073
      14.660000       0.375851       0.410379       0.237300
      14.670000       0.376834       0.407433       0.239989
      14.680000       0.376587       0.405077       0.243154
      14.690000       0.375198       0.403365       0.246765
      14.700000       0.372896       0.402345       0.250731
      14.710000       0.370017       0.402044       0.254912
      14.720000       0.366949       0.402445       0.259121
      14.730000       0.364064       0.403479       0.263145
      14.740000       0.361662       0.405015       0.266774
      14.750000       0.359941       0.406881       0.269824
      14.760000       0.358990       0.408873       0.272170
      14.770000       0.358808       0.410771       0.273759
      14.780000       0.359332       0.412346       0.274617
      14.790000       0.360471       0.413375       0.274840
      14.800000       0.362130       0.413640       0.274577
      14.810000       0.364219       0.412941       0.274007
      14.820000       0.366652       0.411112       0.273322
      14.830000       0.369336       0.408040       0.272705
      14.840000       0.372163       0.403697       0.272319
      14.850000       0.375011       0.398161       0.272295
      14.860000       0.377761       0.391613       0.272723
      14.870000       0.380319       0.384317       0.273657
      14.880000       0.382634       0.376575       0.275116
      14.890000       0.384720       0.368682       0.277101
      14.900000       0.386650       0.360891       0.279610
      14.910000       0.388536       0.353396       0.282642
      14.920000       0.390495       0.346320       0.286212
      14.930000       0.392605       0.339725       0.290349
      14.940000       0.394869       0.333609       0.295094
      14.950000       0.397208       0.327927       0.300503
      14.960000       0.399472       0.322607       0.306632
      14.970000       0.401493       0.317578       0.313540
      14.980000       0.403125       0.312793       0.321277
      14.990000       0.404283       0.308252       0.329881
      15.000000       0.404959       0.303996       0.339374
      15.010000       0.405199       0.300094       0.349768
      15.020000       0.405093       0.296622       0.361055
      15.030000       0.404739       0.293633       0.373213
      15.040000       0.404238       0.291140       0.386200
      15.050000       0.403689       0.289111       0.399955
      15.060000       0.403177       0.287466       0.414395
      15.070000       0.402775       0.286098       0.429427
      15.080000       0.402531       0.284882       0.444951
      15.090000       0.402452       0.283699       0.460877
      15.100000       0.402504       0.282453       0.477130
      15.110000       0.402610       0.281075       0.493653
      15.120000       0.402659       0.279529       0.510396
      15.130000       0.402517       0.277804       0.527295
      15.140000       0.402037       0.275908       0.544239
      15.150000       0.401080       0.273852       0.561037
      15.160000       0.399535       0.271649       0.577404
      15.170000       0.397349       0.269308       0.592975
      15.180000       0.394544       0.266840       0.607337
      15.190000       0.391213       0.264260       0.620092
      15.200000       0.387496       0.261603       0.630921
      15.210000       0.383557       0.258922       0.639635
      15.220000       0.379557       0.256297       0.646200
      15.230000       0.375645       0.253827       0.650731
      15.240000       0.371950       0.251609       0.653464
      15.250000       0.368568       0.249719       0.654707
      15.260000       0.365543       0.248193       0.654794
      15.270000       0.362842       0.247011       0.654049
      15.280000       0.360344       0.246100       0.652747
      15.290000       0.357844       0.245347       0.651092
      15.300000       0.355086       0.244624       0.649203
      15.310000       0.351816       0.243819       0.647111
      15.320000       0.347853       0.242863       0.644783
      15.330000       0.343146       0.241740       0.642153
      15.340000       0.337802       0.240481       0.639160
      15.350000       0.332067       0.239150       0.635772
      15.360000       0.326280       0.237821       0.631993
      15.370000       0.320798       0.236560       0.627841
      15.380000       0.315937       0.235424       0.623323
      15.390000       0.311920       0.234454       0.618404
      15.400000       0.308860       0.233681       0.613004
      15.410000       0.306756       0.233128       0.607019
      15.420000       0.305516       0.232806       0.600347
      15.430000       0.304985       0.232719       0.592935
      15.440000       0.304978       0.232857       0.584800
      15.450000       0.305307       0.233202       0.576035
      15.460000       0.305804       0.233718       0.566790
      15.470000       0.306342       0.234361       0.557242
      15.480000       0.306843       0.235077       0.547563
      15.490000       0.307287       0.235813       0.537905
      15.500000       0.307705       0.236517       0.528381
      15.510000       0.308175       0.237138       0.519069
      15.520000       0.308805       0.237629       0.510006
      15.530000       0.309714       0.237940       0.501194
      15.540000       0.311011       0.238021       0.492611
      15.550000       0.312769       0.237826       0.484218
      15.560000       0.315008       0.237319       0.475981
      15.570000       0.317687       0.236478       0.467882
      15.580000       0.320705       0.235300       0.459937
      15.590000       0.323924       0.233802       0.452195
      15.600000       0.327187       0.232023       0.444731
      15.610000       0.330355       0.230022       0.437632
      15.620000       0.333331       0.227874       0.430965
      15.630000       0.336076       0.225661       0.424754
      15.640000       0.338603       0.223460       0.418955
      15.650000       0.340968       0.221336       0.413450
      15.660000       0.343241       0.219334       0.408058
      15.670000       0.345495       0.217475       0.402569
      15.680000       0.347788       0.215759       0.396786
      15.690000       0.350155       0.214177       0.390557
      15.700000       0.352600       0.212717       0.383794
      15.710000       0.355095       0.211382       0.376470
      15.720000       0.357586       0.210186       0.368598
      15.730000       0.359995       0.209155       0.360222
      15.740000       0.362232       0.208309       0.351420
      15.750000       0.364195       0.207642       0.342306
      15.760000       0.365784       0.207112       0.333036
      15.770000       0.366910       0.206643       0.323793
      15.780000       0.367513       0.206136       0.314762
      15.790000       0.367568       0.205494       0.306093
      15.800000       0.367098       0.204644       0.297877
      15.810000       0.366161       0.203550       0.290143
      15.820000       0.364834       0.202214       0.282857
      15.830000       0.363191       0.200669       0.275948
      15.840000       0.361276       0.198963       0.269329
      15.850000       0.359097       0.197141       0.262918
      15.860000       0.356628       0.195244       0.256657
      15.870000       0.353844       0.193303       0.250515
      15.880000       0.350741       0.191348       0.244483
      15.890000       0.347361       0.189415       0.238565
      15.900000       0.343786       0.187549       0.232762
      15.910000       0.340109       0.185800       0.227072
      15.920000       0.336411       0.184215       0.221491
      15.930000       0.332737       0.182823       0.216019
      15.940000       0.329102       0.181631       0.210666
      15.950000       0.325507       0.180620       0.205455
      15.960000       0.321957       0.179749       0.200416
      15.970000       0.318489       0.178967       0.195585
      15.980000       0.315182       0.178225       0.190995
      15.990000       0.312147       0.177488       0.186677
      16.000000       0.309514       0.176735       0.182652
      16.010000       0.307402       0.175968       0.178930
      16.020000       0.305893       0.175204       0.175511
      16.030000       0.305019       0.174467       0.172374
      16.040000       0.304758       0.173785       0.169481
      16.050000       0.305038       0.173184       0.166785
      16.060000       0.305748       0.172682       0.164232
      16.070000       0.306754       0.172294       0.161774
      16.080000       0.307902       0.172027       0.159377
      16.090000       0.309032       0.171883       0.157024
      16.100000       0.309997       0.171857       0.154712
      16.110000       0.310685       0.171935       0.152449
      16.120000       0.311050       0.172100       0.150256
      16.130000       0.311117       0.172322       0.148159
      16.140000       0.310977       0.172572       0.146193
      16.150000       0.310751       0.172820       0.144394
      16.160000       0.310553       0.173042       0.142803
      16.170000       0.310444       0.173219       0.141461
      16.180000       0.310404       0.173331       0.140407
      16.190000       0.310326       0.173359       0.139677
      16.200000       0.310030       0.173282       0.139298
      16.210000       0.309299       0.173084       0.139295
      16.220000       0.307916       0.172764       0.139679
      16.230000       0.305715       0.172329       0.140450
      16.240000       0.302603       0.171801       0.141595
      16.250000       0.298585       0.171206       0.143086
      16.260000       0.293762       0.170564       0.144882
      16.270000       0.288324       0.169890       0.146932
      16.280000       0.282526       0.169191       0.149175
      16.290000       0.276658       0.168474       0.151541
      16.300000       0.271010       0.167751       0.153952
      16.310000       0.265843       0.167042       0.156323
      16.320000       0.261366       0.166369       0.158565
      16.330000       0.257727       0.165754       0.160586
      16.340000       0.255019       0.165209       0.162297
      16.350000       0.253281       0.164733       0.163610
      16.360000       0.252514       0.164312       0.164447
      16.370000       0.252685       0.163929       0.164751
      16.380000       0.253734       0.163568       0.164495
      16.390000       0.255581       0.163227       0.163689
      16.400000       0.258133       0.162918       0.162380
      16.410000       0.261290       0.162670       0.160647
      16.420000       0.264952       0.162519       0.158584
      16.430000       0.269028       0.162500       0.156294
      16.440000       0.273433       0.162634       0.153877
      16.450000       0.278086       0.162921       0.151426
      16.460000       0.282904       0.163339       0.149022
      16.470000       0.287803       0.163851       0.146734
      16.480000       0.292700       0.164416       0.144612
      16.490000       0.297523       0.164999       0.142690
      16.500000       0.302216       0.165581       0.140989
      16.510000       0.306725       0.166150       0.139518
      16.520000       0.310984       0.166703       0.138278
      16.530000       0.314892       0.167229       0.137268
      16.540000       0.318313       0.167706       0.136484
      16.550000       0.321083       0.168104       0.135920
      16.560000       0.323025       0.168393       0.135564
      16.570000       0.323975       0.168547       0.135396
      16.580000       0.323798       0.168555       0.135393
      16.590000       0.322411       0.168417       0.135524
      16.600000       0.319795       0.168137       0.135753
      16.610000       0.315999       0.167727       0.136042
      16.620000       0.311131       0.167197       0.136347
      16.630000       0.305342       0.166559       0.136625
      16.640000       0.298810       0.165829       0.136828
      16.650000       0.291733       0.165025       0.136915
      16.660000       0.284317       0.164170       0.136844
      16.670000       0.276767       0.163289       0.136584
      16.680000       0.269273       0.162410       0.136114
      16.690000       0.261997       0.161566       0.135431
      16.700000       0.255057       0.160795       0.134546
      16.710000       0.248532       0.160128       0.133490
      16.720000       0.242461       0.159590       0.132301
      16.730000       0.236848       0.159192       0.131029
      16.740000       0.231665       0.158929       0.129721
      16.750000       0.226858       0.158783       0.128423
      16.760000       0.222360       0.158726       0.127171
      16.770000       0.218096       0.158725       0.125989
      16.780000       0.213999       0.158748       0.124890
      16.790000       0.210016       0.158760       0.123882
      16.800000       0.206111       0.158726       0.122974
      16.810000       0.202267       0.158611       0.122187
      16.820000       0.198485       0.158381       0.121546
      16.830000       0.194785       0.158011       0.121079
      16.840000       0.191203       0.157485       0.120808
      16.850000       0.187790       0.156807       0.120739
      16.860000       0.184602       0.155990       0.120857
      16.870000       0.181694       0.155063       0.121134
      16.880000       0.179120       0.154057       0.121531
      16.890000       0.176923       0.153008       0.122004
      16.900000       0.175142       0.151957       0.122514
      16.910000       0.173805       0.150947       0.123024
      16.920000       0.172935       0.150020       0.123508
      16.930000       0.172547       0.149216       0.123947
      16.940000       0.172643       0.148567       0.124330
      16.950000       0.173212       0.148098       0.124654
      16.960000       0.174227       0.147822       0.124918
      16.970000       0.175635       0.147735       0.125120
      16.980000       0.177361       0.147819       0.125256
      16.990000       0.179310       0.148043       0.125315
      17.000000       0.181376       0.148368       0.125284
      17.010000       0.183451       0.148761       0.125148
      17.020000       0.185436       0.149195       0.124896
      17.030000       0.187258       0.149658       0.124527
      17.040000       0.188872       0.150144       0.124045
      17.050000       0.190278       0.150648       0.123458
      17.060000       0.191511       0.151166       0.122772
      17.070000       0.192646       0.151687       0.121994
      17.080000       0.193773       0.152197       0.121120
      17.090000       0.194989       0.152678       0.120149
      17.100000       0.196381       0.153105       0.119074
      17.110000       0.198019       0.153447       0.117899
      17.120000       0.199963       0.153666       0.116638
      17.130000       0.202264       0.153724       0.115319
      17.140000       0.204963       0.153587       0.113985
      17.150000       0.208084       0.153234       0.112684
      17.160000       0.211621       0.152664       0.111467
      17.170000       0.215525       0.151892       0.110377
      17.180000       0.219695       0.150952       0.109444
      17.190000       0.223975       0.149890       0.108683
      17.200000       0.228161       0.148757       0.108098
      17.210000       0.232017       0.147605       0.107677
      17.220000       0.235298       0.146478       0.107403
      17.230000       0.237772       0.145411       0.107256
      17.240000       0.239253       0.144428       0.107207
      17.250000       0.239619       0.143539       0.107228
      17.260000       0.238832       0.142746       0.107285
      17.270000       0.236945       0.142041       0.107345
      17.280000       0.234090       0.141407       0.107377
      17.290000       0.230466       0.140824       0.107354
      17.300000       0.226311       0.140270       0.107256
      17.310000       0.221879       0.139728       0.107067
      17.320000       0.217418       0.139184       0.106782
      17.330000       0.213144       0.138633       0.106401
      17.340000       0.209226       0.138075       0.105929
      17.350000       0.205760       0.137513       0.105382
      17.360000       0.202763       0.136948       0.104778
      17.370000       0.200177       0.136378       0.104142
      17.380000       0.197879       0.135797       0.103500
      17.390000       0.195710       0.135194       0.102879
      17.400000       0.193505       0.134558       0.102305
      17.410000       0.191122       0.133878       0.101795
      17.420000       0.188458       0.133148       0.101361
      17.430000       0.185456       0.132369       0.101006
      17.440000       0.182100       0.131549       0.100727
      17.450000       0.178415       0.130704       0.100513
      17.460000       0.174458       0.129852       0.100349
      17.470000       0.170321       0.129018       0.100214
      17.480000       0.166119       0.128221       0.100088
      17.490000       0.161981       0.127480       0.099950
      17.500000       0.158023       0.126803       0.099784
      17.510000       0.154341       0.126196       0.099586
      17.520000       0.150988       0.125658       0.099356
      17.530000       0.147983       0.125190       0.099105
      17.540000       0.145314       0.124790       0.098845
      17.550000       0.142952       0.124456       0.098588
      17.560000       0.140861       0.124182       0.098337
      17.570000       0.139013       0.123954       0.098089
      17.580000       0.137391       0.123753       0.097834
      17.590000       0.135991       0.123554       0.097559
      17.600000       0.134824       0.123330       0.097255
      17.610000       0.133908       0.123057       0.096919
      17.620000       0.133265       0.122722       0.096559
      17.630000       0.132910       0.122319       0.096196
      17.640000       0.132852       0.121854       0.095859
      17.650000       0.133081       0.121341       0.095579
      17.660000       0.133571       0.120797       0.095381
      17.670000       0.134279       0.120242       0.095282
      17.680000       0.135147       0.119696       0.095288
      17.690000       0.136107       0.119176       0.095391
      17.700000       0.137091       0.118700       0.095579
      17.710000       0.138033       0.118282       0.095837
      17.720000       0.138874       0.117931       0.096149
      17.730000       0.139574       0.117652       0.096505
      17.740000       0.140108       0.117449       0.096892
      17.750000       0.140474       0.117325       0.097300
      17.760000       0.140691       0.117285       0.097714
      17.770000       0.140797       0.117341       0.098121
      17.780000       0.140844       0.117509       0.098509
      17.790000       0.140890       0.117799       0.098875
      17.800000       0.140992       0.118218       0.099223
      17.810000       0.141199       0.118757       0.099566
      17.820000       0.141552       0.119392       0.099923
      17.830000       0.142080       0.120092       0.100309
      17.840000       0.142800       0.120820       0.100738
      17.850000       0.143720       0.121542       0.101217
      17.860000       0.144836       0.122234       0.101754
      17.870000       0.146126       0.122881       0.102352
      17.880000       0.147546       0.123477       0.103016
      17.890000       0.149027       0.124020       0.103752
      17.900000       0.150483       0.124515       0.104561
      17.910000       0.151815       0.124966       0.105449
      17.920000       0.152931       0.125373       0.106421
      17.930000       0.153754       0.125739       0.107485
      17.940000       0.154239       0.126061       0.108653
      17.950000       0.154370       0.126337       0.109945
      17.960000       0.154156       0.126569       0.111379
      17.970000       0.153627       0.126768       0.112976
      17.980000       0.152825       0.126953       0.114745
      17.990000       0.151807       0.127145       0.116686
      18.000000       0.150640       0.127365       0.118780
      18.010000       0.149401       0.127622       0.120990
      18.020000       0.148170       0.127914       0.123265
      18.030000       0.147021       0.128224       0.125547
      18.040000       0.146019       0.128526       0.127780
      18.050000       0.145216       0.128788       0.129923
      18.060000       0.144647       0.128977       0.131958
      18.070000       0.144331       0.129062       0.133894
      18.080000       0.144277       0.129025       0.135767
      18.090000       0.144487       0.128858       0.137627
      18.100000       0.144965       0.128571       0.139529
      18.110000       0.145718       0.128187       0.141522
      18.120000       0.146767       0.127737       0.143636
      18.130000       0.148135       0.127246       0.145881
      18.140000       0.149839       0.126728       0.148243
      18.150000       0.151876       0.126182       0.150691
      18.160000       0.154196       0.125594       0.153182
      18.170000       0.156692       0.124944       0.155674
      18.180000       0.159192       0.124217       0.158135
      18.190000       0.161471       0.123404       0.160548
      18.200000       0.163274       0.122512       0.162912
      18.210000       0.164355       0.121563       0.165233
      18.220000       0.164524       0.120587       0.167518
      18.230000       0.163683       0.119619       0.169762
      18.240000       0.161839       0.118690       0.171950
      18.250000       0.159105       0.117824       0.174062
      18.260000       0.155674       0.117039       0.176089
      18.270000       0.151786       0.116349       0.178044
      18.280000       0.147691       0.115762       0.179976
      18.290000       0.143618       0.115285       0.181969
      18.300000       0.139754       0.114922       0.184136
      18.310000       0.136235       0.114670       0.186610
      18.320000       0.133148       0.114516       0.189521
      18.330000       0.130534       0.114441       0.192978
      18.340000       0.128400       0.114417       0.197049
      18.350000       0.126729       0.114414       0.201745
      18.360000       0.125487       0.114403       0.207019
      18.370000       0.124636       0.114360       0.212767
      18.380000       0.124135       0.114262       0.218849
      18.390000       0.123944       0.114089       0.225113
      18.400000       0.124024       0.113825       0.231430
      18.410000       0.124336       0.113457       0.237707
      18.420000       0.124836       0.112987       0.243902
      18.430000       0.125478       0.112426       0.250014
      18.440000       0.126215       0.111800       0.256060
      18.450000       0.126996       0.111142       0.262052
      18.460000       0.127772       0.110490       0.267984
      18.470000       0.128494       0.109879       0.273819
      18.480000       0.129116       0.109339       0.279503
      18.490000       0.129592       0.108890       0.284978
      18.500000       0.129882       0.108545       0.290196
      18.510000       0.129951       0.108309       0.295138
      18.520000       0.129770       0.108180       0.299812
      18.530000       0.129322       0.108150       0.304247
      18.540000       0.128605       0.108211       0.308483
      18.550000       0.127635       0.108355       0.312548
      18.560000       0.126450       0.108573       0.316447
      18.570000       0.125107       0.108857       0.320153
      18.580000       0.123672       0.109195       0.323608
      18.590000       0.122219       0.109568       0.326739
      18.600000       0.120818       0.109948       0.329478
      18.610000       0.119535       0.110303       0.331784
      18.620000       0.118422       0.110593       0.333658
      18.630000       0.117515       0.110784       0.335147
      18.640000       0.116832       0.110849       0.336332
      18.650000       0.116369       0.110771       0.337312
      18.660000       0.116099       0.110553       0.338179
      18.670000       0.115981       0.110208       0.339003
      18.680000       0.115962       0.109762       0.339813
      18.690000       0.115986       0.109244       0.340597
      18.700000       0.116004       0.108685       0.341306
      18.710000       0.115979       0.108111       0.341875
      18.720000       0.115893       0.107542       0.342253
      18.730000       0.115750       0.106993       0.342426
      18.740000       0.115571       0.106472       0.342418
      18.750000       0.115387       0.105983       0.342286
      18.760000       0.115235       0.105520       0.342092
      18.770000       0.115144       0.105073       0.341881
      18.780000       0.115135       0.104626       0.341669
      18.790000       0.115221       0.104161       0.341453
      18.800000       0.115400       0.103661       0.341222
      18.810000       0.115664       0.103114       0.340975
      18.820000       0.115995       0.102516       0.340728
      18.830000       0.116369       0.101869       0.340507
      18.840000       0.116759       0.101177       0.340337
      18.850000       0.117137       0.100447       0.340223
      18.860000       0.117480       0.099686       0.340149
      18.870000       0.117779       0.098903       0.340083
      18.880000       0.118037       0.098108       0.339991
      18.890000       0.118274       0.097317       0.339844
      18.900000       0.118516       0.096547       0.339627
      18.910000       0.118797       0.095814       0.339326
      18.920000       0.119149       0.095130       0.338933
      18.930000       0.119596       0.094502       0.338433
      18.940000       0.120153       0.093927       0.337813
      18.950000       0.120824       0.093395       0.337059
      18.960000       0.121605       0.092887       0.336164
      18.970000       0.122482       0.092382       0.335128
      18.980000       0.123443       0.091854       0.333956
      18.990000       0.124474       0.091281       0.332657
      19.000000       0.125557       0.090648       0.331241
      19.010000       0.126667       0.089950       0.329712
      19.020000       0.127763       0.089193       0.328078
      19.030000       0.128789       0.088392       0.326342
      19.040000       0.129669       0.087569       0.324507
      19.050000       0.130319       0.086746       0.322560
      19.060000       0.130652       0.085946       0.320469
      19.070000       0.130592       0.085186       0.318181
      19.080000       0.130079       0.084478       0.315631
      19.090000       0.129074       0.083830       0.312760
      19.100000       0.127570       0.083243       0.309543
      19.110000       0.125593       0.082715       0.306006
      19.120000       0.123210       0.082240       0.302237
      19.130000       0.120524       0.081809       0.298381
      19.140000       0.117664       0.081415       0.294615
      19.150000       0.114767       0.081050       0.291126
      19.160000       0.111967       0.080707       0.288081
      19.170000       0.109372       0.080382       0.285609
      19.180000       0.107066       0.080071       0.283796
      19.190000       0.105100       0.079771       0.282681
      19.200000       0.103497       0.079477       0.282272
      19.210000       0.102255       0.079186       0.282549
      19.220000       0.101358       0.078896       0.283471
      19.230000       0.100773       0.078608       0.284967
      19.240000       0.100464       0.078330       0.286927
      19.250000       0.100385       0.078073       0.289196
      19.260000       0.100490       0.077851       0.291574
      19.270000       0.100731       0.077678       0.293832
      19.280000       0.101060       0.077567       0.295741
      19.290000       0.101438       0.077522       0.297097
      19.300000       0.101837       0.077542       0.297757
      19.310000       0.102237       0.077617       0.297651
      19.320000       0.102634       0.077734       0.296786
      19.330000       0.103033       0.077874       0.295234
      19.340000       0.103443       0.078020       0.293107
      19.350000       0.103880       0.078160       0.290542
      19.360000       0.104354       0.078284       0.287676
      19.370000       0.104870       0.078388       0.284636
      19.380000       0.105421       0.078473       0.281531
      19.390000       0.105983       0.078539       0.278446
      19.400000       0.106522       0.078589       0.275448
      19.410000       0.106994       0.078623       0.272588
      19.420000       0.107351       0.078645       0.269906
      19.430000       0.107556       0.078655       0.267435
      19.440000       0.107587       0.078658       0.265207
      19.450000       0.107443       0.078659       0.263245
      19.460000       0.107148       0.078668       0.261565
      19.470000       0.106746       0.078692       0.260170
      19.480000       0.106293       0.078743       0.259047
      19.490000       0.105852       0.078826       0.258166
      19.500000       0.105473       0.078946       0.257497
      19.510000       0.105196       0.079106       0.257014
      19.520000       0.105041       0.079307       0.256701
      19.530000       0.105007       0.079548       0.256559
      19.540000       0.105082       0.079827       0.256589
      19.550000       0.105239       0.080135       0.256791
      19.560000       0.105447       0.080462       0.257155
      19.570000       0.105673       0.080789       0.257656
      19.580000       0.105887       0.081099       0.258261
      19.590000       0.106063       0.081377       0.258928
      19.600000       0.106183       0.081612       0.259613
      19.610000       0.106240       0.081802       0.260283
      19.620000       0.106234       0.081954       0.260917
      19.630000       0.106175       0.082079       0.261509
      19.640000       0.106078       0.082192       0.262069
      19.650000       0.105951       0.082306       0.262609
      19.660000       0.105801       0.082432       0.263140
      19.670000       0.105623       0.082570       0.263660
      19.680000       0.105402       0.082721       0.264157
      19.690000       0.105116       0.082879       0.264608
      19.700000       0.104736       0.083038       0.264988
      19.710000       0.104231       0.083193       0.265270
      19.720000       0.103569       0.083342       0.265434
      19.730000       0.102726       0.083485       0.265475
      19.740000       0.101689       0.083621       0.265406
      19.750000       0.100464       0.083755       0.265264
      19.760000       0.099078       0.083894       0.265095
      19.770000       0.097575       0.084043       0.264945
      19.780000       0.096015       0.084210       0.264848
      19.790000       0.094464       0.084400       0.264812
      19.800000       0.092988       0.084614       0.264823
      19.810000       0.091645       0.084852       0.264850
      19.820000       0.090483       0.085110       0.264853
      19.830000       0.089533       0.085383       0.264796
      19.840000       0.088811       0.085666       0.264645
      19.850000       0.088315       0.085948       0.264377
      19.860000       0.088032       0.086216       0.263984
      19.870000       0.087935       0.086455       0.263478
      19.880000       0.087992       0.086652       0.262886
      19.890000       0.088164       0.086797       0.262253
      19.900000       0.088411       0.086888       0.261624
      19.910000       0.088694       0.086928       0.261042
      19.920000       0.088974       0.086922       0.260536
      19.930000       0.089220       0.086874       0.260130
      19.940000       0.089402       0.086783       0.259837
      19.950000       0.089502       0.086647       0.259665
      19.960000       0.089510       0.086462       0.259610
      19.970000       0.089430       0.086229       0.259656
      19.980000       0.089274       0.085949       0.259776
      19.990000       0.089063       0.085631       0.259929
      20.000000       0.088820       0.085287       0.260076
