  # energy grid [eV]     epsr_x  epsr_y  epsr_z
       0.000000            NaN            NaN            NaN
       0.010000 -199296.773025 -117349.372230       2.123296
       0.020000  -49807.854141  -29334.412295       2.100735
       0.030000  -22124.692813  -13035.347001       2.094705
       0.040000  -12435.552980   -7330.675984       2.091350
       0.050000   -7950.828712   -4690.230620       2.088456
       0.060000   -5514.643181   -3255.917588       2.085449
       0.070000   -4045.659397   -2391.075706       2.082177
       0.080000   -3092.190349   -1829.764385       2.078671
       0.090000   -2438.452006   -1444.936129       2.075060
       0.100000   -1970.792929   -1169.676100       2.071519
       0.110000   -1624.733650    -966.020267       2.068213
       0.120000   -1361.482370    -811.128447       2.065255
       0.130000   -1156.565962    -690.590583       2.062669
       0.140000    -993.925983    -594.950794       2.060389
       0.150000    -862.671222    -517.795583       2.058267
       0.160000    -755.203538    -454.650622       2.056097
       0.170000    -666.091227    -402.317598       2.053647
       0.180000    -591.367619    -358.461325       2.050687
       0.190000    -528.080981    -321.344679       2.047029
       0.200000    -473.997978    -289.653831       2.042556
       0.210000    -427.403740    -262.380246       2.037247
       0.220000    -386.964251    -238.739346       2.031190
       0.230000    -351.629793    -218.113368       2.024554
       0.240000    -320.565975    -200.010534       2.017548
       0.250000    -293.103668    -184.035430       2.010353
       0.260000    -268.702181    -169.867200       2.003075
       0.270000    -246.921915    -157.243291       1.995719
       0.280000    -227.403929    -145.947188       1.988217
       0.290000    -209.854603    -135.799058       1.980483
       0.300000    -194.034079    -126.648532       1.972477
       0.310000    -179.747493    -118.369096       1.964260
       0.320000    -166.838170    -110.853673       1.956011
       0.330000    -155.182067    -104.011128       1.948001
       0.340000    -144.682761     -97.763481       1.940543
       0.350000    -135.266274     -92.043672       1.933927
       0.360000    -126.875077     -86.793765       1.928369
       0.370000    -119.460889     -81.963507       1.923987
       0.380000    -112.976408     -77.509155       1.920792
       0.390000    -107.366862     -73.392516       1.918713
       0.400000    -102.562947     -69.580143       1.917615
       0.410000     -98.476908     -66.042655       1.917334
       0.420000     -95.003131     -62.754163       1.917690
       0.430000     -92.023788     -59.691776       1.918508
       0.440000     -89.418934     -56.835187       1.919627
       0.450000     -87.078991     -54.166327       1.920906
       0.460000     -84.916250     -51.669070       1.922237
       0.470000     -82.871559     -49.328982       1.923547
       0.480000     -80.913644     -47.133115       1.924808
       0.490000     -79.031241     -45.069823       1.926023
       0.500000     -77.221155     -43.128609       1.927225
       0.510000     -75.477019     -41.299991       1.928451
       0.520000     -73.783038     -39.575388       1.929726
       0.530000     -72.114587     -37.947017       1.931049
       0.540000     -70.444381     -36.407807       1.932386
       0.550000     -68.750637     -34.951322       1.933677
       0.560000     -67.023305     -33.571694       1.934840
       0.570000     -65.266038     -32.263565       1.935784
       0.580000     -63.493787     -31.022032       1.936415
       0.590000     -61.727498     -29.842603       1.936648
       0.600000     -59.987918     -28.721157       1.936415
       0.610000     -58.290252     -27.653907       1.935673
       0.620000     -56.640959     -26.637367       1.934424
       0.630000     -55.037412     -25.668325       1.932716
       0.640000     -53.470320     -24.743818       1.930649
       0.650000     -51.927825     -23.861106       1.928356
       0.660000     -50.399595     -23.017656       1.925974
       0.670000     -48.879448     -22.211122       1.923613
       0.680000     -47.366015     -21.439325       1.921341
       0.690000     -45.861854     -20.700246       1.919182
       0.700000     -44.371896     -19.992004       1.917140
       0.710000     -42.901919     -19.312853       1.915225
       0.720000     -41.457434     -18.661162       1.913474
       0.730000     -40.043060     -18.035413       1.911951
       0.740000     -38.662269     -17.434187       1.910741
       0.750000     -37.317394     -16.856160       1.909921
       0.760000     -36.009764     -16.300092       1.909543
       0.770000     -34.739884     -15.764823       1.909617
       0.780000     -33.507633     -15.249268       1.910114
       0.790000     -32.312436     -14.752407       1.910968
       0.800000     -31.153419     -14.273289       1.912092
       0.810000     -30.029526     -13.811018       1.913387
       0.820000     -28.939633     -13.364757       1.914754
       0.830000     -27.882627     -12.933724       1.916098
       0.840000     -26.857479     -12.517187       1.917335
       0.850000     -25.863315     -12.114466       1.918398
       0.860000     -24.899487     -11.724934       1.919235
       0.870000     -23.965656     -11.348012       1.919819
       0.880000     -23.061918     -10.983178       1.920149
       0.890000     -22.188949     -10.629966       1.920257
       0.900000     -21.348197     -10.287973       1.920209
       0.910000     -20.542062      -9.956859       1.920098
       0.920000     -19.774042      -9.636357       1.920034
       0.930000     -19.048754      -9.326268       1.920116
       0.940000     -18.371766      -9.026457       1.920415
       0.950000     -17.749137      -8.736838       1.920961
       0.960000     -17.186608      -8.457338       1.921740
       0.970000     -16.688481      -8.187850       1.922700
       0.980000     -16.256387      -7.928176       1.923761
       0.990000     -15.888302      -7.677966       1.924827
       1.000000     -15.578273      -7.436687       1.925796
       1.010000     -15.317084      -7.203623       1.926568
       1.020000     -15.093758      -6.977928       1.927056
       1.030000     -14.897376      -6.758712       1.927192
       1.040000     -14.718572      -6.545124       1.926946
       1.050000     -14.550267      -6.336428       1.926327
       1.060000     -14.387643      -6.132030       1.925389
       1.070000     -14.227732      -5.931483       1.924226
       1.080000     -14.069072      -5.734472       1.922958
       1.090000     -13.911567      -5.540816       1.921710
       1.100000     -13.756346      -5.350454       1.920589
       1.110000     -13.605389      -5.163444       1.919664
       1.120000     -13.460955      -4.979945       1.918962
       1.130000     -13.325181      -4.800208       1.918470
       1.140000     -13.200107      -4.624580       1.918148
       1.150000     -13.088013      -4.453508       1.917952
       1.160000     -12.991682      -4.287548       1.917842
       1.170000     -12.914309      -4.127333       1.917788
       1.180000     -12.859168      -3.973521       1.917772
       1.190000     -12.829379      -3.826678       1.917777
       1.200000     -12.827986      -3.687140       1.917786
       1.210000     -12.858163      -3.554864       1.917785
       1.220000     -12.923255      -3.429325       1.917768
       1.230000     -13.026488      -3.309536       1.917747
       1.240000     -13.170468      -3.194239       1.917753
       1.250000     -13.356604      -3.082220       1.917837
       1.260000     -13.584454      -2.972649       1.918056
       1.270000     -13.850911      -2.865297       1.918464
       1.280000     -14.149293      -2.760545       1.919093
       1.290000     -14.468613      -2.659171       1.919947
       1.300000     -14.793473      -2.561998       1.920999
       1.310000     -15.104937      -2.469489       1.922199
       1.320000     -15.382548      -2.381422       1.923481
       1.330000     -15.607156      -2.296768       1.924770
       1.340000     -15.763842      -2.213849       1.925992
       1.350000     -15.843987      -2.130744       1.927083
       1.360000     -15.845897      -2.045816       1.927994
       1.370000     -15.773965      -1.958132       1.928702
       1.380000     -15.636880      -1.867664       1.929210
       1.390000     -15.445589      -1.775229       1.929552
       1.400000     -15.211539      -1.682247       1.929783
       1.410000     -14.945469      -1.590408       1.929971
       1.420000     -14.656738      -1.501326       1.930187
       1.430000     -14.353084      -1.416216       1.930495
       1.440000     -14.040660      -1.335674       1.930949
       1.450000     -13.724202      -1.259606       1.931589
       1.460000     -13.407262      -1.187375       1.932431
       1.470000     -13.092439      -1.118153       1.933470
       1.480000     -12.781583      -1.051350       1.934678
       1.490000     -12.475974      -0.986943       1.936003
       1.500000     -12.176465      -0.925569       1.937381
       1.510000     -11.883586      -0.868325       1.938736
       1.520000     -11.597639      -0.816351       1.939992
       1.530000     -11.318761      -0.770322       1.941075
       1.540000     -11.046977      -0.730053       1.941924
       1.550000     -10.782239      -0.694342       1.942500
       1.560000     -10.524459      -0.661162       1.942785
       1.570000     -10.273537      -0.628114       1.942792
       1.580000     -10.029376      -0.592960       1.942549
       1.590000      -9.791897      -0.554027       1.942095
       1.600000      -9.561047      -0.510401       1.941467
       1.610000      -9.336796      -0.461960       1.940697
       1.620000      -9.119128      -0.409354       1.939822
       1.630000      -8.908013      -0.353955       1.938893
       1.640000      -8.703395      -0.297778       1.937983
       1.650000      -8.505166      -0.243295       1.937189
       1.660000      -8.313177      -0.193143       1.936615
       1.670000      -8.127254      -0.149724       1.936355
       1.680000      -7.947244      -0.114754       1.936477
       1.690000      -7.773041      -0.088874       1.937011
       1.700000      -7.604597      -0.071444       1.937948
       1.710000      -7.441902      -0.060647       1.939251
       1.720000      -7.284947      -0.053905       1.940860
       1.730000      -7.133692      -0.048497       1.942705
       1.740000      -6.988044      -0.042131       1.944714
       1.750000      -6.847874      -0.033291       1.946813
       1.760000      -6.713055      -0.021287       1.948928
       1.770000      -6.583490      -0.006044       1.950987
       1.780000      -6.459133       0.012227       1.952920
       1.790000      -6.339972       0.033334       1.954660
       1.800000      -6.226028       0.057254       1.956144
       1.810000      -6.117363       0.084058       1.957327
       1.820000      -6.014109       0.113673       1.958181
       1.830000      -5.916466       0.145640       1.958709
       1.840000      -5.824662       0.179027       1.958945
       1.850000      -5.738897       0.212526       1.958950
       1.860000      -5.659337       0.244693       1.958803
       1.870000      -5.586158       0.274190       1.958594
       1.880000      -5.519623       0.299948       1.958410
       1.890000      -5.460114       0.321243       1.958333
       1.900000      -5.408116       0.337744       1.958436
       1.910000      -5.364151       0.349582       1.958779
       1.920000      -5.328727       0.357437       1.959401
       1.930000      -5.302292       0.362538       1.960320
       1.940000      -5.285188       0.366477       1.961523
       1.950000      -5.277576       0.370856       1.962972
       1.960000      -5.279340       0.376903       1.964600
       1.970000      -5.289939       0.385206       1.966325
       1.980000      -5.308224       0.395672       1.968050
       1.990000      -5.332257       0.407644       1.969675
       2.000000      -5.359203       0.420088       1.971103
       2.010000      -5.385425       0.431768       1.972248
       2.020000      -5.406815       0.441405       1.973044
       2.030000      -5.419358       0.447876       1.973456
       2.040000      -5.419761       0.450481       1.973479
       2.050000      -5.405945       0.449205       1.973143
       2.060000      -5.377247       0.444870       1.972505
       2.070000      -5.334292       0.439045       1.971650
       2.080000      -5.278644       0.433721       1.970677
       2.090000      -5.212380       0.430872       1.969705
       2.100000      -5.137714       0.432082       1.968851
       2.110000      -5.056735       0.438386       1.968223
       2.120000      -4.971254       0.450316       1.967897
       2.130000      -4.882754       0.468062       1.967907
       2.140000      -4.792396       0.491580       1.968238
       2.150000      -4.701076       0.520588       1.968831
       2.160000      -4.609477       0.554485       1.969600
       2.170000      -4.518128       0.592295       1.970447
       2.180000      -4.427447       0.632745       1.971274
       2.190000      -4.337763       0.674469       1.971997
       2.200000      -4.249339       0.716276       1.972549
       2.210000      -4.162378       0.757367       1.972886
       2.220000      -4.077036       0.797395       1.972992
       2.230000      -3.993423       0.836364       1.972889
       2.240000      -3.911606       0.874406       1.972635
       2.250000      -3.831609       0.911596       1.972325
       2.260000      -3.753407       0.947893       1.972080
       2.270000      -3.676924       0.983246       1.972021
       2.280000      -3.602039       1.017784       1.972250
       2.290000      -3.528603       1.051972       1.972834
       2.300000      -3.456469       1.086656       1.973790
       2.310000      -3.385523       1.122943       1.975093
       2.320000      -3.315700       1.161953       1.976677
       2.330000      -3.246994       1.204519       1.978458
       2.340000      -3.179454       1.250920       1.980337
       2.350000      -3.113170       1.300754       1.982218
       2.360000      -3.048253       1.352959       1.984013
       2.370000      -2.984814       1.405966       1.985643
       2.380000      -2.922945       1.457884       1.987036
       2.390000      -2.862695       1.506666       1.988131
       2.400000      -2.804058       1.550192       1.988877
       2.410000      -2.746971       1.586269       1.989241
       2.420000      -2.691320       1.612579       1.989224
       2.430000      -2.636960       1.626632       1.988871
       2.440000      -2.583729       1.625770       1.988275
       2.450000      -2.531456       1.607285       1.987559
       2.460000      -2.479956       1.568643       1.986860
       2.470000      -2.429031       1.507794       1.986302
       2.480000      -2.378477       1.423551       1.985968
       2.490000      -2.328111       1.316019       1.985898
       2.500000      -2.277807       1.187024       1.986080
       2.510000      -2.227524       1.040437       1.986462
       2.520000      -2.177311       0.882241       1.986957
       2.530000      -2.127297       0.720160       1.987463
       2.540000      -2.077659       0.562797       1.987879
       2.550000      -2.028595       0.418413       1.988123
       2.560000      -1.980296       0.293682       1.988149
       2.570000      -1.932927       0.192827       1.987952
       2.580000      -1.886611       0.117358       1.987570
       2.590000      -1.841410       0.066440       1.987073
       2.600000      -1.797316       0.037652       1.986550
       2.610000      -1.754251       0.027852       1.986094
       2.620000      -1.712087       0.033881       1.985785
       2.630000      -1.670701       0.052966       1.985678
       2.640000      -1.630037       0.082812       1.985797
       2.650000      -1.590156       0.121487       1.986133
       2.660000      -1.551251       0.167239       1.986643
       2.670000      -1.513622       0.218366       1.987251
       2.680000      -1.477624       0.273175       1.987854
       2.690000      -1.443605       0.330029       1.988331
       2.700000      -1.411864       0.387432       1.988567
       2.710000      -1.382642       0.444136       1.988477
       2.720000      -1.356132       0.499233       1.988022
       2.730000      -1.332503       0.552235       1.987226
       2.740000      -1.311896       0.603093       1.986164
       2.750000      -1.294394       0.652154       1.984943
       2.760000      -1.279968       0.700018       1.983677
       2.770000      -1.268433       0.747342       1.982467
       2.780000      -1.259417       0.794634       1.981381
       2.790000      -1.252343       0.842121       1.980451
       2.800000      -1.246433       0.889719       1.979679
       2.810000      -1.240732       0.937095       1.979038
       2.820000      -1.234178       0.983803       1.978492
       2.830000      -1.225720       1.029422       1.978009
       2.840000      -1.214455       1.073668       1.977573
       2.850000      -1.199752       1.116447       1.977197
       2.860000      -1.181322       1.157828       1.976919
       2.870000      -1.159219       1.197956       1.976793
       2.880000      -1.133784       1.236939       1.976876
       2.890000      -1.105543       1.274757       1.977207
       2.900000      -1.075116       1.311257       1.977796
       2.910000      -1.043120       1.346223       1.978627
       2.920000      -1.010104       1.379512       1.979658
       2.930000      -0.976510       1.411173       1.980833
       2.940000      -0.942653       1.441510       1.982093
       2.950000      -0.908726       1.471052       1.983387
       2.960000      -0.874824       1.500473       1.984671
       2.970000      -0.840973       1.530483       1.985916
       2.980000      -0.807165       1.561748       1.987103
       2.990000      -0.773388       1.594825       1.988219
       3.000000      -0.739645       1.630116       1.989247
       3.010000      -0.705963       1.667840       1.990167
       3.020000      -0.672385       1.708031       1.990958
       3.030000      -0.638959       1.750567       1.991595
       3.040000      -0.605721       1.795221       1.992067
       3.050000      -0.572685       1.841683       1.992383
       3.060000      -0.539846       1.889559       1.992574
       3.070000      -0.507183       1.938341       1.992700
       3.080000      -0.474668       1.987385       1.992837
       3.090000      -0.442275       2.035905       1.993067
       3.100000      -0.409980       2.083005       1.993454
       3.110000      -0.377755       2.127728       1.994035
       3.120000      -0.345574       2.169131       1.994803
       3.130000      -0.313404       2.206339       1.995709
       3.140000      -0.281221       2.238606       1.996669
       3.150000      -0.249013       2.265346       1.997578
       3.160000      -0.216786       2.286142       1.998334
       3.170000      -0.184564       2.300728       1.998854
       3.180000      -0.152386       2.308944       1.999088
       3.190000      -0.120296       2.310689       1.999020
       3.200000      -0.088339       2.305890       1.998665
       3.210000      -0.056559       2.294490       1.998054
       3.220000      -0.024994       2.276458       1.997223
       3.230000       0.006322       2.251851       1.996192
       3.240000       0.037361       2.220923       1.994969
       3.250000       0.068101       2.184285       1.993549
       3.260000       0.098533       2.143065       1.991929
       3.270000       0.128660       2.098971       1.990120
       3.280000       0.158496       2.054183       1.988164
       3.290000       0.188064       2.011054       1.986134
       3.300000       0.217397       1.971696       1.984130
       3.310000       0.246522       1.937597       1.982273
       3.320000       0.275463       1.909420       1.980683
       3.330000       0.304235       1.887061       1.979461
       3.340000       0.332859       1.869897       1.978678
       3.350000       0.361372       1.857136       1.978364
       3.360000       0.389851       1.848101       1.978508
       3.370000       0.418412       1.842375       1.979072
       3.380000       0.447203       1.839750       1.980006
       3.390000       0.476368       1.840047       1.981266
       3.400000       0.506015       1.842911       1.982817
       3.410000       0.536180       1.847732       1.984636
       3.420000       0.566810       1.853721       1.986703
       3.430000       0.597769       1.860134       1.988996
       3.440000       0.628857       1.866489       1.991488
       3.450000       0.659842       1.872662       1.994141
       3.460000       0.690501       1.878790       1.996910
       3.470000       0.720656       1.885047       1.999733
       3.480000       0.750196       1.891431       2.002533
       3.490000       0.779098       1.897685       2.005221
       3.500000       0.807410       1.903380       2.007705
       3.510000       0.835229       1.908068       2.009903
       3.520000       0.862645       1.911416       2.011753
       3.530000       0.889676       1.913194       2.013231
       3.540000       0.916203       1.913155       2.014348
       3.550000       0.941928       1.910869       2.015151
       3.560000       0.966355       1.905684       2.015714
       3.570000       0.988806       1.896859       2.016121
       3.580000       1.008444       1.883895       2.016453
       3.590000       1.024325       1.866899       2.016770
       3.600000       1.035474       1.846802       2.017109
       3.610000       1.041007       1.825276       2.017480
       3.620000       1.040314       1.804323       2.017880
       3.630000       1.033270       1.785728       2.018313
       3.640000       1.020414       1.770631       2.018811
       3.650000       1.003013       1.759405       2.019434
       3.660000       0.982925       1.751857       2.020261
       3.670000       0.962281       1.747586       2.021356
       3.680000       0.943077       1.746309       2.022740
       3.690000       0.926849       1.748000       2.024374
       3.700000       0.914522       1.752807       2.026165
       3.710000       0.906441       1.760839       2.027981
       3.720000       0.902493       1.771959       2.029679
       3.730000       0.902258       1.785709       2.031137
       3.740000       0.905142       1.801387       2.032278
       3.750000       0.910518       1.818237       2.033081
       3.760000       0.917860       1.835645       2.033582
       3.770000       0.926855       1.853248       2.033871
       3.780000       0.937429       1.870928       2.034074
       3.790000       0.949682       1.888678       2.034340
       3.800000       0.963731       1.906434       2.034823
       3.810000       0.979560       1.923965       2.035657
       3.820000       0.996926       1.940896       2.036935
       3.830000       1.015367       1.956862       2.038695
       3.840000       1.034276       1.971717       2.040919
       3.850000       1.053030       1.985680       2.043540
       3.860000       1.071114       1.999331       2.046451
       3.870000       1.088221       2.013434       2.049526
       3.880000       1.104335       2.028657       2.052618
       3.890000       1.119755       2.045331       2.055572
       3.900000       1.135056       2.063330       2.058224
       3.910000       1.150941       2.082084       2.060411
       3.920000       1.168034       2.100687       2.061983
       3.930000       1.186636       2.118035       2.062824
       3.940000       1.206566       2.132957       2.062870
       3.950000       1.227110       2.144295       2.062132
       3.960000       1.247081       2.150916       2.060703
       3.970000       1.264978       2.151663       2.058755
       3.980000       1.279197       2.145336       2.056508
       3.990000       1.288288       2.130767       2.054204
       4.000000       1.291256       2.107070       2.052059
       4.010000       1.287872       2.074000       2.050243
       4.020000       1.278912       2.032295       2.048862
       4.030000       1.266208       1.983824       2.047977
       4.040000       1.252426       1.931431       2.047619
       4.050000       1.240570       1.878471       2.047808
       4.060000       1.233380       1.828208       2.048555
       4.070000       1.232833       1.783260       2.049846
       4.080000       1.239918       1.745257       2.051635
       4.090000       1.254681       1.714733       2.053830
       4.100000       1.276475       1.691221       2.056312
       4.110000       1.304252       1.673466       2.058950
       4.120000       1.336828       1.659739       2.061629
       4.130000       1.373067       1.648231       2.064269
       4.140000       1.411989       1.637486       2.066828
       4.150000       1.452806       1.626768       2.069301
       4.160000       1.494912       1.616234       2.071695
       4.170000       1.537838       1.606813       2.074012
       4.180000       1.581207       1.599817       2.076230
       4.190000       1.624678       1.596454       2.078303
       4.200000       1.667915       1.597448       2.080161
       4.210000       1.710553       1.602920       2.081735
       4.220000       1.752165       1.612552       2.082973
       4.230000       1.792210       1.625900       2.083854
       4.240000       1.829987       1.642721       2.084396
       4.250000       1.864603       1.663130       2.084642
       4.260000       1.894999       1.687542       2.084644
       4.270000       1.920048       1.716424       2.084449
       4.280000       1.938722       1.749991       2.084088
       4.290000       1.950300       1.787987       2.083583
       4.300000       1.954551       1.829640       2.082953
       4.310000       1.951811       1.873789       2.082229
       4.320000       1.942901       1.919102       2.081448
       4.330000       1.928887       1.964313       2.080654
       4.340000       1.910777       2.008383       2.079885
       4.350000       1.889271       2.050554       2.079162
       4.360000       1.864679       2.090297       2.078486
       4.370000       1.837001       2.127224       2.077824
       4.380000       1.806087       2.161012       2.077113
       4.390000       1.771765       2.191371       2.076263
       4.400000       1.733858       2.218020       2.075168
       4.410000       1.692119       2.240626       2.073712
       4.420000       1.646133       2.258684       2.071793
       4.430000       1.595302       2.271394       2.069335
       4.440000       1.538975       2.277630       2.066314
       4.450000       1.476728       2.276043       2.062775
       4.460000       1.408718       2.265324       2.058844
       4.470000       1.335933       2.244542       2.054715
       4.480000       1.260237       2.213475       2.050616
       4.490000       1.184148       2.172835       2.046772
       4.500000       1.110439       2.124309       2.043366
       4.510000       1.041739       2.070412       2.040527
       4.520000       0.980273       2.014173       2.038320
       4.530000       0.927783       1.958750       2.036758
       4.540000       0.885570       1.907048       2.035806
       4.550000       0.854525       1.861409       2.035397
       4.560000       0.835082       1.823393       2.035446
       4.570000       0.827112       1.793648       2.035864
       4.580000       0.829874       1.771910       2.036568
       4.590000       0.842078       1.757154       2.037493
       4.600000       0.862099       1.747870       2.038589
       4.610000       0.888240       1.742398       2.039806
       4.620000       0.918970       1.739235       2.041083
       4.630000       0.953058       1.737262       2.042333
       4.640000       0.989584       1.735846       2.043446
       4.650000       1.027851       1.734827       2.044303
       4.660000       1.067277       1.734381       2.044802
       4.670000       1.107301       1.734781       2.044882
       4.680000       1.147340       1.736126       2.044543
       4.690000       1.186779       1.738153       2.043852
       4.700000       1.224986       1.740181       2.042936
       4.710000       1.261329       1.741246       2.041954
       4.720000       1.295193       1.740357       2.041079
       4.730000       1.325992       1.736796       2.040467
       4.740000       1.353147       1.730329       2.040243
       4.750000       1.376048       1.721267       2.040489
       4.760000       1.393990       1.710340       2.041240
       4.770000       1.406100       1.698460       2.042485
       4.780000       1.411284       1.686428       2.044167
       4.790000       1.408220       1.674670       2.046186
       4.800000       1.395438       1.663065       2.048416
       4.810000       1.371536       1.650901       2.050709
       4.820000       1.335508       1.637016       2.052913
       4.830000       1.287121       1.620073       2.054882
       4.840000       1.227220       1.598930       2.056479
       4.850000       1.157860       1.573002       2.057587
       4.860000       1.082188       1.542525       2.058111
       4.870000       1.004080       1.508625       2.057981
       4.880000       0.927596       1.473163       2.057160
       4.890000       0.856427       1.438394       2.055646
       4.900000       0.793456       1.406540       2.053479
       4.910000       0.740555       1.379419       2.050741
       4.920000       0.698596       1.358181       2.047565
       4.930000       0.667619       1.343170       2.044125
       4.940000       0.647050       1.333907       2.040628
       4.950000       0.635886       1.329182       2.037292
       4.960000       0.632835       1.327230       2.034320
       4.970000       0.636435       1.325988       2.031878
       4.980000       0.645208       1.323395       2.030084
       4.990000       0.657874       1.317723       2.029001
       5.000000       0.673566       1.307869       2.028648
       5.010000       0.691949       1.293556       2.029008
       5.020000       0.713188       1.275357       2.030041
       5.030000       0.737748       1.254553       2.031707
       5.040000       0.766113       1.232845       2.033970
       5.050000       0.798529       1.212039       2.036807
       5.060000       0.834853       1.193767       2.040202
       5.070000       0.874530       1.179281       2.044140
       5.080000       0.916664       1.169323       2.048590
       5.090000       0.960158       1.164046       2.053502
       5.100000       1.003834       1.163027       2.058800
       5.110000       1.046529       1.165357       2.064390
       5.120000       1.087126       1.169810       2.070162
       5.130000       1.124555       1.175037       2.075999
       5.140000       1.157793       1.179735       2.081786
       5.150000       1.185905       1.182762       2.087416
       5.160000       1.208125       1.183215       2.092796
       5.170000       1.223945       1.180476       2.097857
       5.180000       1.233169       1.174268       2.102559
       5.190000       1.235897       1.164701       2.106885
       5.200000       1.232463       1.152314       2.110839
       5.210000       1.223380       1.138098       2.114430
       5.220000       1.209311       1.123482       2.117658
       5.230000       1.191061       1.110226       2.120508
       5.240000       1.169538       1.100183       2.122945
       5.250000       1.145647       1.094934       2.124930
       5.260000       1.120157       1.095427       2.126438
       5.270000       1.093605       1.101777       2.127475
       5.280000       1.066312       1.113310       2.128080
       5.290000       1.038527       1.128842       2.128329
       5.300000       1.010652       1.147050       2.128323
       5.310000       0.983470       1.166812       2.128182
       5.320000       0.958248       1.187391       2.128030
       5.330000       0.936648       1.208426       2.127988
       5.340000       0.920413       1.229808       2.128164
       5.350000       0.910944       1.251515       2.128642
       5.360000       0.908929       1.273515       2.129470
       5.370000       0.914162       1.295753       2.130651
       5.380000       0.925590       1.318202       2.132140
       5.390000       0.941549       1.340899       2.133851
       5.400000       0.960087       1.363913       2.135670
       5.410000       0.979285       1.387251       2.137488
       5.420000       0.997503       1.410717       2.139218
       5.430000       1.013516       1.433803       2.140814
       5.440000       1.026529       1.455646       2.142278
       5.450000       1.036122       1.475110       2.143653
       5.460000       1.042171       1.490974       2.145020
       5.470000       1.044816       1.502192       2.146478
       5.480000       1.044478       1.508137       2.148133
       5.490000       1.041870       1.508759       2.150083
       5.500000       1.037961       1.504571       2.152403
       5.510000       1.033886       1.496495       2.155134
       5.520000       1.030823       1.485625       2.158281
       5.530000       1.029871       1.473003       2.161815
       5.540000       1.031933       1.459470       2.165684
       5.550000       1.037601       1.445644       2.169824
       5.560000       1.047056       1.431992       2.174167
       5.570000       1.060013       1.418963       2.178650
       5.580000       1.075723       1.407059       2.183217
       5.590000       1.093038       1.396796       2.187812
       5.600000       1.110520       1.388544       2.192379
       5.610000       1.126583       1.382331       2.196848
       5.620000       1.139660       1.377701       2.201135
       5.630000       1.148399       1.373715       2.205145
       5.640000       1.151852       1.369143       2.208788
       5.650000       1.149620       1.362790       2.211992
       5.660000       1.141928       1.353871       2.214719
       5.670000       1.129601       1.342310       2.216964
       5.680000       1.113965       1.328835       2.218752
       5.690000       1.096669       1.314857       2.220119
       5.700000       1.079461       1.302148       2.221107
       5.710000       1.063927       1.292432       2.221758
       5.720000       1.051269       1.287020       2.222127
       5.730000       1.042166       1.286577       2.222284
       5.740000       1.036775       1.291091       2.222328
       5.750000       1.034860       1.300016       2.222383
       5.760000       1.036019       1.312507       2.222592
       5.770000       1.039913       1.327655       2.223102
       5.780000       1.046417       1.344633       2.224043
       5.790000       1.055637       1.362719       2.225508
       5.800000       1.067794       1.381276       2.227542
       5.810000       1.083048       1.399725       2.230141
       5.820000       1.101340       1.417579       2.233266
       5.830000       1.122318       1.434497       2.236859
       5.840000       1.145353       1.450316       2.240860
       5.850000       1.169617       1.465021       2.245214
       5.860000       1.194196       1.478666       2.249866
       5.870000       1.218209       1.491291       2.254758
       5.880000       1.240919       1.502861       2.259825
       5.890000       1.261815       1.513230       2.264987
       5.900000       1.280629       1.522114       2.270158
       5.910000       1.297301       1.529085       2.275258
       5.920000       1.311891       1.533635       2.280220
       5.930000       1.324523       1.535312       2.285009
       5.940000       1.335375       1.533899       2.289620
       5.950000       1.344733       1.529581       2.294074
       5.960000       1.353046       1.523012       2.298410
       5.970000       1.360929       1.515241       2.302669
       5.980000       1.369082       1.507511       2.306881
       5.990000       1.378169       1.500992       2.311061
       6.000000       1.388735       1.496571       2.315210
       6.010000       1.401175       1.494759       2.319319
       6.020000       1.415752       1.495716       2.323375
       6.030000       1.432588       1.499322       2.327360
       6.040000       1.451608       1.505213       2.331252
       6.050000       1.472435       1.512765       2.335006
       6.060000       1.494312       1.521056       2.338548
       6.070000       1.516117       1.528885       2.341771
       6.080000       1.536471       1.534869       2.344540
       6.090000       1.553939       1.537626       2.346721
       6.100000       1.567248       1.535991       2.348208
       6.110000       1.575474       1.529223       2.348965
       6.120000       1.578170       1.517166       2.349047
       6.130000       1.575440       1.500313       2.348611
       6.140000       1.567944       1.479765       2.347889
       6.150000       1.556845       1.457071       2.347151
       6.160000       1.543678       1.434003       2.346654
       6.170000       1.530162       1.412315       2.346592
       6.180000       1.517989       1.393581       2.347066
       6.190000       1.508654       1.379124       2.348081
       6.200000       1.503351       1.370041       2.349555
       6.210000       1.502916       1.367243       2.351365
       6.220000       1.507822       1.371438       2.353382
       6.230000       1.518179       1.383036       2.355506
       6.240000       1.533745       1.402014       2.357684
       6.250000       1.553953       1.427798       2.359912
       6.260000       1.577938       1.459231       2.362221
       6.270000       1.604587       1.494635       2.364659
       6.280000       1.632585       1.531951       2.367284
       6.290000       1.660477       1.568947       2.370147
       6.300000       1.686718       1.603436       2.373292
       6.310000       1.709754       1.633506       2.376758
       6.320000       1.728104       1.657698       2.380573
       6.330000       1.740466       1.675104       2.384750
       6.340000       1.745810       1.685366       2.389281
       6.350000       1.743481       1.688593       2.394121
       6.360000       1.733299       1.685271       2.399189
       6.370000       1.715681       1.676212       2.404368
       6.380000       1.691737       1.662563       2.409527
       6.390000       1.663273       1.645807       2.414534
       6.400000       1.632619       1.627652       2.419280
       6.410000       1.602285       1.609804       2.423685
       6.420000       1.574526       1.593658       2.427712
       6.430000       1.550961       1.580053       2.431356
       6.440000       1.532348       1.569181       2.434640
       6.450000       1.518585       1.560695       2.437608
       6.460000       1.508899       1.553970       2.440310
       6.470000       1.502148       1.548422       2.442800
       6.480000       1.497158       1.543781       2.445136
       6.490000       1.493023       1.540242       2.447367
       6.500000       1.489308       1.538443       2.449535
       6.510000       1.486117       1.539318       2.451659
       6.520000       1.483994       1.543848       2.453726
       6.530000       1.483707       1.552809       2.455691
       6.540000       1.485963       1.566541       2.457477
       6.550000       1.491170       1.584812       2.459003
       6.560000       1.499302       1.606794       2.460211
       6.570000       1.509871       1.631157       2.461098
       6.580000       1.521971       1.656256       2.461733
       6.590000       1.534355       1.680320       2.462261
       6.600000       1.545548       1.701625       2.462877
       6.610000       1.554016       1.718616       2.463797
       6.620000       1.558400       1.729988       2.465222
       6.630000       1.557776       1.734775       2.467313
       6.640000       1.551903       1.732453       2.470169
       6.650000       1.541349       1.723077       2.473825
       6.660000       1.527428       1.707376       2.478250
       6.670000       1.511906       1.686747       2.483356
       6.680000       1.496545       1.663056       2.489012
       6.690000       1.482606       1.638289       2.495065
       6.700000       1.470507       1.614144       2.501362
       6.710000       1.459730       1.591686       2.507772
       6.720000       1.449005       1.571163       2.514192
       6.730000       1.436664       1.551998       2.520554
       6.740000       1.421027       1.532972       2.526824
       6.750000       1.400715       1.512540       2.532995
       6.760000       1.374846       1.489239       2.539078
       6.770000       1.343139       1.462083       2.545108
       6.780000       1.305927       1.430847       2.551139
       6.790000       1.264078       1.396149       2.557240
       6.800000       1.218783       1.359265       2.563494
       6.810000       1.171261       1.321758       2.569977
       6.820000       1.122466       1.285060       2.576751
       6.830000       1.072946       1.250194       2.583852
       6.840000       1.022889       1.217732       2.591288
       6.850000       0.972305       1.187911       2.599050
       6.860000       0.921166       1.160778       2.607119
       6.870000       0.869382       1.136200       2.615470
       6.880000       0.816618       1.113754       2.624076
       6.890000       0.762100       1.092567       2.632906
       6.900000       0.704552       1.071244       2.641915
       6.910000       0.642370       1.047969       2.651049
       6.920000       0.573970       1.020780       2.660235
       6.930000       0.498209       0.987956       2.669396
       6.940000       0.414772       0.948426       2.678446
       6.950000       0.324452       0.902095       2.687301
       6.960000       0.229257       0.849983       2.695887
       6.970000       0.132232       0.794087       2.704143
       6.980000       0.036996       0.736968       2.712032
       6.990000      -0.052939       0.681174       2.719550
       7.000000      -0.134844       0.628712       2.726729
       7.010000      -0.207206       0.580738       2.733644
       7.020000      -0.269792       0.537566       2.740407
       7.030000      -0.323334       0.498941       2.747163
       7.040000      -0.368997       0.464452       2.754081
       7.050000      -0.407827       0.433883       2.761330
       7.060000      -0.440415       0.407384       2.769070
       7.070000      -0.466860       0.385380       2.777437
       7.080000      -0.487006       0.368277       2.786544
       7.090000      -0.500802       0.356110       2.796477
       7.100000      -0.508589       0.348299       2.807293
       7.110000      -0.511197       0.343630       2.819021
       7.120000      -0.509806       0.340477       2.831662
       7.130000      -0.505666       0.337162       2.845195
       7.140000      -0.499809       0.332302       2.859580
       7.150000      -0.492884       0.325050       2.874762
       7.160000      -0.485159       0.315195       2.890664
       7.170000      -0.476649       0.303135       2.907178
       7.180000      -0.467281       0.289772       2.924160
       7.190000      -0.457048       0.276317       2.941432
       7.200000      -0.446112       0.264003       2.958788
       7.210000      -0.434880       0.253744       2.976008
       7.220000      -0.424051       0.245831       2.992869
       7.230000      -0.414582       0.239764       3.009150
       7.240000      -0.407570       0.234302       3.024637
       7.250000      -0.404043       0.227719       3.039115
       7.260000      -0.404720       0.218206       3.052372
       7.270000      -0.409818       0.204340       3.064210
       7.280000      -0.418963       0.185472       3.074456
       7.290000      -0.431236       0.161958       3.083000
       7.300000      -0.445309       0.135122       3.089818
       7.310000      -0.459641       0.106985       3.094993
       7.320000      -0.472667       0.079864       3.098711
       7.330000      -0.482964       0.056020       3.101226
       7.340000      -0.489356       0.037441       3.102810
       7.350000      -0.491006       0.025742       3.103700
       7.360000      -0.487479       0.022079       3.104059
       7.370000      -0.478820       0.027051       3.103968
       7.380000      -0.465593       0.040595       3.103434
       7.390000      -0.448859       0.061967       3.102417
       7.400000      -0.430065       0.089837       3.100846
       7.410000      -0.410841       0.122481       3.098640
       7.420000      -0.392741       0.158026       3.095721
       7.430000      -0.376981       0.194670       3.092048
       7.440000      -0.364234       0.230858       3.087637
       7.450000      -0.354559       0.265377       3.082567
       7.460000      -0.347496       0.297374       3.076964
       7.470000      -0.342298       0.326309       3.070959
       7.480000      -0.338217       0.351893       3.064643
       7.490000      -0.334706       0.374051       3.058054
       7.500000      -0.331505       0.392922       3.051185
       7.510000      -0.328575       0.408894       3.044023
       7.520000      -0.325955       0.422630       3.036576
       7.530000      -0.323601       0.435041       3.028882
       7.540000      -0.321292       0.447161       3.020998
       7.550000      -0.318642       0.459950       3.012960
       7.560000      -0.315203       0.474077       3.004766
       7.570000      -0.310602       0.489789       2.996358
       7.580000      -0.304644       0.506922       2.987635
       7.590000      -0.297334       0.525055       2.978475
       7.600000      -0.288820       0.543735       2.968770
       7.610000      -0.279305       0.562688       2.958448
       7.620000      -0.268987       0.581912       2.947491
       7.630000      -0.258069       0.601614       2.935938
       7.640000      -0.246833       0.622042       2.923871
       7.650000      -0.235726       0.643294       2.911401
       7.660000      -0.225385       0.665209       2.898647
       7.670000      -0.216564       0.687394       2.885714
       7.680000      -0.209969       0.709358       2.872677
       7.690000      -0.206054       0.730689       2.859566
       7.700000      -0.204840       0.751194       2.846375
       7.710000      -0.205835       0.770953       2.833108
       7.720000      -0.208088       0.790260       2.819828
       7.730000      -0.210384       0.809489       2.806708
       7.740000      -0.211504       0.828924       2.794039
       7.750000      -0.210458       0.848649       2.782191
       7.760000      -0.206610       0.868482       2.771569
       7.770000      -0.199700       0.887965       2.762562
       7.780000      -0.189786       0.906374       2.755523
       7.790000      -0.177154       0.922735       2.750752
       7.800000      -0.162251       0.935862       2.748476
       7.810000      -0.145637       0.944437       2.748831
       7.820000      -0.127969       0.947125       2.751856
       7.830000      -0.109983       0.942737       2.757528
       7.840000      -0.092452       0.930425       2.765814
       7.850000      -0.076116       0.909903       2.776712
       7.860000      -0.061596       0.881619       2.790269
       7.870000      -0.049317       0.846778       2.806532
       7.880000      -0.039479       0.807145       2.825489
       7.890000      -0.032066       0.764667       2.847010
       7.900000      -0.026918       0.721058       2.870832
       7.910000      -0.023808       0.677519       2.896580
       7.920000      -0.022515       0.634703       2.923813
       7.930000      -0.022848       0.592865       2.952054
       7.940000      -0.024629       0.552083       2.980816
       7.950000      -0.027641       0.512412       3.009604
       7.960000      -0.031595       0.473934       3.037936
       7.970000      -0.036120       0.436728       3.065359
       7.980000      -0.040808       0.400837       3.091473
       7.990000      -0.045244       0.366250       3.115942
       8.000000      -0.049043       0.332928       3.138475
       8.010000      -0.051837       0.300826       3.158812
       8.020000      -0.053275       0.269929       3.176693
       8.030000      -0.053022       0.240295       3.191859
       8.040000      -0.050795       0.212102       3.204070
       8.050000      -0.046418       0.185669       3.213157
       8.060000      -0.039863       0.161426       3.219078
       8.070000      -0.031260       0.139833       3.221957
       8.080000      -0.020844       0.121299       3.222100
       8.090000      -0.008885       0.106138       3.219968
       8.100000       0.004386       0.094547       3.216125
       8.110000       0.018797       0.086579       3.211177
       8.120000       0.034217       0.082080       3.205707
       8.130000       0.050511       0.080651       3.200216
       8.140000       0.067500       0.081688       3.195083
       8.150000       0.084957       0.084498       3.190525
       8.160000       0.102631       0.088466       3.186607
       8.170000       0.120292       0.093163       3.183253
       8.180000       0.137769       0.098362       3.180275
       8.190000       0.154970       0.103969       3.177390
       8.200000       0.171870       0.109927       3.174240
       8.210000       0.188478       0.116151       3.170423
       8.220000       0.204812       0.122498       3.165536
       8.230000       0.220884       0.128791       3.159240
       8.240000       0.236703       0.134844       3.151325
       8.250000       0.252292       0.140492       3.141769
       8.260000       0.267689       0.145576       3.130799
       8.270000       0.282944       0.149901       3.118916
       8.280000       0.298094       0.153182       3.106869
       8.290000       0.313132       0.155032       3.095552
       8.300000       0.327983       0.155016       3.085856
       8.310000       0.342489       0.152760       3.078515
       8.320000       0.356408       0.148073       3.074005
       8.330000       0.369428       0.141024       3.072508
       8.340000       0.381173       0.131941       3.073953
       8.350000       0.391208       0.121316       3.078121
       8.360000       0.399031       0.109682       3.084777
       8.370000       0.404071       0.097509       3.093797
       8.380000       0.405717       0.085173       3.105250
       8.390000       0.403403       0.072971       3.119394
       8.400000       0.396744       0.061177       3.136588
       8.410000       0.385704       0.050097       3.157161
       8.420000       0.370719       0.040104       3.181280
       8.430000       0.352719       0.031635       3.208884
       8.440000       0.333030       0.025156       3.239677
       8.450000       0.313170       0.021091       3.273196
       8.460000       0.294618       0.019770       3.308882
       8.470000       0.278606       0.021405       3.346161
       8.480000       0.266003       0.026113       3.384504
       8.490000       0.257280       0.033931       3.423483
       8.500000       0.252566       0.044825       3.462814
       8.510000       0.251728       0.058678       3.502371
       8.520000       0.254472       0.075291       3.542159
       8.530000       0.260408       0.094418       3.582239
       8.540000       0.269092       0.115817       3.622608
       8.550000       0.280048       0.139310       3.663093
       8.560000       0.292788       0.164811       3.703283
       8.570000       0.306837       0.192311       3.742527
       8.580000       0.321779       0.221808       3.779986
       8.590000       0.337287       0.253223       3.814714
       8.600000       0.353139       0.286338       3.845710
       8.610000       0.369203       0.320769       3.871935
       8.620000       0.385400       0.355993       3.892263
       8.630000       0.401665       0.391390       3.905415
       8.640000       0.417919       0.426296       3.909902
       8.650000       0.434069       0.460037       3.904075
       8.660000       0.450017       0.491947       3.886288
       8.670000       0.465690       0.521387       3.855206
       8.680000       0.481061       0.547763       3.810162
       8.690000       0.496159       0.570574       3.751473
       8.700000       0.511078       0.589472       3.680537
       8.710000       0.525952       0.604315       3.599618
       8.720000       0.540914       0.615190       3.511316
       8.730000       0.556042       0.622387       3.417899
       8.740000       0.571301       0.626336       3.320762
       8.750000       0.586528       0.627554       3.220217
       8.760000       0.601444       0.626599       3.115687
       8.770000       0.615712       0.624034       3.006180
       8.780000       0.629008       0.620366       2.890854
       8.790000       0.641100       0.615967       2.769454
       8.800000       0.651896       0.610977       2.642531
       8.810000       0.661454       0.605245       2.511405
       8.820000       0.669953       0.598349       2.377966
       8.830000       0.677623       0.589717       2.244404
       8.840000       0.684673       0.578845       2.112959
       8.850000       0.691236       0.565538       1.985755
       8.860000       0.697355       0.550104       1.864731
       8.870000       0.703009       0.533387       1.751591
       8.880000       0.708152       0.516610       1.647727
       8.890000       0.712766       0.501066       1.554087
       8.900000       0.716899       0.487790       1.471042
       8.910000       0.720676       0.477351       1.398362
       8.920000       0.724292       0.469857       1.335342
       8.930000       0.727980       0.465133       1.281026
       8.940000       0.731976       0.462963       1.234452
       8.950000       0.736483       0.463262       1.194808
       8.960000       0.741648       0.466100       1.161473
       8.970000       0.747555       0.471590       1.133962
       8.980000       0.754211       0.479719       1.111834
       8.990000       0.761542       0.490200       1.094619
       9.000000       0.769386       0.502416       1.081779
       9.010000       0.777491       0.515456       1.072718
       9.020000       0.785518       0.528243       1.066800
       9.030000       0.793061       0.539705       1.063368
       9.040000       0.799680       0.548929       1.061760
       9.050000       0.804940       0.555236       1.061342
       9.060000       0.808464       0.558140       1.061536
       9.070000       0.809975       0.557229       1.061849
       9.080000       0.809340       0.552037       1.061862
       9.090000       0.806614       0.542006       1.061212
       9.100000       0.802076       0.526571       1.059584
       9.110000       0.796246       0.505352       1.056730
       9.120000       0.789848       0.478362       1.052510
       9.130000       0.783722       0.446137       1.046925
       9.140000       0.778693       0.409733       1.040132
       9.150000       0.775443       0.370600       1.032420
       9.160000       0.774412       0.330400       1.024165
       9.170000       0.775771       0.290850       1.015755
       9.180000       0.779456       0.253610       1.007535
       9.190000       0.785255       0.220180       0.999766
       9.200000       0.792909       0.191782       0.992623
       9.210000       0.802180       0.169222       0.986199
       9.220000       0.812886       0.152808       0.980537
       9.230000       0.824882       0.142373       0.975661
       9.240000       0.838027       0.137403       0.971632
       9.250000       0.852137       0.137205       0.968619
       9.260000       0.866958       0.141047       0.966957
       9.270000       0.882162       0.148209       0.967150
       9.280000       0.897357       0.157947       0.969813
       9.290000       0.912121       0.169429       0.975546
       9.300000       0.926039       0.181698       0.984819
       9.310000       0.938739       0.193721       0.997891
       9.320000       0.949925       0.204529       1.014813
       9.330000       0.959394       0.213405       1.035490
       9.340000       0.967040       0.220069       1.059767
       9.350000       0.972856       0.224803       1.087520
       9.360000       0.976934       0.228470       1.118710
       9.370000       0.979469       0.232390       1.153390
       9.380000       0.980751       0.238085       1.191651
       9.390000       0.981143       0.246952       1.233524
       9.400000       0.981025       0.259983       1.278855
       9.410000       0.980737       0.277594       1.327217
       9.420000       0.980528       0.299613       1.377873
       9.430000       0.980522       0.325362       1.429812
       9.440000       0.980704       0.353791       1.481842
       9.450000       0.980925       0.383602       1.532695
       9.460000       0.980922       0.413346       1.581154
       9.470000       0.980366       0.441500       1.626153
       9.480000       0.978928       0.466541       1.666883
       9.490000       0.976346       0.487030       1.702860
       9.500000       0.972508       0.501738       1.733960
       9.510000       0.967513       0.509799       1.760391
       9.520000       0.961697       0.510878       1.782587
       9.530000       0.955595       0.505273       1.801052
       9.540000       0.949823       0.493898       1.816192
       9.550000       0.944935       0.478108       1.828187
       9.560000       0.941279       0.459422       1.836956
       9.570000       0.938938       0.439246       1.842210
       9.580000       0.937736       0.418717       1.843576
       9.590000       0.937305       0.398702       1.840754
       9.600000       0.937174       0.379922       1.833636
       9.610000       0.936865       0.363111       1.822349
       9.620000       0.935974       0.349092       1.807213
       9.630000       0.934232       0.338750       1.788632
       9.640000       0.931522       0.332904       1.766993
       9.650000       0.927872       0.332150       1.742598
       9.660000       0.923425       0.336741       1.715633
       9.670000       0.918422       0.346533       1.686180
       9.680000       0.913182       0.361016       1.654233
       9.690000       0.908077       0.379403       1.619739
       9.700000       0.903468       0.400769       1.582646
       9.710000       0.899624       0.424189       1.542965
       9.720000       0.896637       0.448863       1.500794
       9.730000       0.894366       0.474193       1.456293
       9.740000       0.892443       0.499818       1.409633
       9.750000       0.890325       0.525583       1.360963
       9.760000       0.887392       0.551455       1.310422
       9.770000       0.883072       0.577406       1.258199
       9.780000       0.876961       0.603306       1.204603
       9.790000       0.868931       0.628839       1.150103
       9.800000       0.859188       0.653486       1.095340
       9.810000       0.848267       0.676525       1.041101
       9.820000       0.836957       0.697068       0.988259
       9.830000       0.826152       0.714100       0.937688
       9.840000       0.816687       0.726539       0.890143
       9.850000       0.809181       0.733332       0.846128
       9.860000       0.803948       0.733566       0.805796
       9.870000       0.800970       0.726603       0.768894
       9.880000       0.799961       0.712213       0.734803
       9.890000       0.800485       0.690668       0.702659
       9.900000       0.802090       0.662752       0.671541
       9.910000       0.804409       0.629690       0.640697
       9.920000       0.807197       0.593004       0.609745
       9.930000       0.810301       0.554367       0.578806
       9.940000       0.813626       0.515458       0.548480
       9.950000       0.817110       0.477821       0.519704
       9.960000       0.820747       0.442706       0.493504
       9.970000       0.824601       0.410909       0.470766
       9.980000       0.828790       0.382653       0.452058
       9.990000       0.833410       0.357571       0.437530
      10.000000       0.838447       0.334794       0.426872
      10.010000       0.843731       0.313136       0.419338
      10.020000       0.848975       0.291327       0.413846
      10.030000       0.853892       0.268249       0.409159
      10.040000       0.858342       0.243129       0.404145
      10.050000       0.862429       0.215646       0.398017
      10.060000       0.866516       0.185920       0.390506
      10.070000       0.871141       0.154392       0.381881
      10.080000       0.876883       0.121622       0.372828
      10.090000       0.884237       0.088100       0.364220
      10.100000       0.893533       0.054129       0.356870
      10.110000       0.904898       0.019826       0.351354
      10.120000       0.918257      -0.014778       0.347950
      10.130000       0.933350      -0.049582       0.346676
      10.140000       0.949777      -0.084298       0.347375
      10.150000       0.967053      -0.118386       0.349805
      10.160000       0.984669      -0.151079       0.353702
      10.170000       1.002135      -0.181466       0.358826
      10.180000       1.019008      -0.208615       0.364979
      10.190000       1.034906      -0.231688       0.372026
      10.200000       1.049512      -0.250036       0.379887
      10.210000       1.062588      -0.263266       0.388530
      10.220000       1.073978      -0.271279       0.397943
      10.230000       1.083595      -0.274273       0.408118
      10.240000       1.091398      -0.272716       0.419038
      10.250000       1.097357      -0.267283       0.430689
      10.260000       1.101427      -0.258778       0.443068
      10.270000       1.103554      -0.248049       0.456187
      10.280000       1.103708      -0.235935       0.470048
      10.290000       1.101950      -0.223217       0.484610
      10.300000       1.098489      -0.210597       0.499757
      10.310000       1.093698      -0.198689       0.515279
      10.320000       1.088079      -0.188002       0.530892
      10.330000       1.082160      -0.178925       0.546279
      10.340000       1.076384      -0.171705       0.561171
      10.350000       1.071009      -0.166420       0.575449
      10.360000       1.066090      -0.162958       0.589216
      10.370000       1.061537      -0.161010       0.602830
      10.380000       1.057246      -0.160095       0.616854
      10.390000       1.053252      -0.159618       0.631955
      10.400000       1.049814      -0.158948       0.648754
      10.410000       1.047404      -0.157512       0.667694
      10.420000       1.046612      -0.154872       0.688927
      10.430000       1.048006      -0.150765       0.712270
      10.440000       1.052022      -0.145094       0.737229
      10.450000       1.058920      -0.137903       0.763077
      10.460000       1.068777      -0.129340       0.788981
      10.470000       1.081497      -0.119655       0.814148
      10.480000       1.096822      -0.109204       0.837931
      10.490000       1.114347      -0.098444       0.859900
      10.500000       1.133534      -0.087895       0.879850
      10.510000       1.153744      -0.078061       0.897770
      10.520000       1.174241      -0.069340       0.913808
      10.530000       1.194185      -0.061971       0.928227
      10.540000       1.212592      -0.056024       0.941360
      10.550000       1.228309      -0.051433       0.953537
      10.560000       1.240028      -0.048061       0.965003
      10.570000       1.246362      -0.045753       0.975826
      10.580000       1.246012      -0.044395       0.985834
      10.590000       1.237985      -0.043968       0.994610
      10.600000       1.221844      -0.044585       1.001511
      10.610000       1.197904      -0.046513       1.005734
      10.620000       1.167312      -0.050156       1.006379
      10.630000       1.131953      -0.056001       1.002500
      10.640000       1.094151      -0.064555       0.993141
      10.650000       1.056219      -0.076249       0.977363
      10.660000       1.019967      -0.091337       0.954273
      10.670000       0.986321      -0.109792       0.923060
      10.680000       0.955132      -0.131225       0.883036
      10.690000       0.925222      -0.154874       0.833672
      10.700000       0.894628      -0.179681       0.774625
      10.710000       0.861014      -0.204435       0.705773
      10.720000       0.822192      -0.227927       0.627279
      10.730000       0.776702      -0.249085       0.539664
      10.740000       0.724298      -0.267043       0.443882
      10.750000       0.666203      -0.281169       0.341331
      10.760000       0.604977      -0.291052       0.233816
      10.770000       0.544008      -0.296485       0.123454
      10.780000       0.486789      -0.297458       0.012561
      10.790000       0.436234      -0.294144      -0.096475
      10.800000       0.394239      -0.286881      -0.201337
      10.810000       0.361573      -0.276138      -0.299959
      10.820000       0.338037      -0.262470      -0.390695
      10.830000       0.322757      -0.246475      -0.472434
      10.840000       0.314507      -0.228749      -0.544614
      10.850000       0.311966      -0.209858      -0.607139
      10.860000       0.313899      -0.190305      -0.660246
      10.870000       0.319266      -0.170518      -0.704350
      10.880000       0.327261      -0.150842      -0.739933
      10.890000       0.337291      -0.131554      -0.767468
      10.900000       0.348909      -0.112871      -0.787408
      10.910000       0.361733      -0.094970      -0.800229
      10.920000       0.375368      -0.077998      -0.806506
      10.930000       0.389358      -0.062090      -0.806993
      10.940000       0.403172      -0.047356      -0.802650
      10.950000       0.416206      -0.033876      -0.794587
      10.960000       0.427815      -0.021676      -0.783946
      10.970000       0.437340      -0.010712      -0.771729
      10.980000       0.444167      -0.000875      -0.758672
      10.990000       0.447786       0.007990      -0.745174
      11.000000       0.447874       0.016051      -0.731325
      11.010000       0.444366       0.023441      -0.717007
      11.020000       0.437498       0.030236      -0.702052
      11.030000       0.427790       0.036428      -0.686399
      11.040000       0.415974       0.041943      -0.670207
      11.050000       0.402886       0.046677      -0.653884
      11.060000       0.389343       0.050540      -0.638027
      11.070000       0.376050       0.053509      -0.623301
      11.080000       0.363541       0.055650      -0.610307
      11.090000       0.352147       0.057115      -0.599474
      11.100000       0.342005       0.058130      -0.591013
      11.110000       0.333064       0.058966      -0.584912
      11.120000       0.325131       0.059914      -0.580953
      11.130000       0.317914       0.061243      -0.578735
      11.140000       0.311082       0.063160      -0.577700
      11.150000       0.304314       0.065755      -0.577177
      11.160000       0.297348       0.068983      -0.576471
      11.170000       0.290007       0.072659      -0.574967
      11.180000       0.282242       0.076510      -0.572241
      11.190000       0.274170       0.080236      -0.568106
      11.200000       0.266110       0.083586      -0.562612
      11.210000       0.258564       0.086417      -0.555975
      11.220000       0.252140       0.088719      -0.548493
      11.230000       0.247414       0.090627      -0.540481
      11.240000       0.244791       0.092394      -0.532252
      11.250000       0.244423       0.094352      -0.524144
      11.260000       0.246203       0.096849      -0.516548
      11.270000       0.249809       0.100165      -0.509906
      11.280000       0.254782       0.104432      -0.504641
      11.290000       0.260579       0.109575      -0.501044
      11.300000       0.266627       0.115311      -0.499185
      11.310000       0.272355       0.121196      -0.498882
      11.320000       0.277238       0.126718      -0.499788
      11.330000       0.280851       0.131412      -0.501534
      11.340000       0.282922       0.134955      -0.503854
      11.350000       0.283377       0.137222      -0.506638
      11.360000       0.282350       0.138282      -0.509881
      11.370000       0.280162       0.138339      -0.513595
      11.380000       0.277274       0.137642      -0.517733
      11.390000       0.274229       0.136398      -0.522157
      11.400000       0.271607       0.134718      -0.526677
      11.410000       0.269973       0.132615      -0.531106
      11.420000       0.269835       0.130028      -0.535326
      11.430000       0.271613       0.126874      -0.539325
      11.440000       0.275618       0.123095      -0.543195
      11.450000       0.282046       0.118702      -0.547078
      11.460000       0.290975       0.113802      -0.551072
      11.470000       0.302342       0.108606      -0.555129
      11.480000       0.315915       0.103403      -0.558998
      11.490000       0.331263       0.098526      -0.562244
      11.500000       0.347742       0.094311      -0.564345
      11.510000       0.364523       0.091075      -0.564831
      11.520000       0.380638       0.089080      -0.563407
      11.530000       0.395058       0.088495      -0.560020
      11.540000       0.406762       0.089356      -0.554855
      11.550000       0.414793       0.091538      -0.548285
      11.560000       0.418283       0.094768      -0.540781
      11.570000       0.416461       0.098686      -0.532822
      11.580000       0.408649       0.102920      -0.524811
      11.590000       0.394265       0.107170      -0.517015
      11.600000       0.372872       0.111249      -0.509532
      11.610000       0.344266       0.115084      -0.502296
      11.620000       0.308640       0.118674      -0.495126
      11.630000       0.266767       0.122021      -0.487779
      11.640000       0.220139       0.125084      -0.480009
      11.650000       0.170941       0.127761      -0.471595
      11.660000       0.121829       0.129920      -0.462347
      11.670000       0.075534       0.131460      -0.452095
      11.680000       0.034441       0.132371      -0.440698
      11.690000       0.000284       0.132780      -0.428068
      11.700000      -0.025967       0.132949      -0.414206
      11.710000      -0.044048       0.133239      -0.399232
      11.720000      -0.054245       0.134053      -0.383382
      11.730000      -0.057216       0.135769      -0.366987
      11.740000      -0.053845       0.138687      -0.350420
      11.750000      -0.045146       0.142986      -0.334049
      11.760000      -0.032204       0.148701      -0.318201
      11.770000      -0.016142       0.155728      -0.303146
      11.780000       0.001904       0.163823      -0.289093
      11.790000       0.020807       0.172646      -0.276183
      11.800000       0.039493       0.181799      -0.264479
      11.810000       0.057005       0.190889      -0.253937
      11.820000       0.072579       0.199582      -0.244394
      11.830000       0.085735       0.207638      -0.235567
      11.840000       0.096334       0.214923      -0.227079
      11.850000       0.104589       0.221402      -0.218519
      11.860000       0.110995       0.227111      -0.209515
      11.870000       0.116196       0.232121      -0.199817
      11.880000       0.120817       0.236510      -0.189342
      11.890000       0.125324       0.240350      -0.178190
      11.900000       0.129961       0.243704      -0.166613
      11.910000       0.134775       0.246638      -0.154942
      11.920000       0.139707       0.249208      -0.143512
      11.930000       0.144708       0.251450      -0.132600
      11.940000       0.149823       0.253342      -0.122394
      11.950000       0.155220       0.254788      -0.113006
      11.960000       0.161150       0.255611      -0.104500
      11.970000       0.167877       0.255592      -0.096925
      11.980000       0.175599       0.254533      -0.090326
      11.990000       0.184411       0.252337      -0.084739
      12.000000       0.194302       0.249072      -0.080171
      12.010000       0.205180       0.244980      -0.076574
      12.020000       0.216903       0.240442      -0.073828
      12.030000       0.229293       0.235892      -0.071723
      12.040000       0.242143       0.231735      -0.069946
      12.050000       0.255215       0.228290      -0.068094
      12.060000       0.268252       0.225772      -0.065700
      12.070000       0.281002       0.224298      -0.062294
      12.080000       0.293230       0.223916      -0.057479
      12.090000       0.304721       0.224612      -0.050995
      12.100000       0.315253       0.226316      -0.042771
      12.110000       0.324534       0.228896      -0.032932
      12.120000       0.332154       0.232158      -0.021780
      12.130000       0.337544       0.235851      -0.009760
      12.140000       0.339983       0.239684       0.002591
      12.150000       0.338642       0.243345       0.014692
      12.160000       0.332672       0.246509       0.025969
      12.170000       0.321312       0.248853       0.035913
      12.180000       0.304018       0.250069       0.044136
      12.190000       0.280593       0.249902       0.050415
      12.200000       0.251296       0.248205       0.054711
      12.210000       0.216929       0.244981       0.057153
      12.220000       0.178864       0.240407       0.057996
      12.230000       0.138965       0.234812       0.057560
      12.240000       0.099374       0.228625       0.056175
      12.250000       0.062183       0.222314       0.054146
      12.260000       0.029073       0.216326       0.051736
      12.270000       0.001060       0.211048       0.049170
      12.280000      -0.021579       0.206798       0.046645
      12.290000      -0.039182       0.203835       0.044336
      12.300000      -0.052452       0.202373       0.042404
      12.310000      -0.062190       0.202599       0.041009
      12.320000      -0.069082       0.204665       0.040306
      12.330000      -0.073611       0.208668       0.040446
      12.340000      -0.076083       0.214609       0.041556
      12.350000      -0.076727       0.222378       0.043708
      12.360000      -0.075793       0.231742       0.046880
      12.370000      -0.073608       0.242381       0.050934
      12.380000      -0.070540       0.253918       0.055625
      12.390000      -0.066923       0.265959       0.060627
      12.400000      -0.062976       0.278126       0.065587
      12.410000      -0.058761       0.290069       0.070175
      12.420000      -0.054212       0.301486       0.074121
      12.430000      -0.049194       0.312130       0.077238
      12.440000      -0.043576       0.321824       0.079423
      12.450000      -0.037278       0.330476       0.080655
      12.460000      -0.030279       0.338088       0.080999
      12.470000      -0.022600       0.344749       0.080595
      12.480000      -0.014273       0.350617       0.079652
      12.490000      -0.005327       0.355875       0.078433
      12.500000       0.004223       0.360697       0.077231
      12.510000       0.014363       0.365206       0.076336
      12.520000       0.025088       0.369461       0.076010
      12.530000       0.036390       0.373452       0.076465
      12.540000       0.048263       0.377118       0.077842
      12.550000       0.060683       0.380373       0.080197
      12.560000       0.073591       0.383135       0.083489
      12.570000       0.086875       0.385352       0.087571
      12.580000       0.100374       0.387024       0.092184
      12.590000       0.113898       0.388205       0.096976
      12.600000       0.127279       0.389001       0.101538
      12.610000       0.140398       0.389559       0.105455
      12.620000       0.153211       0.390047       0.108381
      12.630000       0.165725       0.390647       0.110101
      12.640000       0.177963       0.391535       0.110590
      12.650000       0.189916       0.392855       0.110024
      12.660000       0.201510       0.394696       0.108754
      12.670000       0.212598       0.397058       0.107230
      12.680000       0.222972       0.399849       0.105912
      12.690000       0.232395       0.402889       0.105189
      12.700000       0.240647       0.405936       0.105322
      12.710000       0.247562       0.408726       0.106439
      12.720000       0.253064       0.410998       0.108541
      12.730000       0.257194       0.412518       0.111536
      12.740000       0.260116       0.413096       0.115276
      12.750000       0.262091       0.412591       0.119603
      12.760000       0.263428       0.410927       0.124389
      12.770000       0.264405       0.408117       0.129564
      12.780000       0.265184       0.404286       0.135125
      12.790000       0.265745       0.399694       0.141122
      12.800000       0.265875       0.394722       0.147617
      12.810000       0.265185       0.389826       0.154645
      12.820000       0.263170       0.385466       0.162180
      12.830000       0.259283       0.382023       0.170122
      12.840000       0.253007       0.379741       0.178301
      12.850000       0.243921       0.378692       0.186503
      12.860000       0.231760       0.378772       0.194499
      12.870000       0.216475       0.379727       0.202083
      12.880000       0.198290       0.381205       0.209089
      12.890000       0.177749       0.382818       0.215408
      12.900000       0.155721       0.384218       0.220986
      12.910000       0.133350       0.385155       0.225809
      12.920000       0.111905       0.385505       0.229885
      12.930000       0.092592       0.385276       0.233232
      12.940000       0.076365       0.384587       0.235865
      12.950000       0.063820       0.383635       0.237803
      12.960000       0.055186       0.382657       0.239088
      12.970000       0.050392       0.381888       0.239799
      12.980000       0.049165       0.381527       0.240077
      12.990000       0.051104       0.381702       0.240120
      13.000000       0.055733       0.382461       0.240168
      13.010000       0.062534       0.383760       0.240467
      13.020000       0.070977       0.385473       0.241225
      13.030000       0.080554       0.387406       0.242579
      13.040000       0.090807       0.389336       0.244568
      13.050000       0.101346       0.391055       0.247142
      13.060000       0.111845       0.392413       0.250175
      13.070000       0.122015       0.393360       0.253505
      13.080000       0.131581       0.393957       0.256967
      13.090000       0.140249       0.394378       0.260422
      13.100000       0.147707       0.394870       0.263778
      13.110000       0.153647       0.395706       0.266994
      13.120000       0.157803       0.397128       0.270066
      13.130000       0.160010       0.399281       0.273018
      13.140000       0.160244       0.402183       0.275889
      13.150000       0.158657       0.405713       0.278726
      13.160000       0.155581       0.409647       0.281582
      13.170000       0.151512       0.413718       0.284516
      13.180000       0.147065       0.417680       0.287586
      13.190000       0.142889       0.421353       0.290855
      13.200000       0.139559       0.424648       0.294382
      13.210000       0.137480       0.427545       0.298228
      13.220000       0.136830       0.430066       0.302447
      13.230000       0.137560       0.432232       0.307081
      13.240000       0.139459       0.434028       0.312158
      13.250000       0.142238       0.435389       0.317687
      13.260000       0.145620       0.436214       0.323662
      13.270000       0.149401       0.436385       0.330063
      13.280000       0.153474       0.435804       0.336859
      13.290000       0.157815       0.434417       0.344007
      13.300000       0.162461       0.432226       0.351457
      13.310000       0.167474       0.429283       0.359146
      13.320000       0.172929       0.425668       0.367004
      13.330000       0.178916       0.421474       0.374955
      13.340000       0.185542       0.416790       0.382919
      13.350000       0.192925       0.411707       0.390820
      13.360000       0.201157       0.406332       0.398583
      13.370000       0.210271       0.400805       0.406137
      13.380000       0.220199       0.395317       0.413406
      13.390000       0.230765       0.390116       0.420317
      13.400000       0.241684       0.385484       0.426795
      13.410000       0.252591       0.381708       0.432769
      13.420000       0.263065       0.379028       0.438184
      13.430000       0.272676       0.377607       0.442993
      13.440000       0.281029       0.377516       0.447166
      13.450000       0.287814       0.378737       0.450687
      13.460000       0.292847       0.381180       0.453557
      13.470000       0.296088       0.384699       0.455810
      13.480000       0.297627       0.389093       0.457513
      13.490000       0.297629       0.394120       0.458778
      13.500000       0.296268       0.399499       0.459758
      13.510000       0.293665       0.404918       0.460642
      13.520000       0.289865       0.410052       0.461636
      13.530000       0.284855       0.414586       0.462948
      13.540000       0.278601       0.418247       0.464765
      13.550000       0.271096       0.420840       0.467235
      13.560000       0.262376       0.422276       0.470451
      13.570000       0.252533       0.422577       0.474453
      13.580000       0.241715       0.421857       0.479220
      13.590000       0.230136       0.420291       0.484685
      13.600000       0.218089       0.418071       0.490741
      13.610000       0.205958       0.415380       0.497262
      13.620000       0.194220       0.412387       0.504113
      13.630000       0.183415       0.409241       0.511165
      13.640000       0.174086       0.406078       0.518312
      13.650000       0.166699       0.403030       0.525466
      13.660000       0.161556       0.400225       0.532568
      13.670000       0.158740       0.397797       0.539580
      13.680000       0.158113       0.395875       0.546481
      13.690000       0.159365       0.394570       0.553265
      13.700000       0.162100       0.393951       0.559934
      13.710000       0.165922       0.394027       0.566499
      13.720000       0.170518       0.394739       0.572972
      13.730000       0.175692       0.395965       0.579373
      13.740000       0.181365       0.397539       0.585718
      13.750000       0.187537       0.399268       0.592023
      13.760000       0.194227       0.400957       0.598291
      13.770000       0.201434       0.402426       0.604501
      13.780000       0.209105       0.403521       0.610607
      13.790000       0.217139       0.404120       0.616531
      13.800000       0.225410       0.404141       0.622166
      13.810000       0.233784       0.403538       0.627370
      13.820000       0.242137       0.402310       0.631976
      13.830000       0.250358       0.400497       0.635784
      13.840000       0.258338       0.398174       0.638572
      13.850000       0.265965       0.395438       0.640113
      13.860000       0.273121       0.392393       0.640193
      13.870000       0.279699       0.389135       0.638650
      13.880000       0.285628       0.385745       0.635394
      13.890000       0.290895       0.382278       0.630437
      13.900000       0.295562       0.378768       0.623895
      13.910000       0.299762       0.375236       0.615986
      13.920000       0.303672       0.371703       0.607027
      13.930000       0.307479       0.368198       0.597410
      13.940000       0.311346       0.364768       0.587584
      13.950000       0.315385       0.361478       0.577997
      13.960000       0.319652       0.358414       0.569047
      13.970000       0.324142       0.355678       0.561024
      13.980000       0.328797       0.353388       0.554091
      13.990000       0.333505       0.351663       0.548292
      14.000000       0.338093       0.350619       0.543587
      14.010000       0.342325       0.350351       0.539877
      14.020000       0.345905       0.350919       0.537039
      14.030000       0.348486       0.352320       0.534933
      14.040000       0.349718       0.354482       0.533407
      14.050000       0.349304       0.357258       0.532297
      14.060000       0.347072       0.360443       0.531430
      14.070000       0.343041       0.363791       0.530634
      14.080000       0.337454       0.367050       0.529750
      14.090000       0.330757       0.369968       0.528648
      14.100000       0.323533       0.372308       0.527233
      14.110000       0.316388       0.373840       0.525449
      14.120000       0.309826       0.374330       0.523267
      14.130000       0.304172       0.373526       0.520681
      14.140000       0.299538       0.371156       0.517685
      14.150000       0.295870       0.366936       0.514262
      14.160000       0.293012       0.360611       0.510368
      14.170000       0.290791       0.352015       0.505935
      14.180000       0.289073       0.341146       0.500872
      14.190000       0.287782       0.328231       0.495101
      14.200000       0.286891       0.313757       0.488582
      14.210000       0.286388       0.298438       0.481353
      14.220000       0.286245       0.283140       0.473550
      14.230000       0.286398       0.268761       0.465422
      14.240000       0.286741       0.256091       0.457319
      14.250000       0.287136       0.245717       0.449664
      14.260000       0.287431       0.237957       0.442900
      14.270000       0.287477       0.232873       0.437430
      14.280000       0.287138       0.230311       0.433557
      14.290000       0.286293       0.229969       0.431441
      14.300000       0.284835       0.231459       0.431088
      14.310000       0.282674       0.234365       0.432365
      14.320000       0.279744       0.238280       0.435049
      14.330000       0.276040       0.242843       0.438862
      14.340000       0.271649       0.247753       0.443524
      14.350000       0.266773       0.252782       0.448775
      14.360000       0.261726       0.257767       0.454400
      14.370000       0.256894       0.262605       0.460228
      14.380000       0.252687       0.267232       0.466134
      14.390000       0.249489       0.271617       0.472032
      14.400000       0.247622       0.275747       0.477868
      14.410000       0.247314       0.279624       0.483612
      14.420000       0.248685       0.283256       0.489254
      14.430000       0.251736       0.286654       0.494809
      14.440000       0.256351       0.289810       0.500310
      14.450000       0.262322       0.292689       0.505812
      14.460000       0.269375       0.295214       0.511381
      14.470000       0.277209       0.297261       0.517080
      14.480000       0.285530       0.298678       0.522959
      14.490000       0.294073       0.299302       0.529043
      14.500000       0.302615       0.298993       0.535332
      14.510000       0.310985       0.297662       0.541801
      14.520000       0.319062       0.295306       0.548412
      14.530000       0.326768       0.292032       0.555118
      14.540000       0.334059       0.288058       0.561874
      14.550000       0.340911       0.283699       0.568640
      14.560000       0.347305       0.279321       0.575382
      14.570000       0.353214       0.275274       0.582071
      14.580000       0.358583       0.271844       0.588689
      14.590000       0.363324       0.269212       0.595223
      14.600000       0.367314       0.267455       0.601675
      14.610000       0.370409       0.266562       0.608062
      14.620000       0.372481       0.266463       0.614407
      14.630000       0.373453       0.267060       0.620734
      14.640000       0.373345       0.268241       0.627054
      14.650000       0.372285       0.269898       0.633350
      14.660000       0.370515       0.271933       0.639570
      14.670000       0.368373       0.274253       0.645625
      14.680000       0.366251       0.276770       0.651394
      14.690000       0.364548       0.279385       0.656739
      14.700000       0.363610       0.281972       0.661525
      14.710000       0.363672       0.284372       0.665643
      14.720000       0.364825       0.286404       0.669031
      14.730000       0.367011       0.287879       0.671692
      14.740000       0.370058       0.288628       0.673703
      14.750000       0.373721       0.288517       0.675214
      14.760000       0.377737       0.287460       0.676428
      14.770000       0.381870       0.285420       0.677585
      14.780000       0.385927       0.282407       0.678922
      14.790000       0.389772       0.278484       0.680652
      14.800000       0.393310       0.273759       0.682941
      14.810000       0.396476       0.268398       0.685898
      14.820000       0.399213       0.262622       0.689575
      14.830000       0.401477       0.256710       0.693971
      14.840000       0.403236       0.250980       0.699040
      14.850000       0.404491       0.245759       0.704699
      14.860000       0.405286       0.241333       0.710851
      14.870000       0.405709       0.237910       0.717393
      14.880000       0.405880       0.235589       0.724237
      14.890000       0.405922       0.234368       0.731318
      14.900000       0.405934       0.234160       0.738590
      14.910000       0.405956       0.234824       0.746029
      14.920000       0.405953       0.236189       0.753620
      14.930000       0.405822       0.238080       0.761351
      14.940000       0.405423       0.240335       0.769205
      14.950000       0.404626       0.242831       0.777153
      14.960000       0.403360       0.245492       0.785148
      14.970000       0.401635       0.248294       0.793129
      14.980000       0.399546       0.251255       0.801014
      14.990000       0.397238       0.254411       0.808710
      15.000000       0.394867       0.257787       0.816115
      15.010000       0.392568       0.261376       0.823118
      15.020000       0.390435       0.265122       0.829606
      15.030000       0.388522       0.268933       0.835462
      15.040000       0.386845       0.272689       0.840567
      15.050000       0.385392       0.276265       0.844808
      15.060000       0.384125       0.279556       0.848086
      15.070000       0.382976       0.282492       0.850319
      15.080000       0.381850       0.285043       0.851446
      15.090000       0.380638       0.287227       0.851423
      15.100000       0.379231       0.289091       0.850216
      15.110000       0.377533       0.290708       0.847781
      15.120000       0.375481       0.292155       0.844045
      15.130000       0.373049       0.293503       0.838897
      15.140000       0.370261       0.294808       0.832188
      15.150000       0.367198       0.296114       0.823758
      15.160000       0.363996       0.297456       0.813477
      15.170000       0.360833       0.298868       0.801300
      15.180000       0.357900       0.300386       0.787304
      15.190000       0.355361       0.302054       0.771713
      15.200000       0.353331       0.303922       0.754885
      15.210000       0.351865       0.306035       0.737270
      15.220000       0.350963       0.308423       0.719347
      15.230000       0.350579       0.311082       0.701563
      15.240000       0.350623       0.313967       0.684282
      15.250000       0.350961       0.316990       0.667757
      15.260000       0.351422       0.320032       0.652121
      15.270000       0.351818       0.322968       0.637395
      15.280000       0.351976       0.325690       0.623507
      15.290000       0.351787       0.328134       0.610317
      15.300000       0.351246       0.330296       0.597652
      15.310000       0.350482       0.332229       0.585347
      15.320000       0.349745       0.334026       0.573276
      15.330000       0.349364       0.335796       0.561370
      15.340000       0.349671       0.337631       0.549620
      15.350000       0.350930       0.339593       0.538044
      15.360000       0.353274       0.341708       0.526663
      15.370000       0.356692       0.343974       0.515471
      15.380000       0.361035       0.346368       0.504435
      15.390000       0.366059       0.348858       0.493508
      15.400000       0.371475       0.351406       0.482668
      15.410000       0.376994       0.353968       0.471943
      15.420000       0.382371       0.356497       0.461427
      15.430000       0.387425       0.358946       0.451272
      15.440000       0.392052       0.361263       0.441658
      15.450000       0.396221       0.363399       0.432750
      15.460000       0.399965       0.365306       0.424664
      15.470000       0.403368       0.366950       0.417455
      15.480000       0.406543       0.368307       0.411116
      15.490000       0.409614       0.369368       0.405592
      15.500000       0.412693       0.370134       0.400795
      15.510000       0.415865       0.370613       0.396621
      15.520000       0.419169       0.370819       0.392962
      15.530000       0.422593       0.370772       0.389722
      15.540000       0.426068       0.370506       0.386825
      15.550000       0.429478       0.370064       0.384226
      15.560000       0.432678       0.369508       0.381913
      15.570000       0.435524       0.368906       0.379897
      15.580000       0.437893       0.368336       0.378204
      15.590000       0.439714       0.367876       0.376847
      15.600000       0.440978       0.367597       0.375813
      15.610000       0.441738       0.367560       0.375041
      15.620000       0.442092       0.367802       0.374422
      15.630000       0.442160       0.368338       0.373803
      15.640000       0.442050       0.369153       0.373014
      15.650000       0.441838       0.370212       0.371903
      15.660000       0.441561       0.371465       0.370374
      15.670000       0.441217       0.372859       0.368408
      15.680000       0.440770       0.374347       0.366074
      15.690000       0.440160       0.375896       0.363504
      15.700000       0.439315       0.377493       0.360862
      15.710000       0.438164       0.379130       0.358317
      15.720000       0.436646       0.380798       0.356024
      15.730000       0.434718       0.382472       0.354127
      15.740000       0.432363       0.384100       0.352760
      15.750000       0.429591       0.385612       0.352041
      15.760000       0.426442       0.386938       0.352054
      15.770000       0.422991       0.388025       0.352825
      15.780000       0.419344       0.388858       0.354310
      15.790000       0.415619       0.389469       0.356405
      15.800000       0.411934       0.389926       0.358960
      15.810000       0.408381       0.390318       0.361820
      15.820000       0.405014       0.390733       0.364846
      15.830000       0.401843       0.391241       0.367940
      15.840000       0.398851       0.391887       0.371050
      15.850000       0.396016       0.392695       0.374168
      15.860000       0.393340       0.393675       0.377314
      15.870000       0.390865       0.394833       0.380519
      15.880000       0.388664       0.396176       0.383813
      15.890000       0.386819       0.397713       0.387209
      15.900000       0.385387       0.399443       0.390714
      15.910000       0.384383       0.401352       0.394334
      15.920000       0.383784       0.403402       0.398077
      15.930000       0.383549       0.405541       0.401959
      15.940000       0.383645       0.407705       0.406001
      15.950000       0.384066       0.409836       0.410218
      15.960000       0.384837       0.411892       0.414618
      15.970000       0.385999       0.413854       0.419196
      15.980000       0.387593       0.415727       0.423934
      15.990000       0.389627       0.417536       0.428804
      16.000000       0.392062       0.419314       0.433769
      16.010000       0.394803       0.421098       0.438783
      16.020000       0.397711       0.422916       0.443798
      16.030000       0.400621       0.424782       0.448763
      16.040000       0.403369       0.426700       0.453639
      16.050000       0.405805       0.428660       0.458401
      16.060000       0.407811       0.430646       0.463046
      16.070000       0.409304       0.432639       0.467592
      16.080000       0.410245       0.434614       0.472069
      16.090000       0.410642       0.436545       0.476516
      16.100000       0.410561       0.438406       0.480972
      16.110000       0.410116       0.440172       0.485472
      16.120000       0.409455       0.441820       0.490046
      16.130000       0.408719       0.443333       0.494716
      16.140000       0.408008       0.444704       0.499497
      16.150000       0.407349       0.445937       0.504396
      16.160000       0.406690       0.447040       0.509410
      16.170000       0.405915       0.448023       0.514523
      16.180000       0.404875       0.448896       0.519712
      16.190000       0.403437       0.449675       0.524944
      16.200000       0.401527       0.450378       0.530176
      16.210000       0.399155       0.451035       0.535357
      16.220000       0.396431       0.451683       0.540428
      16.230000       0.393551       0.452354       0.545327
      16.240000       0.390774       0.453074       0.549986
      16.250000       0.388386       0.453858       0.554343
      16.260000       0.386664       0.454706       0.558339
      16.270000       0.385840       0.455617       0.561922
      16.280000       0.386077       0.456590       0.565048
      16.290000       0.387446       0.457631       0.567684
      16.300000       0.389931       0.458748       0.569804
      16.310000       0.393433       0.459945       0.571401
      16.320000       0.397795       0.461220       0.572480
      16.330000       0.402827       0.462557       0.573064
      16.340000       0.408324       0.463934       0.573192
      16.350000       0.414088       0.465328       0.572926
      16.360000       0.419930       0.466720       0.572353
      16.370000       0.425680       0.468108       0.571580
      16.380000       0.431186       0.469500       0.570736
      16.390000       0.436321       0.470915       0.569952
      16.400000       0.440982       0.472376       0.569350
      16.410000       0.445092       0.473895       0.569028
      16.420000       0.448596       0.475466       0.569058
      16.430000       0.451456       0.477063       0.569478
      16.440000       0.453644       0.478645       0.570303
      16.450000       0.455135       0.480162       0.571524
      16.460000       0.455908       0.481568       0.573111
      16.470000       0.455954       0.482835       0.575024
      16.480000       0.455275       0.483952       0.577211
      16.490000       0.453883       0.484925       0.579616
      16.500000       0.451786       0.485768       0.582188
      16.510000       0.448976       0.486492       0.584877
      16.520000       0.445427       0.487097       0.587640
      16.530000       0.441110       0.487578       0.590439
      16.540000       0.436011       0.487928       0.593237
      16.550000       0.430154       0.488149       0.595998
      16.560000       0.423616       0.488256       0.598686
      16.570000       0.416531       0.488279       0.601265
      16.580000       0.409084       0.488250       0.603704
      16.590000       0.401501       0.488203       0.605977
      16.600000       0.394031       0.488164       0.608060
      16.610000       0.386918       0.488157       0.609941
      16.620000       0.380378       0.488201       0.611611
      16.630000       0.374590       0.488316       0.613071
      16.640000       0.369687       0.488519       0.614332
      16.650000       0.365758       0.488826       0.615415
      16.660000       0.362847       0.489248       0.616353
      16.670000       0.360947       0.489796       0.617190
      16.680000       0.360004       0.490476       0.617976
      16.690000       0.359921       0.491286       0.618771
      16.700000       0.360576       0.492214       0.619630
      16.710000       0.361831       0.493237       0.620604
      16.720000       0.363550       0.494319       0.621730
      16.730000       0.365604       0.495415       0.623031
      16.740000       0.367879       0.496483       0.624514
      16.750000       0.370285       0.497484       0.626174
      16.760000       0.372760       0.498389       0.627991
      16.770000       0.375274       0.499179       0.629944
      16.780000       0.377826       0.499844       0.632011
      16.790000       0.380436       0.500382       0.634181
      16.800000       0.383139       0.500798       0.636446
      16.810000       0.385975       0.501103       0.638801
      16.820000       0.388990       0.501321       0.641235
      16.830000       0.392226       0.501489       0.643720
      16.840000       0.395716       0.501649       0.646218
      16.850000       0.399481       0.501850       0.648677
      16.860000       0.403523       0.502134       0.651049
      16.870000       0.407830       0.502534       0.653290
      16.880000       0.412373       0.503078       0.655373
      16.890000       0.417113       0.503784       0.657284
      16.900000       0.422005       0.504660       0.659021
      16.910000       0.426994       0.505709       0.660596
      16.920000       0.432022       0.506917       0.662024
      16.930000       0.437025       0.508265       0.663324
      16.940000       0.441929       0.509720       0.664517
      16.950000       0.446658       0.511241       0.665618
      16.960000       0.451131       0.512782       0.666638
      16.970000       0.455269       0.514294       0.667583
      16.980000       0.459008       0.515732       0.668454
      16.990000       0.462303       0.517061       0.669253
      17.000000       0.465139       0.518264       0.669987
      17.010000       0.467534       0.519339       0.670669
      17.020000       0.469541       0.520293       0.671320
      17.030000       0.471241       0.521137       0.671961
      17.040000       0.472735       0.521875       0.672611
      17.050000       0.474132       0.522506       0.673286
      17.060000       0.475533       0.523025       0.673995
      17.070000       0.477014       0.523423       0.674742
      17.080000       0.478617       0.523691       0.675536
      17.090000       0.480343       0.523821       0.676387
      17.100000       0.482167       0.523807       0.677315
      17.110000       0.484043       0.523647       0.678348
      17.120000       0.485910       0.523349       0.679517
      17.130000       0.487695       0.522935       0.680853
      17.140000       0.489307       0.522444       0.682377
      17.150000       0.490631       0.521925       0.684094
      17.160000       0.491533       0.521436       0.685991
      17.170000       0.491861       0.521031       0.688040
      17.180000       0.491469       0.520759       0.690201
      17.190000       0.490232       0.520651       0.692427
      17.200000       0.488069       0.520722       0.694676
      17.210000       0.484963       0.520972       0.696907
      17.220000       0.480968       0.521385       0.699086
      17.230000       0.476218       0.521934       0.701187
      17.240000       0.470916       0.522587       0.703187
      17.250000       0.465318       0.523309       0.705072
      17.260000       0.459713       0.524067       0.706835
      17.270000       0.454383       0.524831       0.708477
      17.280000       0.449580       0.525579       0.710006
      17.290000       0.445498       0.526296       0.711440
      17.300000       0.442260       0.526977       0.712802
      17.310000       0.439909       0.527624       0.714117
      17.320000       0.438415       0.528247       0.715412
      17.330000       0.437673       0.528855       0.716717
      17.340000       0.437521       0.529455       0.718059
      17.350000       0.437757       0.530051       0.719460
      17.360000       0.438168       0.530641       0.720940
      17.370000       0.438562       0.531220       0.722513
      17.380000       0.438791       0.531786       0.724183
      17.390000       0.438777       0.532337       0.725948
      17.400000       0.438511       0.532878       0.727797
      17.410000       0.438047       0.533422       0.729712
      17.420000       0.437481       0.533984       0.731669
      17.430000       0.436929       0.534583       0.733647
      17.440000       0.436515       0.535238       0.735621
      17.450000       0.436357       0.535964       0.737574
      17.460000       0.436563       0.536770       0.739490
      17.470000       0.437215       0.537658       0.741361
      17.480000       0.438366       0.538621       0.743184
      17.490000       0.440023       0.539647       0.744968
      17.500000       0.442150       0.540717       0.746728
      17.510000       0.444673       0.541818       0.748483
      17.520000       0.447501       0.542933       0.750250
      17.530000       0.450543       0.544052       0.752043
      17.540000       0.453719       0.545163       0.753867
      17.550000       0.456974       0.546250       0.755718
      17.560000       0.460276       0.547299       0.757589
      17.570000       0.463612       0.548292       0.759471
      17.580000       0.466982       0.549219       0.761363
      17.590000       0.470389       0.550075       0.763268
      17.600000       0.473831       0.550866       0.765202
      17.610000       0.477299       0.551609       0.767185
      17.620000       0.480770       0.552328       0.769241
      17.630000       0.484205       0.553050       0.771388
      17.640000       0.487557       0.553802       0.773636
      17.650000       0.490771       0.554605       0.775979
      17.660000       0.493792       0.555474       0.778403
      17.670000       0.496571       0.556417       0.780880
      17.680000       0.499075       0.557436       0.783385
      17.690000       0.501284       0.558530       0.785891
      17.700000       0.503202       0.559694       0.788380
      17.710000       0.504850       0.560917       0.790842
      17.720000       0.506267       0.562189       0.793273
      17.730000       0.507509       0.563497       0.795671
      17.740000       0.508638       0.564833       0.798035
      17.750000       0.509721       0.566193       0.800366
      17.760000       0.510823       0.567572       0.802667
      17.770000       0.511993       0.568964       0.804947
      17.780000       0.513267       0.570357       0.807222
      17.790000       0.514658       0.571728       0.809511
      17.800000       0.516162       0.573047       0.811835
      17.810000       0.517756       0.574280       0.814211
      17.820000       0.519407       0.575396       0.816647
      17.830000       0.521071       0.576375       0.819143
      17.840000       0.522701       0.577212       0.821696
      17.850000       0.524243       0.577916       0.824301
      17.860000       0.525639       0.578504       0.826952
      17.870000       0.526825       0.578996       0.829647
      17.880000       0.527741       0.579412       0.832383
      17.890000       0.528337       0.579769       0.835155
      17.900000       0.528587       0.580078       0.837962
      17.910000       0.528496       0.580349       0.840803
      17.920000       0.528103       0.580585       0.843678
      17.930000       0.527478       0.580791       0.846587
      17.940000       0.526709       0.580971       0.849531
      17.950000       0.525889       0.581135       0.852504
      17.960000       0.525107       0.581295       0.855493
      17.970000       0.524441       0.581466       0.858474
      17.980000       0.523958       0.581655       0.861414
      17.990000       0.523714       0.581858       0.864269
      18.000000       0.523751       0.582060       0.866997
      18.010000       0.524092       0.582235       0.869562
      18.020000       0.524740       0.582356       0.871942
      18.030000       0.525677       0.582397       0.874137
      18.040000       0.526868       0.582341       0.876172
      18.050000       0.528266       0.582182       0.878094
      18.060000       0.529817       0.581927       0.879961
      18.070000       0.531468       0.581596       0.881835
      18.080000       0.533168       0.581218       0.883765
      18.090000       0.534877       0.580832       0.885777
      18.100000       0.536560       0.580473       0.887874
      18.110000       0.538183       0.580165       0.890033
      18.120000       0.539708       0.579919       0.892213
      18.130000       0.541077       0.579728       0.894367
      18.140000       0.542206       0.579576       0.896449
      18.150000       0.542981       0.579445       0.898426
      18.160000       0.543267       0.579323       0.900283
      18.170000       0.542928       0.579214       0.902025
      18.180000       0.541856       0.579132       0.903677
      18.190000       0.539998       0.579106       0.905269
      18.200000       0.537392       0.579166       0.906831
      18.210000       0.534171       0.579337       0.908381
      18.220000       0.530560       0.579637       0.909929
      18.230000       0.526845       0.580068       0.911481
      18.240000       0.523331       0.580622       0.913048
      18.250000       0.520295       0.581283       0.914663
      18.260000       0.517951       0.582032       0.916377
      18.270000       0.516429       0.582848       0.918259
      18.280000       0.515770       0.583712       0.920384
      18.290000       0.515939       0.584600       0.922810
      18.300000       0.516844       0.585489       0.925568
      18.310000       0.518361       0.586349       0.928646
      18.320000       0.520348       0.587154       0.931981
      18.330000       0.522671       0.587879       0.935462
      18.340000       0.525205       0.588509       0.938940
      18.350000       0.527846       0.589038       0.942246
      18.360000       0.530509       0.589468       0.945213
      18.370000       0.533128       0.589808       0.947707
      18.380000       0.535653       0.590071       0.949641
      18.390000       0.538041       0.590275       0.950993
      18.400000       0.540258       0.590443       0.951793
      18.410000       0.542272       0.590605       0.952108
      18.420000       0.544057       0.590796       0.952018
      18.430000       0.545594       0.591052       0.951582
      18.440000       0.546869       0.591402       0.950829
      18.450000       0.547876       0.591864       0.949756
      18.460000       0.548618       0.592443       0.948340
      18.470000       0.549104       0.593132       0.946562
      18.480000       0.549352       0.593912       0.944416
      18.490000       0.549389       0.594762       0.941928
      18.500000       0.549248       0.595653       0.939145
      18.510000       0.548972       0.596561       0.936130
      18.520000       0.548613       0.597459       0.932940
      18.530000       0.548229       0.598328       0.929616
      18.540000       0.547891       0.599151       0.926171
      18.550000       0.547666       0.599916       0.922588
      18.560000       0.547620       0.600609       0.918833
      18.570000       0.547802       0.601216       0.914870
      18.580000       0.548244       0.601719       0.910683
      18.590000       0.548957       0.602101       0.906287
      18.600000       0.549931       0.602349       0.901739
      18.610000       0.551137       0.602456       0.897130
      18.620000       0.552530       0.602428       0.892564
      18.630000       0.554052       0.602286       0.888139
      18.640000       0.555638       0.602061       0.883923
      18.650000       0.557222       0.601794       0.879943
      18.660000       0.558746       0.601524       0.876180
      18.670000       0.560164       0.601290       0.872581
      18.680000       0.561452       0.601119       0.869073
      18.690000       0.562605       0.601027       0.865586
      18.700000       0.563640       0.601017       0.862074
      18.710000       0.564590       0.601084       0.858534
      18.720000       0.565500       0.601217       0.855005
      18.730000       0.566412       0.601399       0.851553
      18.740000       0.567361       0.601614       0.848239
      18.750000       0.568367       0.601842       0.845099
      18.760000       0.569432       0.602067       0.842133
      18.770000       0.570545       0.602273       0.839311
      18.780000       0.571683       0.602450       0.836596
      18.790000       0.572821       0.602598       0.833959
      18.800000       0.573929       0.602722       0.831393
      18.810000       0.574983       0.602837       0.828901
      18.820000       0.575962       0.602959       0.826491
      18.830000       0.576854       0.603100       0.824154
      18.840000       0.577653       0.603273       0.821861
      18.850000       0.578370       0.603485       0.819570
      18.860000       0.579024       0.603745       0.817243
      18.870000       0.579643       0.604060       0.814853
      18.880000       0.580260       0.604435       0.812394
      18.890000       0.580899       0.604874       0.809871
      18.900000       0.581575       0.605374       0.807295
      18.910000       0.582290       0.605927       0.804674
      18.920000       0.583032       0.606516       0.802015
      18.930000       0.583778       0.607121       0.799322
      18.940000       0.584497       0.607721       0.796605
      18.950000       0.585154       0.608297       0.793880
      18.960000       0.585718       0.608834       0.791165
      18.970000       0.586162       0.609325       0.788482
      18.980000       0.586461       0.609773       0.785846
      18.990000       0.586591       0.610191       0.783270
      19.000000       0.586524       0.610601       0.780760
      19.010000       0.586228       0.611029       0.778318
      19.020000       0.585667       0.611502       0.775946
      19.030000       0.584814       0.612039       0.773641
      19.040000       0.583655       0.612655       0.771393
      19.050000       0.582202       0.613353       0.769186
      19.060000       0.580493       0.614130       0.767005
      19.070000       0.578592       0.614975       0.764855
      19.080000       0.576587       0.615875       0.762771
      19.090000       0.574587       0.616814       0.760832
      19.100000       0.572711       0.617776       0.759156
      19.110000       0.571087       0.618749       0.757883
      19.120000       0.569833       0.619720       0.757145
      19.130000       0.569045       0.620683       0.757042
      19.140000       0.568781       0.621632       0.757616
      19.150000       0.569059       0.622567       0.758843
      19.160000       0.569851       0.623490       0.760640
      19.170000       0.571096       0.624400       0.762881
      19.180000       0.572712       0.625301       0.765414
      19.190000       0.574604       0.626192       0.768081
      19.200000       0.576679       0.627079       0.770728
      19.210000       0.578850       0.627964       0.773208
      19.220000       0.581042       0.628856       0.775373
      19.230000       0.583193       0.629764       0.777077
      19.240000       0.585251       0.630696       0.778180
      19.250000       0.587180       0.631659       0.778560
      19.260000       0.588954       0.632651       0.778137
      19.270000       0.590561       0.633668       0.776897
      19.280000       0.592000       0.634695       0.774900
      19.290000       0.593284       0.635715       0.772281
      19.300000       0.594435       0.636710       0.769233
      19.310000       0.595477       0.637664       0.765980
      19.320000       0.596435       0.638564       0.762742
      19.330000       0.597327       0.639405       0.759709
      19.340000       0.598164       0.640189       0.757028
      19.350000       0.598948       0.640924       0.754795
      19.360000       0.599666       0.641620       0.753056
      19.370000       0.600301       0.642288       0.751822
      19.380000       0.600826       0.642936       0.751073
      19.390000       0.601219       0.643572       0.750775
      19.400000       0.601464       0.644201       0.750885
      19.410000       0.601562       0.644827       0.751360
      19.420000       0.601531       0.645455       0.752157
      19.430000       0.601410       0.646089       0.753235
      19.440000       0.601252       0.646736       0.754550
      19.450000       0.601117       0.647400       0.756055
      19.460000       0.601063       0.648083       0.757696
      19.470000       0.601134       0.648787       0.759418
      19.480000       0.601353       0.649506       0.761168
      19.490000       0.601720       0.650234       0.762904
      19.500000       0.602211       0.650963       0.764605
      19.510000       0.602787       0.651685       0.766261
      19.520000       0.603402       0.652392       0.767874
      19.530000       0.604008       0.653072       0.769438
      19.540000       0.604564       0.653716       0.770939
      19.550000       0.605037       0.654312       0.772354
      19.560000       0.605411       0.654851       0.773652
      19.570000       0.605677       0.655328       0.774804
      19.580000       0.605839       0.655747       0.775787
      19.590000       0.605910       0.656118       0.776594
      19.600000       0.605908       0.656457       0.777229
      19.610000       0.605854       0.656782       0.777715
      19.620000       0.605769       0.657110       0.778080
      19.630000       0.605668       0.657454       0.778355
      19.640000       0.605554       0.657817       0.778561
      19.650000       0.605422       0.658196       0.778706
      19.660000       0.605260       0.658585       0.778785
      19.670000       0.605053       0.658971       0.778786
      19.680000       0.604788       0.659349       0.778697
      19.690000       0.604457       0.659712       0.778513
      19.700000       0.604059       0.660059       0.778241
      19.710000       0.603607       0.660391       0.777899
      19.720000       0.603125       0.660713       0.777519
      19.730000       0.602653       0.661029       0.777142
      19.740000       0.602239       0.661343       0.776812
      19.750000       0.601943       0.661659       0.776561
      19.760000       0.601819       0.661978       0.776403
      19.770000       0.601914       0.662301       0.776324
      19.780000       0.602257       0.662623       0.776291
      19.790000       0.602860       0.662937       0.776259
      19.800000       0.603711       0.663234       0.776188
      19.810000       0.604782       0.663507       0.776050
      19.820000       0.606028       0.663746       0.775838
      19.830000       0.607398       0.663944       0.775560
      19.840000       0.608834       0.664094       0.775239
      19.850000       0.610279       0.664190       0.774909
      19.860000       0.611683       0.664228       0.774616
      19.870000       0.613001       0.664210       0.774406
      19.880000       0.614200       0.664144       0.774318
      19.890000       0.615257       0.664042       0.774376
      19.900000       0.616159       0.663918       0.774586
      19.910000       0.616905       0.663784       0.774937
      19.920000       0.617499       0.663645       0.775407
      19.930000       0.617957       0.663504       0.775969
      19.940000       0.618301       0.663361       0.776596
      19.950000       0.618560       0.663220       0.777258
      19.960000       0.618766       0.663087       0.777920
      19.970000       0.618951       0.662971       0.778552
      19.980000       0.619140       0.662884       0.779132
      19.990000       0.619352       0.662836       0.779654
      20.000000       0.619593       0.662833       0.780134
